* Measurement data measured by REW V5.20.13
* Source: C:\Users\kurin\Desktop\Targets and Curves\Resolve\Img\Files\Elex_SPL.txt
* Format: Comma/Tab/Space delimited data
* Dated: Aug 14, 2023 3:19:27 PM
* REW Settings:
*  C-weighting compensation: Off
*  Target level: 75.0 dB
* Note: ; Measurement imported from C:\Users\kurin\Desktop\Targets and Curves\Resolve\Img\Files\Elex_SPL.txt Format: Comma/Tab/Space delimited data 623 values loaded, 5 Hz to 39,792 Hz log spaced 
* Measurement: Elex_SPL
* Smoothing: 1/48 octave
* Frequency Step: 1/96 octave
* Start Frequency: 5.000 Hz
*
* Freq(Hz) SPL(dB) Phase(degrees)
5.000000 72.098 53.0290
5.036232 72.116 53.0150
5.072727 72.135 53.0000
5.109486 72.157 52.9827
5.146511 72.183 52.9630
5.183805 72.214 52.9393
5.221369 72.247 52.9140
5.259205 72.282 52.8899
5.297316 72.318 52.8650
5.335702 72.356 52.8378
5.374367 72.396 52.8100
5.413311 72.435 52.7829
5.452538 72.475 52.7560
5.492050 72.515 52.7291
5.531847 72.554 52.7020
5.571934 72.593 52.6746
5.612310 72.632 52.6470
5.652979 72.672 52.6196
5.693943 72.711 52.5920
5.735204 72.750 52.5636
5.776763 72.789 52.5350
5.818624 72.828 52.5065
5.860788 72.868 52.4780
5.903258 72.907 52.4496
5.946035 72.946 52.4210
5.989123 72.985 52.3916
6.032523 73.025 52.3620
6.076237 73.064 52.3326
6.120268 73.103 52.3030
6.164618 73.142 52.2731
6.209289 73.182 52.2430
6.254284 73.221 52.2126
6.299605 73.260 52.1820
6.345255 73.299 52.1511
6.391235 73.339 52.1200
6.437549 73.378 52.0886
6.484198 73.417 52.0570
6.531185 73.456 52.0251
6.578513 73.496 51.9930
6.626183 73.536 51.9611
6.674199 73.575 51.9290
6.722563 73.614 51.8961
6.771278 73.653 51.8630
6.820345 73.692 51.8301
6.869768 73.732 51.7970
6.919549 73.771 51.7637
6.969691 73.810 51.7300
7.020196 73.849 51.6956
7.071068 73.889 51.6610
7.122308 73.928 51.6266
7.173919 73.967 51.5920
7.225904 74.006 51.5566
7.278266 74.046 51.5210
7.331007 74.085 51.4856
7.384131 74.124 51.4500
7.437639 74.163 51.4142
7.491535 74.203 51.3780
7.545822 74.242 51.3411
7.600502 74.281 51.3040
7.655579 74.320 51.2671
7.711054 74.360 51.2300
7.766932 74.399 51.1922
7.823214 74.438 51.1540
7.879904 74.477 51.1156
7.937005 74.517 51.0770
7.994520 74.556 51.0381
8.052452 74.595 50.9990
8.110803 74.634 50.9596
8.169578 74.674 50.9200
8.228777 74.714 50.8802
8.288406 74.753 50.8400
8.348468 74.792 50.7992
8.408964 74.831 50.7580
8.469899 74.870 50.7166
8.531276 74.910 50.6750
8.593097 74.949 50.6331
8.655366 74.988 50.5910
8.718086 75.027 50.5486
8.781260 75.067 50.5060
8.844893 75.106 50.4632
8.908987 75.145 50.4200
8.973545 75.184 50.3763
9.038571 75.224 50.3320
9.104069 75.263 50.2871
9.170040 75.302 50.2420
9.236490 75.341 50.1971
9.303422 75.381 50.1520
9.370838 75.420 50.1063
9.438744 75.459 50.0600
9.507140 75.498 50.0132
9.576033 75.538 49.9660
9.645425 75.577 49.9186
9.715320 75.616 49.8710
9.785721 75.655 49.8232
9.856632 75.695 49.7750
9.928058 75.735 49.7262
10.000000 75.774 49.6770
10.072464 75.813 49.6277
10.145453 75.852 49.5781
10.218971 75.891 49.5278
10.293022 75.931 49.4770
10.367610 75.970 49.4257
10.442738 76.009 49.3740
10.518411 76.049 49.3222
10.594631 76.088 49.2700
10.671404 76.127 49.2173
10.748734 76.166 49.1640
10.826623 76.205 49.1102
10.905077 76.245 49.0560
10.984100 76.284 49.0017
11.063695 76.323 48.9470
11.143867 76.362 48.8918
11.224621 76.402 48.8360
11.305959 76.441 48.7797
11.387886 76.480 48.7230
11.470407 76.519 48.6663
11.553527 76.559 48.6090
11.637249 76.598 48.5508
11.721577 76.637 48.4921
11.806517 76.676 48.4333
11.892071 76.716 48.3741
11.978246 76.756 48.3138
12.065045 76.795 48.2530
12.152473 76.834 48.1923
12.240536 76.873 48.1310
12.329235 76.912 48.0688
12.418578 76.952 48.0061
12.508568 76.991 47.9433
12.599211 77.030 47.8800
12.690510 77.069 47.8159
12.782471 77.109 47.7511
12.875097 77.148 47.6858
12.968395 77.187 47.6200
13.062370 77.226 47.5538
13.157025 77.266 47.4870
13.252366 77.305 47.4198
13.348398 77.344 47.3521
13.445127 77.383 47.2834
13.542556 77.423 47.2141
13.640691 77.462 47.1444
13.739536 77.501 47.0740
13.839099 77.540 47.0029
13.939383 77.580 46.9311
14.040393 77.619 46.8589
14.142136 77.658 46.7860
14.244616 77.697 46.7123
14.347837 77.737 46.6380
14.451808 77.777 46.5634
14.556532 77.816 46.4880
14.662014 77.855 46.4114
14.768262 77.894 46.3341
14.875278 77.933 46.2564
14.983070 77.973 46.1781
15.091644 78.012 46.0989
15.201005 78.051 46.0191
15.311157 78.090 45.9384
15.422109 78.130 45.8571
15.533863 78.169 45.7750
15.646428 78.208 45.6920
15.759809 78.247 45.6079
15.874010 78.287 45.5231
15.989040 78.326 45.4380
16.104904 78.365 45.3521
16.221605 78.404 45.2645
16.339155 78.444 45.1761
16.457554 78.483 45.0875
16.576813 78.522 44.9981
16.696936 78.561 44.9071
16.817928 78.601 44.8151
16.939798 78.640 44.7221
17.062551 78.679 44.6281
17.186193 78.718 44.5331
17.310732 78.758 44.4371
17.436172 78.797 44.3401
17.562521 78.836 44.2421
17.689787 78.875 44.1432
17.817974 78.915 44.0431
17.947090 78.955 43.9413
18.077143 78.994 43.8381
18.208138 79.033 43.7338
18.340080 79.072 43.6281
18.472980 79.111 43.5209
18.606844 79.151 43.4121
18.741676 79.190 43.3015
18.877487 79.229 43.1891
19.014280 79.268 43.0751
19.152065 79.308 42.9591
19.290850 79.347 42.8409
19.430639 79.386 42.7201
19.571442 79.425 42.5968
19.713264 79.465 42.4702
19.856115 79.504 42.3395
20.000000 79.543 42.2041
20.144928 79.582 42.0626
20.290907 79.620 41.9161
20.437943 79.657 41.7649
20.586044 79.692 41.6111
20.735220 79.725 41.4548
20.885475 79.757 41.3022
21.036821 79.786 41.1592
21.189262 79.814 41.0262
21.342808 79.842 40.9063
21.497467 79.870 40.7971
21.653246 79.899 40.6974
21.810154 79.929 40.6071
21.968201 79.960 40.5278
22.127390 79.993 40.4541
22.287735 80.030 40.3826
22.449242 80.069 40.3081
22.611917 80.109 40.2237
22.775772 80.151 40.1311
22.940815 80.193 40.0303
23.107054 80.237 39.9192
23.274498 80.282 39.7952
23.443153 80.327 39.6592
23.613033 80.370 39.5086
23.784142 80.411 39.3501
23.956491 80.451 39.1899
24.130091 80.490 39.0272
24.304947 80.529 38.8633
24.481071 80.567 38.6982
24.658470 80.604 38.5315
24.837156 80.640 38.3662
25.017136 80.676 38.2071
25.198421 80.712 38.0492
25.381020 80.751 37.8907
25.564941 80.791 37.7272
25.750195 80.831 37.5532
25.936790 80.871 37.3702
26.124741 80.911 37.1783
26.314051 80.951 36.9763
26.504732 80.990 36.7617
26.696796 81.028 36.5383
26.890253 81.063 36.3085
27.085112 81.096 36.0743
27.281382 81.129 35.8385
27.479073 81.161 35.6003
27.678198 81.190 35.3586
27.878765 81.217 35.1173
28.080786 81.242 34.8815
28.284271 81.267 34.6473
28.489231 81.292 34.4126
28.695675 81.317 34.1773
28.903616 81.339 33.9390
29.113064 81.359 33.7033
29.324028 81.376 33.4754
29.536524 81.391 33.2552
29.750557 81.406 33.0433
29.966141 81.420 32.8432
30.183289 81.431 32.6588
30.402010 81.441 32.4902
30.622314 81.453 32.3408
30.844217 81.466 32.2052
31.067726 81.482 32.0790
31.292856 81.499 31.9622
31.519617 81.516 31.8550
31.748020 81.536 31.7521
31.978081 81.561 31.6511
32.209808 81.590 31.5441
32.443211 81.621 31.4225
32.678310 81.653 31.2872
32.915108 81.685 31.1368
33.153625 81.717 30.9702
33.393871 81.751 30.7871
33.635857 81.785 30.5843
33.879597 81.818 30.3559
34.125103 81.848 30.1093
34.372387 81.872 29.8461
34.621464 81.892 29.5784
34.872345 81.906 29.3167
35.125042 81.915 29.0673
35.379574 81.921 28.8403
35.635948 81.925 28.6342
35.894180 81.930 28.4519
36.154285 81.935 28.2902
36.416275 81.940 28.1486
36.680161 81.946 28.0232
36.945961 81.955 27.9122
37.213688 81.968 27.8082
37.483353 81.984 27.7047
37.754974 82.003 27.5972
38.028561 82.024 27.4775
38.304131 82.045 27.3502
38.581699 82.065 27.2157
38.861279 82.084 27.0772
39.142883 82.103 26.9393
39.426529 82.123 26.7982
39.712231 82.144 26.6519
40.000000 82.166 26.4992
40.289856 82.187 26.3367
40.581814 82.207 26.1692
40.875885 82.224 26.0005
41.172089 82.241 25.8313
41.470440 82.258 25.6641
41.770950 82.275 25.4973
42.073643 82.291 25.3296
42.378525 82.307 25.1622
42.685616 82.322 24.9962
42.994934 82.337 24.8302
43.306492 82.353 24.6634
43.620308 82.368 24.4953
43.936401 82.382 24.3243
44.254780 82.396 24.1523
44.575470 82.409 23.9798
44.898483 82.420 23.8093
45.223835 82.430 23.6421
45.551544 82.438 23.4822
45.881630 82.445 23.3355
46.214108 82.452 23.1982
46.548996 82.462 23.0711
46.886307 82.473 22.9472
47.226067 82.487 22.8198
47.568283 82.501 22.6892
47.912983 82.514 22.5533
48.260181 82.528 22.4122
48.609894 82.542 22.2646
48.962143 82.556 22.1132
49.316940 82.567 21.9582
49.674313 82.576 21.8062
50.034271 82.582 21.6633
50.396843 82.588 21.5312
50.762039 82.594 21.4155
51.129883 82.601 21.3102
51.500389 82.611 21.2124
51.873581 82.622 21.1182
52.249481 82.635 21.0230
52.628101 82.649 20.9262
53.009464 82.664 20.8255
53.393593 82.680 20.7212
53.780506 82.697 20.6134
54.170223 82.714 20.5002
54.562763 82.732 20.3791
54.958145 82.751 20.2512
55.356396 82.768 20.1155
55.757530 82.785 19.9752
56.161572 82.801 19.8337
56.568542 82.817 19.6902
56.978462 82.833 19.5452
57.391350 82.848 19.3983
57.807232 82.863 19.2490
58.226128 82.878 19.0983
58.648056 82.892 18.9474
59.073048 82.907 18.7943
59.501114 82.923 18.6369
59.932281 82.938 18.4753
60.366577 82.952 18.3087
60.804020 82.966 18.1373
61.244629 82.979 17.9604
61.688435 82.991 17.7803
62.135452 83.001 17.5971
62.585712 83.008 17.4173
63.039234 83.012 17.2472
63.496040 83.016 17.0873
63.956161 83.020 16.9411
64.419617 83.025 16.8052
64.886421 83.031 16.6798
65.356621 83.039 16.5582
65.830215 83.050 16.4352
66.307251 83.063 16.3073
66.787743 83.076 16.1691
67.271713 83.090 16.0213
67.759193 83.104 15.8625
68.250206 83.118 15.6933
68.744774 83.130 15.5123
69.242928 83.141 15.3244
69.744690 83.149 15.1323
70.250084 83.154 14.9404
70.759148 83.157 14.7536
71.271896 83.159 14.5723
71.788361 83.160 14.3989
72.308571 83.161 14.2323
72.832550 83.161 14.0727
73.360321 83.161 13.9193
73.891922 83.161 13.7713
74.427376 83.161 13.6283
74.966705 83.161 13.4893
75.509949 83.161 13.3542
76.057121 83.161 13.2229
76.608261 83.161 13.0953
77.163399 83.161 12.9714
77.722557 83.161 12.8512
78.285767 83.161 12.7343
78.853058 83.161 12.6222
79.424461 83.161 12.5166
80.000000 83.161 12.4172
80.579712 83.162 12.3244
81.163628 83.164 12.2372
81.751770 83.167 12.1562
82.344177 83.172 12.0772
82.940880 83.181 11.9980
83.541901 83.192 11.9122
84.147285 83.205 11.8123
84.757050 83.219 11.6992
85.371231 83.233 11.5715
85.989868 83.247 11.4293
86.612984 83.261 11.2720
87.240616 83.274 11.1004
87.872803 83.285 10.9131
88.509560 83.293 10.7164
89.150940 83.298 10.5152
89.796967 83.301 10.3114
90.447670 83.302 10.1086
91.103088 83.301 9.9064
91.763260 83.298 9.7044
92.428215 83.293 9.5064
93.097992 83.285 9.3144
93.772614 83.274 9.1334
94.452133 83.261 8.9694
95.136566 83.247 8.8213
95.825966 83.233 8.6898
96.520363 83.219 8.5742
97.219788 83.205 8.4744
97.924286 83.192 8.3892
98.633881 83.181 8.3196
99.348625 83.172 8.2581
100.068542 83.167 8.1983
100.793686 83.164 8.1382
101.524078 83.162 8.0732
102.259766 83.161 8.0042
103.000778 83.161 7.9299
103.747162 83.161 7.8512
104.498962 83.161 7.7678
105.256203 83.161 7.6812
106.018929 83.161 7.5922
106.787186 83.161 7.5012
107.561012 83.161 7.4086
108.340446 83.161 7.3142
109.125526 83.161 7.2177
109.916290 83.161 7.1192
110.712791 83.161 7.0189
111.515060 83.161 6.9162
112.323143 83.161 6.8111
113.137085 83.161 6.7022
113.956924 83.161 6.5882
114.782700 83.161 6.4693
115.614464 83.160 6.3453
116.452255 83.158 6.2163
117.296112 83.155 6.0808
118.146095 83.150 5.9433
119.002228 83.142 5.8058
119.864563 83.132 5.6743
120.733154 83.119 5.5556
121.608040 83.105 5.4492
122.489258 83.091 5.3574
123.376869 83.077 5.2792
124.270905 83.063 5.2145
125.171425 83.050 5.1621
126.078468 83.039 5.1229
126.992081 83.030 5.0901
127.912323 83.025 5.0577
128.839233 83.021 5.0231
129.772842 83.018 4.9814
130.713242 83.017 4.9331
131.660431 83.017 4.8773
132.614502 83.017 4.8132
133.575485 83.017 4.7394
134.543427 83.017 4.6572
135.518387 83.016 4.5668
136.500412 83.014 4.4692
137.489548 83.011 4.3638
138.485855 83.006 4.2553
139.489380 82.998 4.1461
140.500168 82.987 4.0422
141.518295 82.974 3.9505
142.543793 82.959 3.8702
143.576721 82.946 3.8033
144.617142 82.932 3.7491
145.665100 82.918 3.7080
146.720642 82.904 3.6781
147.783844 82.893 3.6602
148.854752 82.885 3.6470
149.933411 82.880 3.6328
151.019897 82.877 3.6141
152.114243 82.875 3.5853
153.216522 82.874 3.5471
154.326797 82.873 3.4976
155.445114 82.872 3.4381
156.571533 82.870 3.3684
157.706116 82.867 3.2912
158.848923 82.862 3.2076
160.000000 82.854 3.1232
161.159424 82.844 3.0431
162.327255 82.832 2.9702
163.503540 82.818 2.9090
164.688354 82.804 2.8591
165.881760 82.790 2.8218
167.083801 82.777 2.7961
168.294571 82.764 2.7826
169.514099 82.753 2.7770
170.742462 82.744 2.7766
171.979736 82.738 2.7760
173.225967 82.734 2.7693
174.481232 82.732 2.7550
175.745605 82.730 2.7292
177.019119 82.728 2.6931
178.301880 82.726 2.6458
179.593933 82.723 2.5902
180.895340 82.717 2.5268
182.206177 82.709 2.4622
183.526520 82.698 2.4016
184.856430 82.686 2.3481
186.195984 82.673 2.3066
187.545227 82.659 2.2761
188.904266 82.645 2.2572
190.273132 82.631 2.2490
191.651932 82.619 2.2525
193.040726 82.608 2.2630
194.439575 82.600 2.2778
195.848572 82.594 2.2910
197.267761 82.590 2.2954
198.697250 82.588 2.2910
200.137085 82.586 2.2749
201.587372 82.583 2.2481
203.048157 82.580 2.2090
204.519531 82.575 2.1631
206.001556 82.567 2.1133
207.494324 82.556 2.0661
208.997925 82.543 2.0298
210.512405 82.528 2.0031
212.037857 82.515 1.9874
213.574371 82.501 1.9820
215.122025 82.487 1.9874
216.680893 82.473 2.0010
218.251053 82.462 2.0229
219.832581 82.454 2.0459
221.425583 82.448 2.0636
223.030121 82.443 2.0740
224.646286 82.438 2.0711
226.274170 82.431 2.0610
227.913849 82.422 2.0455
229.565399 82.412 2.0310
231.228928 82.399 2.0244
232.904510 82.385 2.0260
234.592224 82.371 2.0387
236.292191 82.357 2.0619
238.004456 82.343 2.0966
239.729126 82.330 2.1409
241.466309 82.319 2.1960
243.216080 82.310 2.2538
244.978516 82.305 2.3073
246.753738 82.302 2.3539
248.541809 82.299 2.3881
250.342850 82.297 2.4119
252.156937 82.294 2.4244
253.984161 82.290 2.4290
255.824646 82.284 2.4265
257.678467 82.275 2.4240
259.545685 82.263 2.4283
261.426483 82.250 2.4410
263.320862 82.237 2.4661
265.229004 82.223 2.5029
267.150970 82.209 2.5521
269.086853 82.195 2.6128
271.036774 82.183 2.6861
273.000824 82.173 2.7668
274.979095 82.166 2.8509
276.971710 82.161 2.9347
278.978760 82.158 3.0136
281.000336 82.156 3.0868
283.036591 82.155 3.1519
285.087585 82.155 3.2098
287.153442 82.155 3.2607
289.234283 82.155 3.3039
291.330200 82.155 3.3387
293.441284 82.155 3.3659
295.567688 82.154 3.3860
297.709503 82.151 3.4000
299.866821 82.148 3.4074
302.039795 82.142 3.4130
304.228485 82.133 3.4192
306.433044 82.122 3.4319
308.653595 82.109 3.4581
310.890228 82.095 3.4969
313.143066 82.082 3.5500
315.412231 82.068 3.6168
317.697845 82.054 3.6981
320.000000 82.041 3.7917
322.318848 82.030 3.8977
324.654510 82.022 4.0096
327.007080 82.018 4.1220
329.376709 82.015 4.2327
331.763519 82.013 4.3376
334.167603 82.011 4.4377
336.589142 82.011 4.5325
339.028198 82.011 4.6227
341.484924 82.011 4.7088
343.959473 82.011 4.7918
346.451935 82.011 4.8727
348.962463 82.011 4.9518
351.491211 82.011 5.0293
354.038239 82.011 5.1058
356.603760 82.011 5.1816
359.187866 82.011 5.2568
361.790680 82.011 5.3310
364.412354 82.011 5.4048
367.053040 82.011 5.4783
369.712860 82.011 5.5518
372.391968 82.011 5.6253
375.090454 82.011 5.6988
377.808533 82.011 5.7717
380.546265 82.011 5.8448
383.303864 82.011 5.9187
386.081451 82.011 5.9928
388.879150 82.011 6.0667
391.697144 82.011 6.1408
394.535522 82.011 6.2155
397.394501 82.011 6.2908
400.274170 82.011 6.3665
403.174744 82.011 6.4428
406.096313 82.011 6.5199
409.039062 82.011 6.5978
412.003113 82.011 6.6759
414.988647 82.011 6.7547
417.995850 82.011 6.8343
421.024811 82.011 6.9147
424.075714 82.011 6.9963
427.148743 82.011 7.0787
430.244049 82.011 7.1617
433.361786 82.011 7.2457
436.502106 82.011 7.3316
439.665161 82.011 7.4187
442.851166 82.011 7.5066
446.060242 82.011 7.5957
449.292572 82.011 7.6864
452.548340 82.011 7.7787
455.827698 82.011 7.8728
459.130798 82.011 7.9687
462.457855 82.011 8.0662
465.809021 82.011 8.1657
469.184448 82.011 8.2676
472.584381 82.011 8.3717
476.008911 82.011 8.4778
479.458252 82.011 8.5866
482.932617 82.011 8.6989
486.432159 82.011 8.8146
489.957031 82.011 8.9337
493.507477 82.011 9.0576
497.083618 82.011 9.1874
500.685699 82.011 9.3235
504.313873 82.012 9.4671
507.968323 82.014 9.6175
511.649292 82.016 9.7755
515.356934 82.020 9.9385
519.091370 82.027 10.1057
522.852966 82.037 10.2715
526.641724 82.049 10.4299
530.458008 82.062 10.5805
534.301941 82.075 10.7204
538.173706 82.089 10.8506
542.073547 82.103 10.9703
546.001648 82.116 11.0826
549.958191 82.128 11.1887
553.943420 82.138 11.2937
557.957520 82.146 11.4018
562.000671 82.153 11.5166
566.073181 82.159 11.6446
570.175171 82.165 11.7815
574.306885 82.174 11.9273
578.468567 82.186 12.0755
582.660400 82.200 12.2197
586.882568 82.214 12.3605
591.135376 82.228 12.4958
595.419006 82.241 12.6276
599.733643 82.255 12.7562
604.079590 82.268 12.8845
608.456970 82.280 13.0130
612.866089 82.291 13.1485
617.307190 82.300 13.2993
621.780457 82.310 13.4624
626.286133 82.324 13.6415
630.824463 82.341 13.8254
635.395691 82.363 14.0060
640.000000 82.388 14.1784
644.637695 82.415 14.3349
649.309021 82.443 14.4765
654.014160 82.472 14.6017
658.753418 82.501 14.7117
663.527039 82.529 14.8050
668.335205 82.555 14.8877
673.178284 82.578 14.9636
678.056396 82.599 15.0377
682.969849 82.619 15.1161
687.918945 82.637 15.1997
692.903870 82.654 15.2914
697.924927 82.671 15.3916
702.982422 82.688 15.5033
708.076477 82.706 15.6216
713.207520 82.727 15.7426
718.375732 82.750 15.8656
723.581360 82.772 15.9878
728.824707 82.794 16.1106
734.106079 82.818 16.2364
739.425720 82.844 16.3596
744.783936 82.872 16.4745
750.180908 82.901 16.5826
755.617065 82.929 16.6824
761.092529 82.956 16.7777
766.607727 82.983 16.8725
772.162903 83.010 16.9647
777.758301 83.038 17.0511
783.394287 83.065 17.1377
789.071045 83.089 17.2301
794.789001 83.113 17.3266
800.548340 83.140 17.4287
806.349487 83.169 17.5326
812.192627 83.197 17.6343
818.078125 83.225 17.7366
824.006226 83.254 17.8419
829.977295 83.284 17.9476
835.991699 83.316 18.0524
842.049622 83.349 18.1556
848.151428 83.382 18.2559
854.297485 83.416 18.3536
860.488098 83.451 18.4491
866.723572 83.487 18.5417
873.004211 83.524 18.6317
879.330322 83.562 18.7167
885.702332 83.602 18.7944
892.120483 83.644 18.8638
898.585144 83.685 18.9230
905.096680 83.727 18.9728
911.655396 83.768 19.0137
918.261597 83.810 19.0449
924.915710 83.851 19.0641
931.618042 83.892 19.0770
938.368896 83.929 19.0872
945.168762 83.965 19.0980
952.017822 84.001 19.1146
958.916504 84.038 19.1339
965.865234 84.075 19.1546
972.864319 84.113 19.1769
979.914062 84.151 19.2017
987.014954 84.191 19.2259
994.167236 84.232 19.2483
1001.371399 84.275 19.2640
1008.627747 84.320 19.2667
1015.936646 84.365 19.2591
1023.298584 84.409 19.2411
1030.713867 84.452 19.2141
1038.182739 84.496 19.1791
1045.705933 84.539 19.1372
1053.283447 84.580 19.0888
1060.916016 84.621 19.0362
1068.603882 84.661 18.9822
1076.347412 84.700 18.9262
1084.147095 84.739 18.8688
1092.003296 84.777 18.8102
1099.916382 84.815 18.7504
1107.886841 84.852 18.6912
1115.915039 84.888 18.6348
1124.001343 84.924 18.5802
1132.146362 84.960 18.5269
1140.350342 84.997 18.4762
1148.613770 85.032 18.4286
1156.937134 85.067 18.3852
1165.320801 85.103 18.3476
1173.765137 85.140 18.3151
1182.270752 85.177 18.2875
1190.838013 85.215 18.2651
1199.467285 85.255 18.2497
1208.159180 85.297 18.2370
1216.913940 85.342 18.2251
1225.732178 85.390 18.2081
1234.614380 85.442 18.1806
1243.560913 85.497 18.1402
1252.572266 85.552 18.0834
1261.648926 85.609 18.0083
1270.791382 85.668 17.9114
1280.000000 85.728 17.7935
1289.275391 85.785 17.6527
1298.618042 85.842 17.4947
1308.028320 85.897 17.3241
1317.506836 85.950 17.1418
1327.054077 86.001 16.9489
1336.670410 86.052 16.7488
1346.356567 86.101 16.5455
1356.112793 86.149 16.3378
1365.939697 86.197 16.1275
1375.837891 86.246 15.9099
1385.807739 86.295 15.6810
1395.849854 86.345 15.4400
1405.964844 86.394 15.1854
1416.152954 86.442 14.9160
1426.415039 86.489 14.6296
1436.751465 86.535 14.3272
1447.162720 86.577 14.0067
1457.649414 86.616 13.6754
1468.212158 86.650 13.3380
1478.851440 86.680 13.0003
1489.567871 86.707 12.6692
1500.361816 86.731 12.3452
1511.234131 86.753 12.0309
1522.185059 86.773 11.7263
1533.215454 86.791 11.4328
1544.325806 86.809 11.1502
1555.516602 86.825 10.8799
1566.788574 86.842 10.6191
1578.142090 86.859 10.3670
1589.578003 86.877 10.1190
1601.096680 86.896 9.8705
1612.698975 86.916 9.6210
1624.385254 86.934 9.3680
1636.156250 86.952 9.1141
1648.012451 86.967 8.8615
1659.954590 86.982 8.6099
1671.983398 86.997 8.3599
1684.099243 87.010 8.1120
1696.302856 87.021 7.8645
1708.594971 87.029 7.6251
1720.976196 87.034 7.4000
1733.447144 87.037 7.1919
1746.008423 87.040 7.0052
1758.660645 87.043 6.8396
1771.404663 87.045 6.6970
1784.240967 87.049 6.5755
1797.170288 87.056 6.4753
1810.193359 87.065 6.3913
1823.310791 87.077 6.3183
1836.523193 87.093 6.2562
1849.831421 87.111 6.2050
1863.236084 87.133 6.1602
1876.737793 87.160 6.1199
1890.337524 87.192 6.0762
1904.035645 87.228 6.0220
1917.833008 87.269 5.9533
1931.730469 87.313 5.8636
1945.728638 87.359 5.7535
1959.828125 87.405 5.6218
1974.029907 87.453 5.4677
1988.334473 87.502 5.2891
2002.742798 87.552 5.0888
2017.255493 87.598 4.8669
2031.873291 87.643 4.6300
2046.597168 87.685 4.3837
2061.427734 87.725 4.1311
2076.365479 87.763 3.8775
2091.411865 87.801 3.6221
2106.566895 87.839 3.3651
2121.832031 87.876 3.1081
2137.207764 87.911 2.8524
2152.694824 87.946 2.5980
2168.294189 87.982 2.3455
2184.006592 88.019 2.0941
2199.832764 88.054 1.8430
2215.773682 88.090 1.5940
2231.830078 88.127 1.3492
2248.002686 88.165 1.1070
2264.292725 88.204 0.8670
2280.700684 88.244 0.6280
2297.227539 88.286 0.3891
2313.874268 88.330 0.1490
2330.641602 88.376 -0.0924
2347.530273 88.424 -0.3389
2364.541504 88.475 -0.5935
2381.676025 88.530 -0.8598
2398.934570 88.586 -1.1421
2416.318359 88.645 -1.4406
2433.827881 88.705 -1.7568
2451.464355 88.767 -2.0916
2469.228760 88.829 -2.4470
2487.121826 88.893 -2.8204
2505.144531 88.955 -3.2090
2523.297852 89.019 -3.6141
2541.582764 89.084 -4.0349
2560.000000 89.152 -4.4750
2578.550781 89.220 -4.9372
2597.236084 89.291 -5.4237
2616.056641 89.362 -5.9353
2635.013672 89.435 -6.4786
2654.108154 89.510 -7.0599
2673.340820 89.585 -7.6812
2692.713135 89.658 -8.3482
2712.225586 89.729 -9.0556
2731.879395 89.796 -9.8002
2751.675781 89.859 -10.5813
2771.615479 89.919 -11.3992
2791.699707 89.974 -12.2482
2811.929688 90.021 -13.1251
2832.305908 90.062 -14.0227
2852.830078 90.097 -14.9333
2873.502930 90.126 -15.8550
2894.325439 90.150 -16.7846
2915.298828 90.168 -17.7187
2936.424316 90.180 -18.6538
2957.702881 90.187 -19.5869
2979.135742 90.190 -20.5151
3000.723633 90.188 -21.4360
3022.468262 90.182 -22.3465
3044.370117 90.172 -23.2459
3066.430908 90.159 -24.1317
3088.651611 90.145 -25.0071
3111.033203 90.130 -25.8734
3133.577148 90.114 -26.7339
3156.284180 90.097 -27.5924
3179.156006 90.079 -28.4489
3202.193359 90.059 -29.3035
3225.397949 90.039 -30.1599
3248.770508 90.020 -31.0195
3272.312500 90.001 -31.8891
3296.024902 89.983 -32.7759
3319.909180 89.964 -33.6808
3343.966797 89.942 -34.6070
3368.198486 89.917 -35.5544
3392.605713 89.891 -36.5216
3417.189941 89.863 -37.5153
3441.952393 89.833 -38.5418
3466.894287 89.799 -39.6012
3492.016846 89.759 -40.6955
3517.321289 89.711 -41.8247
3542.809326 89.657 -42.9905
3568.481934 89.594 -44.1894
3594.340576 89.520 -45.4211
3620.386719 89.433 -46.6770
3646.621582 89.332 -47.9534
3673.046387 89.215 -49.2349
3699.662842 89.078 -50.5144
3726.472168 88.921 -51.7623
3753.475586 88.739 -52.9592
3780.675049 88.535 -54.0673
3808.071289 88.306 -55.0548
3835.666016 88.055 -55.8845
3863.460938 87.783 -56.5132
3891.457275 87.499 -56.9266
3919.656250 87.210 -57.0891
3948.059814 86.924 -57.0208
3976.668945 86.652 -56.7163
4005.485596 86.402 -56.2179
4034.510986 86.183 -55.5445
4063.746582 86.002 -54.7619
4093.194336 85.869 -53.9223
4122.855469 85.778 -53.0860
4152.730957 85.730 -52.3209
4182.823730 85.714 -51.6569
4213.133789 85.725 -51.1446
4243.664062 85.754 -50.7883
4274.415527 85.792 -50.6152
4305.389648 85.833 -50.6057
4336.588379 85.866 -50.7601
4368.013184 85.888 -51.0454
4399.665527 85.894 -51.4375
4431.547363 85.884 -51.9085
4463.660156 85.857 -52.4314
4496.005371 85.813 -52.9802
4528.585449 85.749 -53.5266
4561.401367 85.668 -54.0506
4594.455078 85.575 -54.5235
4627.748535 85.471 -54.9431
4661.283203 85.358 -55.2983
4695.060547 85.240 -55.5868
4729.083008 85.116 -55.8021
4763.352051 84.991 -55.9455
4797.869141 84.865 -56.0141
4832.636719 84.741 -56.0142
4867.655762 84.620 -55.9493
4902.928711 84.505 -55.8247
4938.457520 84.394 -55.6455
4974.243652 84.288 -55.4162
5010.289062 84.191 -55.1418
5046.595703 84.100 -54.8267
5083.165527 84.018 -54.4762
5120.000000 83.943 -54.0929
5157.101562 83.877 -53.6812
5194.472168 83.819 -53.2412
5232.113281 83.771 -52.7741
5270.027344 83.732 -52.2815
5308.216309 83.705 -51.7639
5346.681641 83.691 -51.2267
5385.426270 83.692 -50.6685
5424.451172 83.711 -50.1097
5463.758789 83.753 -49.5571
5503.351562 83.821 -49.0503
5543.230957 83.917 -48.6197
5583.399414 84.036 -48.3012
5623.859375 84.177 -48.1308
5664.611816 84.334 -48.1395
5705.660156 84.506 -48.3670
5747.005859 84.681 -48.8230
5788.650879 84.848 -49.5388
5830.597656 84.999 -50.4885
5872.848633 85.126 -51.6713
5915.405762 85.223 -53.0425
5958.271484 85.282 -54.5789
6001.447266 85.300 -56.2154
6044.936523 85.269 -57.8992
6088.740234 85.193 -59.5697
6132.861816 85.075 -61.1636
6177.303223 84.917 -62.6360
6222.066406 84.718 -63.9350
6267.154297 84.486 -65.0182
6312.568359 84.223 -65.8256
6358.312012 83.943 -66.3571
6404.386719 83.662 -66.5846
6450.795898 83.382 -66.5330
6497.541016 83.112 -66.2074
6544.625000 82.860 -65.6384
6592.049805 82.639 -64.8395
6639.818359 82.454 -63.8684
6687.933594 82.316 -62.7701
6736.396973 82.221 -61.5962
6785.211426 82.172 -60.4007
6834.379883 82.166 -59.2210
6883.904785 82.203 -58.1055
6933.788574 82.275 -57.0750
6984.033691 82.375 -56.1654
7034.642578 82.500 -55.3796
7085.618652 82.647 -54.7293
7136.963867 82.813 -54.2242
7188.681152 82.999 -53.8771
7240.773438 83.200 -53.6895
7293.243164 83.409 -53.6635
7346.092773 83.631 -53.8098
7399.325684 83.868 -54.1318
7452.944336 84.115 -54.6538
7506.951172 84.368 -55.3984
7561.350098 84.624 -56.3753
7616.142578 84.877 -57.5985
7671.332031 85.125 -59.0787
7726.921875 85.364 -60.8322
7782.914551 85.586 -62.8559
7839.312500 85.783 -65.1595
7896.119629 85.950 -67.7228
7953.337891 86.084 -70.5390
8010.971191 86.177 -73.5764
8069.021973 86.221 -76.8207
8127.493164 86.212 -80.2128
8186.388672 86.143 -83.7097
8245.710938 86.014 -87.2473
8305.461914 85.825 -90.7658
8365.647461 85.576 -94.2081
8426.267578 85.265 -97.5184
8487.328125 84.893 -100.6322
8548.831055 84.459 -103.4753
8610.779297 83.975 -106.0194
8673.176758 83.451 -108.2025
8736.026367 82.897 -110.0519
8799.331055 82.323 -111.5711
8863.094727 81.730 -112.7705
8927.320312 81.121 -113.6587
8992.010742 80.503 -114.2447
9057.170898 79.889 -114.5411
9122.802734 79.274 -114.5457
9188.910156 78.660 -114.2759
9255.497070 78.043 -113.6851
9322.566406 77.415 -112.7403
9390.121094 76.788 -111.4170
9458.166016 76.170 -109.6804
9526.704102 75.566 -107.5295
9595.738281 74.977 -104.9336
9665.273438 74.432 -101.9468
9735.311523 73.953 -98.5689
9805.857422 73.559 -94.9332
9876.915039 73.278 -91.1321
9948.487305 73.104 -87.2897
10020.578125 73.040 -83.5276
10093.191406 73.075 -79.9467
10166.331055 73.207 -76.6710
10240.000000 73.406 -73.7533
10314.203125 73.646 -71.2972
10388.944336 73.909 -69.2736
10464.226562 74.168 -67.7135
10540.054688 74.414 -66.5370
10616.432617 74.628 -65.7065
10693.363281 74.812 -65.1269
10770.852539 74.955 -64.7142
10848.902344 75.066 -64.3946
10927.517578 75.148 -64.0714
11006.703125 75.212 -63.7290
11086.461914 75.270 -63.3106
11166.798828 75.331 -62.8437
11247.718750 75.403 -62.3232
11329.223633 75.490 -61.7907
11411.320312 75.597 -61.2722
11494.011719 75.723 -60.8103
11577.301758 75.870 -60.4482
11661.195312 76.031 -60.2099
11745.697266 76.202 -60.1350
11830.811523 76.377 -60.2191
11916.542969 76.551 -60.4691
12002.894531 76.725 -60.8892
12089.873047 76.899 -61.4783
12177.480469 77.070 -62.2590
12265.723633 77.238 -63.2495
12354.606445 77.393 -64.4618
12444.132812 77.531 -65.9202
12534.308594 77.640 -67.6063
12625.136719 77.713 -69.5275
12716.624023 77.740 -71.6305
12808.773438 77.714 -73.8931
12901.591797 77.629 -76.2277
12995.082031 77.475 -78.5815
13089.250000 77.249 -80.8272
13184.099609 76.942 -82.8544
13279.636719 76.567 -84.5582
13375.867188 76.128 -85.8090
13472.793945 75.642 -86.5712
13570.422852 75.119 -86.7577
13668.759766 74.582 -86.3938
13767.809570 74.047 -85.4427
13867.577148 73.541 -84.0056
13968.067383 73.095 -82.1295
14069.285156 72.719 -79.9431
14171.237305 72.432 -77.5592
14273.927734 72.229 -75.0742
14377.362305 72.114 -72.6025
14481.546875 72.072 -70.2031
14586.486328 72.095 -67.9736
14692.185547 72.166 -65.9125
14798.651367 72.267 -64.0583
14905.888672 72.396 -62.3882
15013.902344 72.546 -60.8913
15122.700195 72.719 -59.5690
15232.285156 72.914 -58.4092
15342.664062 73.132 -57.4413
15453.843750 73.375 -56.6773
15565.829102 73.639 -56.1591
15678.625000 73.918 -55.9229
15792.239258 74.204 -55.9967
15906.675781 74.490 -56.4224
16021.942383 74.762 -57.1939
16138.043945 75.006 -58.3397
16254.986328 75.211 -59.7967
16372.777344 75.361 -61.5439
16491.421875 75.454 -63.4819
16610.923828 75.481 -65.5354
16731.294922 75.445 -67.6091
16852.535156 75.345 -69.6072
16974.656250 75.186 -71.4544
17097.662109 74.971 -73.0502
17221.558594 74.716 -74.3729
17346.353516 74.433 -75.3558
17472.052734 74.138 -76.0348
17598.662109 73.844 -76.4030
17726.189453 73.562 -76.5239
17854.640625 73.305 -76.4356
17984.021484 73.075 -76.2085
18114.341797 72.882 -75.9133
18245.605469 72.715 -75.5878
18377.820312 72.567 -75.2976
18510.994141 72.432 -75.0305
18645.132812 72.299 -74.8071
18780.242188 72.165 -74.5932
18916.332031 72.022 -74.3714
19053.408203 71.873 -74.1106
19191.476562 71.716 -73.7745
19330.546875 71.557 -73.3605
19470.623047 71.400 -72.8497
19611.714844 71.250 -72.2556
19753.830078 71.111 -71.5759
19896.974609 70.987 -70.8396
