* Measurement data measured by REW V5.20.13
* Source: C:\Users\kurin\Desktop\Targets and Curves\Resolve\Img\Files\airpods max wired_SPL.txt
* Format: Comma/Tab/Space delimited data
* Dated: Aug 14, 2023 2:46:11 PM
* REW Settings:
*  C-weighting compensation: Off
*  Target level: 75.0 dB
* Note: ; Measurement imported from C:\Users\kurin\Desktop\Targets and Curves\Resolve\Img\Files\airpods max wired_SPL.txt Format: Comma/Tab/Space delimited data 623 values loaded, 5 Hz to 39,792 Hz log spaced 
* Measurement: airpods max wired_SPL
* Smoothing: 1/48 octave
* Frequency Step: 1/96 octave
* Start Frequency: 5.000 Hz
*
* Freq(Hz) SPL(dB) Phase(degrees)
5.000000 95.697 -14.1530
5.036232 95.693 -14.1578
5.072727 95.689 -14.1630
5.109486 95.684 -14.1694
5.146511 95.679 -14.1770
5.183805 95.672 -14.1860
5.221369 95.665 -14.1960
5.259205 95.657 -14.2066
5.297316 95.649 -14.2180
5.335702 95.641 -14.2302
5.374367 95.632 -14.2430
5.413311 95.623 -14.2559
5.452538 95.614 -14.2690
5.492050 95.605 -14.2819
5.531847 95.597 -14.2950
5.571934 95.588 -14.3084
5.612310 95.579 -14.3220
5.652979 95.570 -14.3354
5.693943 95.562 -14.3490
5.735204 95.554 -14.3629
5.776763 95.545 -14.3770
5.818624 95.536 -14.3910
5.860788 95.527 -14.4050
5.903258 95.518 -14.4189
5.946035 95.510 -14.4330
5.989123 95.502 -14.4474
6.032523 95.493 -14.4620
6.076237 95.484 -14.4764
6.120268 95.475 -14.4910
6.164618 95.466 -14.5059
6.209289 95.458 -14.5210
6.254284 95.450 -14.5359
6.299605 95.441 -14.5510
6.345255 95.432 -14.5664
6.391235 95.423 -14.5820
6.437549 95.414 -14.5974
6.484198 95.406 -14.6130
6.531185 95.397 -14.6289
6.578513 95.388 -14.6450
6.626183 95.379 -14.6609
6.674199 95.371 -14.6770
6.722563 95.363 -14.6934
6.771278 95.354 -14.7100
6.820345 95.345 -14.7264
6.869768 95.336 -14.7430
6.919549 95.327 -14.7599
6.969691 95.319 -14.7770
7.020196 95.311 -14.7939
7.071068 95.302 -14.8110
7.122308 95.293 -14.8284
7.173919 95.284 -14.8460
7.225904 95.275 -14.8639
7.278266 95.267 -14.8820
7.331007 95.259 -14.9000
7.384131 95.250 -14.9180
7.437639 95.241 -14.9359
7.491535 95.232 -14.9540
7.545822 95.224 -14.9724
7.600502 95.215 -14.9910
7.655579 95.206 -15.0099
7.711054 95.197 -15.0290
7.766932 95.188 -15.0479
7.823214 95.180 -15.0670
7.879904 95.172 -15.0864
7.937005 95.163 -15.1060
7.994520 95.154 -15.1259
8.052452 95.145 -15.1460
8.110803 95.136 -15.1660
8.169578 95.128 -15.1860
8.228777 95.120 -15.2059
8.288406 95.111 -15.2260
8.348468 95.102 -15.2469
8.408964 95.093 -15.2680
8.469899 95.085 -15.2889
8.531276 95.076 -15.3100
8.593097 95.067 -15.3314
8.655366 95.058 -15.3530
8.718086 95.049 -15.3744
8.781260 95.041 -15.3960
8.844893 95.033 -15.4179
8.908987 95.024 -15.4400
8.973545 95.015 -15.4624
9.038571 95.006 -15.4850
9.104069 94.997 -15.5079
9.170040 94.989 -15.5310
9.236490 94.981 -15.5539
9.303422 94.972 -15.5770
9.370838 94.963 -15.6004
9.438744 94.954 -15.6240
9.507140 94.945 -15.6479
9.576033 94.937 -15.6720
9.645425 94.929 -15.6964
9.715320 94.920 -15.7210
9.785721 94.911 -15.7454
9.856632 94.902 -15.7700
9.928058 94.894 -15.7954
10.000000 94.885 -15.8210
10.072464 94.876 -15.8464
10.145453 94.867 -15.8720
10.218971 94.858 -15.8979
10.293022 94.850 -15.9240
10.367610 94.842 -15.9499
10.442738 94.833 -15.9760
10.518411 94.824 -16.0028
10.594631 94.815 -16.0300
10.671404 94.806 -16.0574
10.748734 94.798 -16.0850
10.826623 94.790 -16.1124
10.905077 94.781 -16.1400
10.984100 94.772 -16.1684
11.063695 94.763 -16.1970
11.143867 94.755 -16.2254
11.224621 94.746 -16.2540
11.305959 94.737 -16.2834
11.387886 94.728 -16.3130
11.470407 94.719 -16.3424
11.553527 94.711 -16.3720
11.637249 94.703 -16.4024
11.721577 94.694 -16.4330
11.806517 94.685 -16.4633
11.892071 94.676 -16.4940
11.978246 94.667 -16.5253
12.065045 94.659 -16.5570
12.152473 94.651 -16.5889
12.240536 94.642 -16.6210
12.329235 94.633 -16.6529
12.418578 94.624 -16.6850
12.508568 94.615 -16.7177
12.599211 94.607 -16.7510
12.690510 94.599 -16.7848
12.782471 94.590 -16.8190
12.875097 94.581 -16.8528
12.968395 94.572 -16.8870
13.062370 94.564 -16.9218
13.157025 94.555 -16.9570
13.252366 94.546 -16.9924
13.348398 94.537 -17.0280
13.445127 94.528 -17.0638
13.542556 94.520 -17.1000
13.640691 94.512 -17.1363
13.739536 94.503 -17.1730
13.839099 94.494 -17.2102
13.939383 94.485 -17.2480
14.040393 94.476 -17.2863
14.142136 94.468 -17.3250
14.244616 94.460 -17.3639
14.347837 94.451 -17.4030
14.451808 94.442 -17.4423
14.556532 94.433 -17.4820
14.662014 94.424 -17.5222
14.768262 94.416 -17.5630
14.875278 94.408 -17.6043
14.983070 94.399 -17.6460
15.091644 94.390 -17.6878
15.201005 94.381 -17.7300
15.311157 94.373 -17.7727
15.422109 94.364 -17.8160
15.533863 94.355 -17.8597
15.646428 94.346 -17.9040
15.759809 94.337 -17.9488
15.874010 94.329 -17.9940
15.989040 94.321 -18.0392
16.104904 94.312 -18.0850
16.221605 94.303 -18.1317
16.339155 94.294 -18.1789
16.457554 94.285 -18.2262
16.576813 94.277 -18.2740
16.696936 94.269 -18.3227
16.817928 94.260 -18.3720
16.939798 94.251 -18.4217
17.062551 94.242 -18.4719
17.186193 94.234 -18.5226
17.310732 94.225 -18.5740
17.436172 94.216 -18.6262
17.562521 94.207 -18.6790
17.689787 94.198 -18.7321
17.817974 94.190 -18.7859
17.947090 94.182 -18.8405
18.077143 94.173 -18.8960
18.208138 94.164 -18.9525
18.340080 94.155 -19.0099
18.472980 94.146 -19.0680
18.606844 94.138 -19.1270
18.741676 94.130 -19.1873
18.877487 94.121 -19.2489
19.014280 94.112 -19.3121
19.152065 94.103 -19.3769
19.290850 94.094 -19.4438
19.430639 94.085 -19.5120
19.571442 94.075 -19.5817
19.713264 94.064 -19.6509
19.856115 94.052 -19.7184
20.000000 94.040 -19.7819
20.144928 94.027 -19.8381
20.290907 94.015 -19.8890
20.437943 94.004 -19.9348
20.586044 93.994 -19.9770
20.735220 93.984 -20.0160
20.885475 93.975 -20.0540
21.036821 93.968 -20.0920
21.189262 93.963 -20.1339
21.342808 93.961 -20.1837
21.497467 93.959 -20.2429
21.653246 93.957 -20.3146
21.810154 93.955 -20.3979
21.968201 93.953 -20.4934
22.127390 93.951 -20.5989
22.287735 93.947 -20.7136
22.449242 93.941 -20.8339
22.611917 93.933 -20.9556
22.775772 93.924 -21.0798
22.940815 93.915 -21.2074
23.107054 93.905 -21.3358
23.274498 93.893 -21.4638
23.443153 93.879 -21.5888
23.613033 93.865 -21.7073
23.784142 93.850 -21.8219
23.956491 93.835 -21.9345
24.130091 93.820 -22.0439
24.304947 93.803 -22.1489
24.481071 93.787 -22.2509
24.658470 93.772 -22.3501
24.837156 93.758 -22.4479
25.017136 93.743 -22.5465
25.198421 93.727 -22.6439
25.381020 93.711 -22.7379
25.564941 93.696 -22.8309
25.750195 93.682 -22.9257
25.936790 93.667 -23.0199
26.124741 93.651 -23.1120
26.314051 93.634 -23.2019
26.504732 93.619 -23.2882
26.696796 93.605 -23.3729
26.890253 93.590 -23.4580
27.085112 93.576 -23.5419
27.281382 93.562 -23.6224
27.479073 93.549 -23.7039
27.678198 93.539 -23.7899
27.878765 93.529 -23.8809
28.080786 93.519 -23.9789
28.284271 93.508 -24.0819
28.489231 93.498 -24.1870
28.695675 93.488 -24.2978
28.903616 93.479 -24.4170
29.113064 93.471 -24.5438
29.324028 93.462 -24.6782
29.536524 93.453 -24.8208
29.750557 93.444 -24.9723
29.966141 93.434 -25.1328
30.183289 93.424 -25.3035
30.402010 93.412 -25.4828
30.622314 93.399 -25.6695
30.844217 93.385 -25.8638
31.067726 93.370 -26.0668
31.292856 93.352 -26.2747
31.519617 93.330 -26.4855
31.748020 93.306 -26.6947
31.978081 93.281 -26.8970
32.209808 93.254 -27.0938
32.443211 93.226 -27.2844
32.678310 93.197 -27.4698
32.915108 93.167 -27.6502
33.153625 93.137 -27.8268
33.393871 93.107 -28.0001
33.635857 93.077 -28.1717
33.879597 93.046 -28.3431
34.125103 93.015 -28.5148
34.372387 92.983 -28.6882
34.621464 92.950 -28.8617
34.872345 92.915 -29.0350
35.125042 92.879 -29.2058
35.379574 92.842 -29.3719
35.635948 92.803 -29.5328
35.894180 92.763 -29.6871
36.154285 92.722 -29.8348
36.416275 92.681 -29.9745
36.680161 92.639 -30.1098
36.945961 92.598 -30.2447
37.213688 92.557 -30.3768
37.483353 92.513 -30.5058
37.754974 92.467 -30.6298
38.028561 92.422 -30.7462
38.304131 92.376 -30.8569
38.581699 92.329 -30.9649
38.861279 92.280 -31.0649
39.142883 92.228 -31.1524
39.426529 92.176 -31.2279
39.712231 92.125 -31.2900
40.000000 92.074 -31.3399
40.289856 92.022 -31.3790
40.581814 91.969 -31.4060
40.875885 91.917 -31.4187
41.172089 91.867 -31.4220
41.470440 91.819 -31.4202
41.770950 91.772 -31.4130
42.073643 91.724 -31.4021
42.378525 91.675 -31.3860
42.685616 91.628 -31.3632
42.994934 91.581 -31.3350
43.306492 91.534 -31.3031
43.620308 91.487 -31.2651
43.936401 91.440 -31.2193
44.254780 91.392 -31.1651
44.575470 91.345 -31.1015
44.898483 91.298 -31.0281
45.223835 91.252 -30.9453
45.551544 91.205 -30.8501
45.881630 91.158 -30.7396
46.214108 91.111 -30.6142
46.548996 91.068 -30.4717
46.886307 91.027 -30.3173
47.226067 90.989 -30.1554
47.568283 90.954 -29.9863
47.912983 90.921 -29.8099
48.260181 90.892 -29.6313
48.609894 90.867 -29.4535
48.962143 90.846 -29.2822
49.316940 90.828 -29.1249
49.674313 90.812 -28.9792
50.034271 90.796 -28.8453
50.396843 90.782 -28.7242
50.762039 90.771 -28.6173
51.129883 90.760 -28.5232
51.500389 90.747 -28.4418
51.873581 90.734 -28.3691
52.249481 90.721 -28.2995
52.628101 90.709 -28.2371
53.009464 90.699 -28.1847
53.393593 90.688 -28.1411
53.780506 90.676 -28.1066
54.170223 90.663 -28.0790
54.562763 90.651 -28.0553
54.958145 90.638 -28.0380
55.356396 90.626 -28.0294
55.757530 90.613 -28.0280
56.161572 90.599 -28.0340
56.568542 90.583 -28.0440
56.978462 90.567 -28.0541
57.391350 90.550 -28.0650
57.807232 90.532 -28.0757
58.226128 90.514 -28.0870
58.648056 90.497 -28.0992
59.073048 90.479 -28.1120
59.501114 90.460 -28.1247
59.932281 90.441 -28.1380
60.366577 90.423 -28.1514
60.804020 90.406 -28.1670
61.244629 90.389 -28.1868
61.688435 90.372 -28.2110
62.135452 90.355 -28.2398
62.585712 90.338 -28.2749
63.039234 90.322 -28.3177
63.496040 90.305 -28.3699
63.956161 90.288 -28.4351
64.419617 90.270 -28.5099
64.886421 90.250 -28.5922
65.356621 90.228 -28.6808
65.830215 90.205 -28.7749
66.307251 90.179 -28.8718
66.787743 90.150 -28.9698
67.271713 90.118 -29.0648
67.759193 90.084 -29.1524
68.250206 90.049 -29.2319
68.744774 90.012 -29.3005
69.242928 89.974 -29.3599
69.744690 89.936 -29.4104
70.250084 89.898 -29.4529
70.759148 89.859 -29.4887
71.271896 89.820 -29.5180
71.788361 89.781 -29.5411
72.308571 89.741 -29.5590
72.832550 89.702 -29.5726
73.360321 89.663 -29.5820
73.891922 89.623 -29.5879
74.427376 89.582 -29.5890
74.966705 89.541 -29.5843
75.509949 89.499 -29.5730
76.057121 89.457 -29.5546
76.608261 89.414 -29.5281
77.163399 89.371 -29.4920
77.722557 89.328 -29.4471
78.285767 89.286 -29.3923
78.853058 89.244 -29.3311
79.424461 89.204 -29.2673
80.000000 89.165 -29.1991
80.579712 89.124 -29.1261
81.163628 89.084 -29.0482
81.751770 89.046 -28.9633
82.344177 89.009 -28.8772
82.940880 88.974 -28.7967
83.541901 88.938 -28.7162
84.147285 88.899 -28.6330
84.757050 88.860 -28.5452
85.371231 88.823 -28.4475
85.989868 88.787 -28.3472
86.612984 88.753 -28.2513
87.240616 88.718 -28.1552
87.872803 88.681 -28.0582
88.509560 88.643 -27.9562
89.150940 88.605 -27.8441
89.796967 88.567 -27.7243
90.447670 88.530 -27.5974
91.103088 88.494 -27.4643
91.763260 88.459 -27.3259
92.428215 88.424 -27.1823
93.097992 88.390 -27.0331
93.772614 88.357 -26.8803
94.452133 88.326 -26.7246
95.136566 88.297 -26.5693
95.825966 88.268 -26.4193
96.520363 88.240 -26.2713
97.219788 88.211 -26.1248
97.924286 88.182 -25.9773
98.633881 88.153 -25.8262
99.348625 88.124 -25.6713
100.068542 88.095 -25.5119
100.793686 88.067 -25.3474
101.524078 88.039 -25.1768
102.259766 88.012 -25.0014
103.000778 87.987 -24.8216
103.747162 87.963 -24.6403
104.498962 87.941 -24.4604
105.256203 87.920 -24.2823
106.018929 87.900 -24.1081
106.787186 87.880 -23.9363
107.561012 87.860 -23.7667
108.340446 87.841 -23.5983
109.125526 87.822 -23.4303
109.916290 87.804 -23.2613
110.712791 87.785 -23.0899
111.515060 87.766 -22.9154
112.323143 87.749 -22.7358
113.137085 87.733 -22.5534
113.956924 87.719 -22.3691
114.782700 87.706 -22.1855
115.614464 87.696 -22.0047
116.452255 87.687 -21.8293
117.296112 87.680 -21.6619
118.146095 87.674 -21.5043
119.002228 87.671 -21.3590
119.864563 87.668 -21.2263
120.733154 87.664 -21.1091
121.608040 87.660 -21.0032
122.489258 87.655 -20.9062
123.376869 87.649 -20.8162
124.270905 87.642 -20.7305
125.171425 87.634 -20.6491
126.078468 87.626 -20.5712
126.992081 87.617 -20.4972
127.912323 87.608 -20.4274
128.839233 87.599 -20.3611
129.772842 87.589 -20.2974
130.713242 87.578 -20.2371
131.660431 87.567 -20.1814
132.614502 87.555 -20.1291
133.575485 87.542 -20.0807
134.543427 87.527 -20.0331
135.518387 87.511 -19.9833
136.500412 87.494 -19.9311
137.489548 87.476 -19.8749
138.485855 87.457 -19.8152
139.489380 87.439 -19.7512
140.500168 87.420 -19.6841
141.518295 87.401 -19.6147
142.543793 87.381 -19.5432
143.576721 87.362 -19.4705
144.617142 87.342 -19.3962
145.665100 87.321 -19.3205
146.720642 87.300 -19.2422
147.783844 87.278 -19.1610
148.854752 87.254 -19.0742
149.933411 87.230 -18.9788
151.019897 87.205 -18.8763
152.114243 87.182 -18.7685
153.216522 87.158 -18.6523
154.326797 87.131 -18.5260
155.445114 87.104 -18.3873
156.571533 87.079 -18.2314
157.706116 87.056 -18.0654
158.848923 87.036 -17.8952
160.000000 87.017 -17.7194
161.159424 86.997 -17.5389
162.327255 86.978 -17.3524
163.503540 86.962 -17.1566
164.688354 86.949 -16.9584
165.881760 86.939 -16.7638
167.083801 86.931 -16.5725
168.294571 86.922 -16.3869
169.514099 86.915 -16.2054
170.742462 86.910 -16.0261
171.979736 86.907 -15.8525
173.225967 86.905 -15.6876
174.481232 86.903 -15.5304
175.745605 86.902 -15.3806
177.019119 86.902 -15.2383
178.301880 86.902 -15.1039
179.593933 86.902 -14.9763
180.895340 86.902 -14.8550
182.206177 86.902 -14.7393
183.526520 86.902 -14.6283
184.856430 86.902 -14.5222
186.195984 86.902 -14.4209
187.545227 86.902 -14.3242
188.904266 86.902 -14.2321
190.273132 86.902 -14.1442
191.651932 86.902 -14.0600
193.040726 86.902 -13.9802
194.439575 86.902 -13.9053
195.848572 86.902 -13.8352
197.267761 86.902 -13.7698
198.697250 86.902 -13.7101
200.137085 86.902 -13.6572
201.587372 86.902 -13.6111
203.048157 86.901 -13.5720
204.519531 86.900 -13.5401
206.001556 86.898 -13.5161
207.494324 86.895 -13.4980
208.997925 86.890 -13.4860
210.512405 86.883 -13.4750
212.037857 86.873 -13.4602
213.574371 86.862 -13.4420
215.122025 86.852 -13.4189
216.680893 86.841 -13.3921
218.251053 86.828 -13.3630
219.832581 86.815 -13.3291
221.425583 86.801 -13.2869
223.030121 86.788 -13.2411
224.646286 86.777 -13.1952
226.274170 86.767 -13.1501
227.913849 86.755 -13.1093
229.565399 86.742 -13.0691
231.228928 86.728 -13.0264
232.904510 86.714 -12.9821
234.592224 86.700 -12.9371
236.292191 86.686 -12.8891
238.004456 86.670 -12.8359
239.729126 86.653 -12.7782
241.466309 86.638 -12.7157
243.216080 86.624 -12.6492
244.978516 86.609 -12.5801
246.753738 86.593 -12.5062
248.541809 86.578 -12.4239
250.342850 86.564 -12.3392
252.156937 86.554 -12.2564
253.984161 86.545 -12.1772
255.824646 86.536 -12.1051
257.678467 86.527 -12.0402
259.545685 86.520 -11.9827
261.426483 86.514 -11.9361
263.320862 86.508 -11.9049
265.229004 86.501 -11.8860
267.150970 86.492 -11.8779
269.086853 86.481 -11.8800
271.036774 86.470 -11.8918
273.000824 86.456 -11.9109
274.979095 86.439 -11.9352
276.971710 86.419 -11.9629
278.978760 86.397 -11.9921
281.000336 86.373 -12.0209
283.036591 86.346 -12.0480
285.087585 86.315 -12.0699
287.153442 86.282 -12.0837
289.234283 86.245 -12.0870
291.330200 86.206 -12.0774
293.441284 86.164 -12.0531
295.567688 86.120 -12.0118
297.709503 86.074 -11.9532
299.866821 86.027 -11.8768
302.039795 85.979 -11.7813
304.228485 85.929 -11.6662
306.433044 85.877 -11.5284
308.653595 85.824 -11.3646
310.890228 85.771 -11.1746
313.143066 85.718 -10.9576
315.412231 85.664 -10.7127
317.697845 85.611 -10.4388
320.000000 85.560 -10.1359
322.318848 85.511 -9.8029
324.654510 85.464 -9.4432
327.007080 85.421 -9.0582
329.376709 85.382 -8.6523
331.763519 85.347 -8.2292
334.167603 85.317 -7.7924
336.589142 85.291 -7.3460
339.028198 85.270 -6.8923
341.484924 85.253 -6.4344
343.959473 85.239 -5.9743
346.451935 85.230 -5.5149
348.962463 85.224 -5.0573
351.491211 85.222 -4.6032
354.038239 85.223 -4.1533
356.603760 85.227 -3.7086
359.187866 85.233 -3.2693
361.790680 85.242 -2.8361
364.412354 85.254 -2.4082
367.053040 85.268 -1.9840
369.712860 85.284 -1.5663
372.391968 85.304 -1.1572
375.090454 85.328 -0.7581
377.808533 85.353 -0.3717
380.546265 85.381 0.0029
383.303864 85.411 0.3670
386.081451 85.443 0.7160
388.879150 85.479 1.0454
391.697144 85.517 1.3561
394.535522 85.554 1.6470
397.394501 85.592 1.9192
400.274170 85.631 2.1729
403.174744 85.671 2.4093
406.096313 85.709 2.6286
409.039062 85.747 2.8334
412.003113 85.784 3.0263
414.988647 85.822 3.2064
417.995850 85.860 3.3736
421.024811 85.897 3.5285
424.075714 85.933 3.6713
427.148743 85.968 3.8036
430.244049 86.002 3.9272
433.361786 86.035 4.0426
436.502106 86.066 4.1502
439.665161 86.097 4.2517
442.851166 86.127 4.3487
446.060242 86.156 4.4417
449.292572 86.184 4.5309
452.548340 86.210 4.6187
455.827698 86.235 4.7083
459.130798 86.259 4.7987
462.457855 86.283 4.8898
465.809021 86.308 4.9817
469.184448 86.332 5.0749
472.584381 86.356 5.1677
476.008911 86.382 5.2594
479.458252 86.408 5.3477
482.932617 86.433 5.4296
486.432159 86.459 5.5068
489.957031 86.485 5.5799
493.507477 86.510 5.6488
497.083618 86.534 5.7136
500.685699 86.558 5.7738
504.313873 86.582 5.8284
507.968323 86.606 5.8788
511.649292 86.628 5.9253
515.356934 86.648 5.9708
519.091370 86.666 6.0185
522.852966 86.684 6.0688
526.641724 86.701 6.1237
530.458008 86.718 6.1818
534.301941 86.735 6.2415
538.173706 86.751 6.3058
542.073547 86.764 6.3758
546.001648 86.777 6.4557
549.958191 86.790 6.5512
553.943420 86.803 6.6586
557.957520 86.819 6.7777
562.000671 86.836 6.9036
566.073181 86.856 7.0319
570.175171 86.877 7.1616
574.306885 86.900 7.2906
578.468567 86.924 7.4176
582.660400 86.951 7.5403
586.882568 86.979 7.6586
591.135376 87.007 7.7722
595.419006 87.036 7.8796
599.733643 87.067 7.9792
604.079590 87.099 8.0707
608.456970 87.130 8.1519
612.866089 87.160 8.2277
617.307190 87.189 8.3027
621.780457 87.218 8.3758
626.286133 87.248 8.4470
630.824463 87.278 8.5178
635.395691 87.306 8.5883
640.000000 87.335 8.6617
644.637695 87.364 8.7421
649.309021 87.394 8.8267
654.014160 87.425 8.9155
658.753418 87.459 9.0047
663.527039 87.495 9.0918
668.335205 87.533 9.1727
673.178284 87.574 9.2420
678.056396 87.616 9.3008
682.969849 87.656 9.3477
687.918945 87.697 9.3859
692.903870 87.738 9.4183
697.924927 87.780 9.4439
702.982422 87.821 9.4625
708.076477 87.863 9.4750
713.207520 87.905 9.4824
718.375732 87.947 9.4840
723.581360 87.990 9.4790
728.824707 88.033 9.4681
734.106079 88.076 9.4517
739.425720 88.119 9.4291
744.783936 88.162 9.3990
750.180908 88.206 9.3631
755.617065 88.248 9.3223
761.092529 88.291 9.2782
766.607727 88.334 9.2335
772.162903 88.378 9.1852
777.758301 88.423 9.1313
783.394287 88.469 9.0712
789.071045 88.514 9.0037
794.789001 88.560 8.9293
800.548340 88.607 8.8487
806.349487 88.655 8.7603
812.192627 88.703 8.6624
818.078125 88.752 8.5564
824.006226 88.799 8.4439
829.977295 88.848 8.3225
835.991699 88.899 8.1904
842.049622 88.951 8.0466
848.151428 89.002 7.8893
854.297485 89.054 7.7177
860.488098 89.106 7.5308
866.723572 89.159 7.3268
873.004211 89.211 7.1026
879.330322 89.263 6.8609
885.702332 89.312 6.6024
892.120483 89.359 6.3300
898.585144 89.405 6.0465
905.096680 89.449 5.7531
911.655396 89.490 5.4523
918.261597 89.531 5.1432
924.915710 89.571 4.8257
931.618042 89.611 4.4992
938.368896 89.648 4.1622
945.168762 89.684 3.8173
952.017822 89.717 3.4673
958.916504 89.749 3.1104
965.865234 89.781 2.7463
972.864319 89.813 2.3734
979.914062 89.842 1.9890
987.014954 89.869 1.5955
994.167236 89.895 1.1953
1001.371399 89.919 0.7855
1008.627747 89.942 0.3630
1015.936646 89.963 -0.0701
1023.298584 89.980 -0.5130
1030.713867 89.995 -0.9655
1038.182739 90.008 -1.4283
1045.705933 90.018 -1.8980
1053.283447 90.021 -2.3739
1060.916016 90.020 -2.8490
1068.603882 90.015 -3.3159
1076.347412 90.006 -3.7741
1084.147095 89.994 -4.2221
1092.003296 89.978 -4.6566
1099.916382 89.958 -5.0736
1107.886841 89.936 -5.4733
1115.915039 89.914 -5.8533
1124.001343 89.890 -6.2167
1132.146362 89.866 -6.5668
1140.350342 89.840 -6.9017
1148.613770 89.812 -7.2208
1156.937134 89.784 -7.5238
1165.320801 89.757 -7.8090
1173.765137 89.730 -8.0798
1182.270752 89.703 -8.3393
1190.838013 89.677 -8.5870
1199.467285 89.651 -8.8233
1208.159180 89.626 -9.0491
1216.913940 89.603 -9.2635
1225.732178 89.581 -9.4722
1234.614380 89.562 -9.6801
1243.560913 89.545 -9.8892
1252.572266 89.528 -10.1032
1261.648926 89.512 -10.3221
1270.791382 89.497 -10.5458
1280.000000 89.482 -10.7781
1289.275391 89.469 -11.0230
1298.618042 89.455 -11.2799
1308.028320 89.439 -11.5503
1317.506836 89.422 -11.8308
1327.054077 89.403 -12.1190
1336.670410 89.381 -12.4138
1346.356567 89.357 -12.7142
1356.112793 89.329 -13.0179
1365.939697 89.298 -13.3239
1375.837891 89.264 -13.6268
1385.807739 89.225 -13.9214
1395.849854 89.183 -14.2049
1405.964844 89.138 -14.4731
1416.152954 89.090 -14.7251
1426.415039 89.040 -14.9592
1436.751465 88.988 -15.1742
1447.162720 88.934 -15.3686
1457.649414 88.878 -15.5423
1468.212158 88.822 -15.6944
1478.851440 88.765 -15.8255
1489.567871 88.707 -15.9359
1500.361816 88.649 -16.0257
1511.234131 88.592 -16.0948
1522.185059 88.534 -16.1438
1533.215454 88.476 -16.1745
1544.325806 88.417 -16.1830
1555.516602 88.358 -16.1653
1566.788574 88.300 -16.1242
1578.142090 88.245 -16.0605
1589.578003 88.192 -15.9764
1601.096680 88.139 -15.8747
1612.698975 88.088 -15.7545
1624.385254 88.039 -15.6149
1636.156250 87.992 -15.4587
1648.012451 87.949 -15.2890
1659.954590 87.907 -15.1047
1671.983398 87.866 -14.9069
1684.099243 87.827 -14.6929
1696.302856 87.790 -14.4609
1708.594971 87.755 -14.2102
1720.976196 87.723 -13.9385
1733.447144 87.694 -13.6483
1746.008423 87.669 -13.3404
1758.660645 87.649 -13.0174
1771.404663 87.634 -12.6806
1784.240967 87.624 -12.3344
1797.170288 87.620 -11.9811
1810.193359 87.623 -11.6274
1823.310791 87.632 -11.2804
1836.523193 87.647 -10.9413
1849.831421 87.665 -10.6133
1863.236084 87.688 -10.2974
1876.737793 87.716 -9.9937
1890.337524 87.750 -9.7082
1904.035645 87.789 -9.4468
1917.833008 87.833 -9.2099
1931.730469 87.878 -8.9999
1945.728638 87.925 -8.8167
1959.828125 87.976 -8.6608
1974.029907 88.029 -8.5335
1988.334473 88.082 -8.4379
2002.742798 88.136 -8.3692
2017.255493 88.189 -8.3241
2031.873291 88.242 -8.3010
2046.597168 88.295 -8.2974
2061.427734 88.349 -8.3139
2076.365479 88.402 -8.3514
2091.411865 88.455 -8.4067
2106.566895 88.507 -8.4757
2121.832031 88.560 -8.5616
2137.207764 88.614 -8.6659
2152.694824 88.668 -8.7895
2168.294189 88.720 -8.9353
2184.006592 88.771 -9.0992
2199.832764 88.821 -9.2781
2215.773682 88.871 -9.4712
2231.830078 88.919 -9.6765
2248.002686 88.966 -9.8951
2264.292725 89.014 -10.1269
2280.700684 89.061 -10.3729
2297.227539 89.107 -10.6345
2313.874268 89.152 -10.9098
2330.641602 89.196 -11.1968
2347.530273 89.239 -11.4977
2364.541504 89.282 -11.8146
2381.676025 89.324 -12.1465
2398.934570 89.363 -12.4945
2416.318359 89.401 -12.8544
2433.827881 89.437 -13.2214
2451.464355 89.472 -13.5984
2469.228760 89.507 -13.9865
2487.121826 89.541 -14.3863
2505.144531 89.573 -14.7983
2523.297852 89.605 -15.2240
2541.582764 89.636 -15.6644
2560.000000 89.667 -16.1219
2578.550781 89.695 -16.6006
2597.236084 89.721 -17.0967
2616.056641 89.743 -17.6085
2635.013672 89.763 -18.1338
2654.108154 89.779 -18.6700
2673.340820 89.792 -19.2156
2692.713135 89.802 -19.7691
2712.225586 89.808 -20.3284
2731.879395 89.811 -20.8900
2751.675781 89.812 -21.4564
2771.615479 89.811 -22.0285
2791.699707 89.808 -22.6074
2811.929688 89.802 -23.1948
2832.305908 89.792 -23.7892
2852.830078 89.779 -24.3904
2873.502930 89.762 -24.9964
2894.325439 89.741 -25.6057
2915.298828 89.716 -26.2162
2936.424316 89.687 -26.8266
2957.702881 89.652 -27.4334
2979.135742 89.612 -28.0334
3000.723633 89.568 -28.6235
3022.468262 89.520 -29.1989
3044.370117 89.467 -29.7604
3066.430908 89.413 -30.3094
3088.651611 89.354 -30.8407
3111.033203 89.289 -31.3506
3133.577148 89.220 -31.8358
3156.284180 89.150 -32.2891
3179.156006 89.078 -32.7180
3202.193359 89.007 -33.1285
3225.397949 88.934 -33.5182
3248.770508 88.858 -33.8872
3272.312500 88.781 -34.2345
3296.024902 88.704 -34.5573
3319.909180 88.627 -34.8616
3343.966797 88.552 -35.1540
3368.198486 88.475 -35.4307
3392.605713 88.395 -35.6898
3417.189941 88.313 -35.9329
3441.952393 88.235 -36.1602
3466.894287 88.156 -36.3751
3492.016846 88.075 -36.5815
3517.321289 87.992 -36.7771
3542.809326 87.909 -36.9609
3568.481934 87.822 -37.1322
3594.340576 87.734 -37.2947
3620.386719 87.640 -37.4344
3646.621582 87.539 -37.5421
3673.046387 87.432 -37.6068
3699.662842 87.321 -37.6150
3726.472168 87.209 -37.5644
3753.475586 87.095 -37.4505
3780.675049 86.981 -37.2670
3808.071289 86.865 -37.0035
3835.666016 86.755 -36.6678
3863.460938 86.654 -36.2588
3891.457275 86.563 -35.7933
3919.656250 86.484 -35.2845
3948.059814 86.415 -34.7426
3976.668945 86.358 -34.1788
4005.485596 86.312 -33.6028
4034.510986 86.277 -33.0260
4063.746582 86.252 -32.4537
4093.194336 86.236 -31.8960
4122.855469 86.226 -31.3506
4152.730957 86.221 -30.8204
4182.823730 86.220 -30.3005
4213.133789 86.223 -29.7885
4243.664062 86.230 -29.2784
4274.415527 86.240 -28.7655
4305.389648 86.253 -28.2436
4336.588379 86.270 -27.7047
4368.013184 86.294 -27.1497
4399.665527 86.326 -26.5741
4431.547363 86.368 -25.9859
4463.660156 86.421 -25.3889
4496.005371 86.487 -24.7920
4528.585449 86.566 -24.2012
4561.401367 86.661 -23.6287
4594.455078 86.770 -23.0824
4627.748535 86.896 -22.5813
4661.283203 87.041 -22.1399
4695.060547 87.202 -21.7795
4729.083008 87.380 -21.5217
4763.352051 87.570 -21.3804
4797.869141 87.769 -21.3727
4832.636719 87.976 -21.5109
4867.655762 88.189 -21.8105
4902.928711 88.402 -22.2793
4938.457520 88.610 -22.9348
4974.243652 88.807 -23.7627
5010.289062 88.987 -24.7635
5046.595703 89.147 -25.9089
5083.165527 89.281 -27.1827
5120.000000 89.388 -28.5482
5157.101562 89.463 -29.9758
5194.472168 89.510 -31.4279
5232.113281 89.526 -32.8681
5270.027344 89.514 -34.2632
5308.216309 89.474 -35.5767
5346.681641 89.411 -36.7814
5385.426270 89.329 -37.8389
5424.451172 89.233 -38.7460
5463.758789 89.133 -39.4818
5503.351562 89.033 -40.0605
5543.230957 88.940 -40.4810
5583.399414 88.859 -40.7689
5623.859375 88.798 -40.9352
5664.611816 88.759 -41.0237
5705.660156 88.751 -41.0678
5747.005859 88.771 -41.1107
5788.650879 88.819 -41.1948
5830.597656 88.892 -41.3559
5872.848633 88.990 -41.6341
5915.405762 89.105 -42.0594
5958.271484 89.235 -42.6745
6001.447266 89.367 -43.4803
6044.936523 89.494 -44.4990
6088.740234 89.608 -45.7085
6132.861816 89.704 -47.1039
6177.303223 89.778 -48.6559
6222.066406 89.823 -50.3475
6267.154297 89.837 -52.1358
6312.568359 89.814 -53.9868
6358.312012 89.755 -55.8556
6404.386719 89.660 -57.6985
6450.795898 89.531 -59.4781
6497.541016 89.367 -61.1509
6544.625000 89.174 -62.6907
6592.049805 88.956 -64.0625
6639.818359 88.716 -65.2494
6687.933594 88.458 -66.2240
6736.396973 88.189 -66.9827
6785.211426 87.916 -67.5059
6834.379883 87.646 -67.8149
6883.904785 87.388 -67.9128
6933.788574 87.147 -67.8358
6984.033691 86.929 -67.6055
7034.642578 86.739 -67.2699
7085.618652 86.583 -66.8690
7136.963867 86.458 -66.4481
7188.681152 86.363 -66.0586
7240.773438 86.291 -65.7215
7293.243164 86.239 -65.4765
7346.092773 86.197 -65.3186
7399.325684 86.158 -65.2675
7452.944336 86.116 -65.2887
7506.951172 86.063 -65.3688
7561.350098 85.998 -65.4635
7616.142578 85.919 -65.5352
7671.332031 85.830 -65.5501
7726.921875 85.732 -65.4635
7782.914551 85.633 -65.2703
7839.312500 85.543 -64.9393
7896.119629 85.470 -64.5045
7953.337891 85.426 -63.9720
8010.971191 85.413 -63.3951
8069.021973 85.439 -62.8069
8127.493164 85.505 -62.2746
8186.388672 85.616 -61.8574
8245.710938 85.761 -61.6117
8305.461914 85.936 -61.6074
8365.647461 86.129 -61.8639
8426.267578 86.328 -62.4235
8487.328125 86.525 -63.2876
8548.831055 86.713 -64.4796
8610.779297 86.879 -65.9753
8673.176758 87.012 -67.7732
8736.026367 87.107 -69.8272
8799.331055 87.157 -72.1072
8863.094727 87.157 -74.5636
8927.320312 87.103 -77.1637
8992.010742 86.987 -79.8279
9057.170898 86.800 -82.4989
9122.802734 86.545 -85.0768
9188.910156 86.218 -87.4778
9255.497070 85.821 -89.5955
9322.566406 85.353 -91.3346
9390.121094 84.817 -92.5770
9458.166016 84.212 -93.1963
9526.704102 83.560 -93.1214
9595.738281 82.870 -92.2300
9665.273438 82.180 -90.5500
9735.311523 81.512 -88.0186
9805.857422 80.919 -84.7872
9876.915039 80.451 -80.9013
9948.487305 80.141 -76.6189
10020.578125 80.047 -72.1269
10093.191406 80.146 -67.6875
10166.331055 80.457 -63.5712
10240.000000 80.914 -59.9415
10314.203125 81.471 -57.0400
10388.944336 82.084 -54.9022
10464.226562 82.704 -53.6713
10540.054688 83.309 -53.2601
10616.432617 83.860 -53.6865
10693.363281 84.352 -54.7797
10770.852539 84.761 -56.4239
10848.902344 85.097 -58.4681
10927.517578 85.362 -60.7460
11006.703125 85.563 -63.1875
11086.461914 85.708 -65.6768
11166.798828 85.803 -68.1861
11247.718750 85.853 -70.6494
11329.223633 85.865 -73.0667
11411.320312 85.849 -75.4126
11494.011719 85.804 -77.6988
11577.301758 85.735 -79.9294
11661.195312 85.640 -82.1021
11745.697266 85.521 -84.2214
11830.811523 85.377 -86.2711
11916.542969 85.205 -88.2462
12002.894531 85.005 -90.1179
12089.873047 84.778 -91.8653
12177.480469 84.526 -93.4604
12265.723633 84.247 -94.8730
12354.606445 83.950 -96.0890
12444.132812 83.637 -97.0806
12534.308594 83.316 -97.8584
12625.136719 82.994 -98.4157
12716.624023 82.678 -98.7766
12808.773438 82.371 -98.9506
12901.591797 82.080 -98.9752
12995.082031 81.812 -98.8790
13089.250000 81.566 -98.6981
13184.099609 81.341 -98.4695
13279.636719 81.135 -98.2203
13375.867188 80.950 -97.9860
13472.793945 80.777 -97.7781
13570.422852 80.610 -97.6253
13668.759766 80.442 -97.5116
13767.809570 80.269 -97.4485
13867.577148 80.082 -97.3815
13968.067383 79.872 -97.2968
14069.285156 79.632 -97.0828
14171.237305 79.351 -96.6590
14273.927734 79.044 -95.9150
14377.362305 78.709 -94.7165
14481.546875 78.382 -93.0528
14586.486328 78.083 -90.8256
14692.185547 77.855 -88.1666
14798.651367 77.742 -85.1005
14905.888672 77.762 -81.8540
15013.902344 77.960 -78.5878
15122.700195 78.304 -75.5294
15232.285156 78.796 -72.9071
15342.664062 79.384 -70.8801
15453.843750 80.029 -69.6809
15565.829102 80.688 -69.3196
15678.625000 81.315 -69.9300
15792.239258 81.889 -71.3671
15906.675781 82.377 -73.5893
16021.942383 82.780 -76.4163
16138.043945 83.087 -79.7005
16254.986328 83.302 -83.2994
16372.777344 83.425 -87.0550
16491.421875 83.463 -90.8679
16610.923828 83.418 -94.6028
16731.294922 83.302 -98.2096
16852.535156 83.121 -101.5947
16974.656250 82.887 -104.7526
17097.662109 82.610 -107.6447
17221.558594 82.295 -110.2768
17346.353516 81.949 -112.6391
17472.052734 81.578 -114.7400
17598.662109 81.191 -116.5822
17726.189453 80.789 -118.1745
17854.640625 80.378 -119.5264
17984.021484 79.957 -120.6395
18114.341797 79.531 -121.5188
18245.605469 79.101 -122.1640
18377.820312 78.670 -122.5730
18510.994141 78.242 -122.7556
18645.132812 77.823 -122.7132
18780.242188 77.416 -122.4688
18916.332031 77.029 -122.0396
19053.408203 76.662 -121.4458
19191.476562 76.317 -120.7034
19330.546875 75.998 -119.8419
19470.623047 75.712 -118.8848
19611.714844 75.456 -117.8669
19753.830078 75.231 -116.8248
19896.974609 75.034 -115.7763
