* Measurement data measured by REW V5.20.13
* Source: C:\Users\kurin\Desktop\Targets and Curves\Resolve\Img\Files\Arya stealth magnet_SPL.txt
* Format: Comma/Tab/Space delimited data
* Dated: Aug 14, 2023 2:37:38 PM
* REW Settings:
*  C-weighting compensation: Off
*  Target level: 75.0 dB
* Note: ; Measurement imported from C:\Users\kurin\Desktop\Targets and Curves\Resolve\Img\Files\Arya stealth magnet_SPL.txt Format: Comma/Tab/Space delimited data 623 values loaded, 5 Hz to 39,792 Hz log spaced 
* Measurement: Arya stealth magnet_SPL
* Smoothing: 1/48 octave
* Frequency Step: 1/96 octave
* Start Frequency: 5.000 Hz
*
* Freq(Hz) SPL(dB) Phase(degrees)
5.000000 83.547 19.1250
5.036232 83.553 19.1211
5.072727 83.560 19.1170
5.109486 83.568 19.1124
5.146511 83.577 19.1070
5.183805 83.588 19.1002
5.221369 83.600 19.0930
5.259205 83.612 19.0866
5.297316 83.625 19.0800
5.335702 83.639 19.0726
5.374367 83.653 19.0650
5.413311 83.667 19.0580
5.452538 83.681 19.0510
5.492050 83.695 19.0435
5.531847 83.709 19.0360
5.571934 83.723 19.0290
5.612310 83.737 19.0220
5.652979 83.751 19.0146
5.693943 83.765 19.0070
5.735204 83.778 18.9995
5.776763 83.792 18.9920
5.818624 83.806 18.9845
5.860788 83.820 18.9770
5.903258 83.834 18.9696
5.946035 83.848 18.9620
5.989123 83.862 18.9540
6.032523 83.876 18.9460
6.076237 83.890 18.9385
6.120268 83.904 18.9310
6.164618 83.918 18.9231
6.209289 83.932 18.9150
6.254284 83.946 18.9070
6.299605 83.960 18.8990
6.345255 83.974 18.8911
6.391235 83.988 18.8830
6.437549 84.001 18.8746
6.484198 84.015 18.8660
6.531185 84.029 18.8575
6.578513 84.043 18.8490
6.626183 84.057 18.8405
6.674199 84.071 18.8320
6.722563 84.085 18.8235
6.771278 84.099 18.8150
6.820345 84.113 18.8066
6.869768 84.127 18.7980
6.919549 84.141 18.7891
6.969691 84.155 18.7800
7.020196 84.169 18.7710
7.071068 84.183 18.7620
7.122308 84.197 18.7530
7.173919 84.211 18.7440
7.225904 84.225 18.7351
7.278266 84.239 18.7260
7.331007 84.252 18.7166
7.384131 84.266 18.7070
7.437639 84.280 18.6975
7.491535 84.294 18.6880
7.545822 84.308 18.6785
7.600502 84.322 18.6690
7.655579 84.336 18.6596
7.711054 84.350 18.6500
7.766932 84.364 18.6401
7.823214 84.378 18.6300
7.879904 84.392 18.6200
7.937005 84.406 18.6100
7.994520 84.420 18.6000
8.052452 84.434 18.5900
8.110803 84.448 18.5801
8.169578 84.462 18.5700
8.228777 84.476 18.5596
8.288406 84.490 18.5490
8.348468 84.503 18.5386
8.408964 84.517 18.5280
8.469899 84.531 18.5170
8.531276 84.545 18.5060
8.593097 84.559 18.4955
8.655366 84.573 18.4850
8.718086 84.587 18.4741
8.781260 84.601 18.4630
8.844893 84.615 18.4515
8.908987 84.629 18.4400
8.973545 84.643 18.4290
9.038571 84.657 18.4180
9.104069 84.671 18.4066
9.170040 84.685 18.3950
9.236490 84.699 18.3836
9.303422 84.713 18.3720
9.370838 84.727 18.3601
9.438744 84.741 18.3480
9.507140 84.754 18.3360
9.576033 84.768 18.3240
9.645425 84.782 18.3121
9.715320 84.796 18.3000
9.785721 84.810 18.2875
9.856632 84.824 18.2750
9.928058 84.838 18.2631
10.000000 84.852 18.2510
10.072464 84.866 18.2381
10.145453 84.880 18.2250
10.218971 84.894 18.2125
10.293022 84.908 18.2000
10.367610 84.922 18.1871
10.442738 84.936 18.1740
10.518411 84.950 18.1611
10.594631 84.964 18.1480
10.671404 84.977 18.1346
10.748734 84.991 18.1210
10.826623 85.005 18.1076
10.905077 85.019 18.0940
10.984100 85.033 18.0800
11.063695 85.047 18.0660
11.143867 85.061 18.0526
11.224621 85.075 18.0390
11.305959 85.089 18.0246
11.387886 85.103 18.0100
11.470407 85.117 17.9960
11.553527 85.131 17.9820
11.637249 85.145 17.9676
11.721577 85.159 17.9530
11.806517 85.173 17.9386
11.892071 85.187 17.9240
11.978246 85.201 17.9091
12.065045 85.215 17.8940
12.152473 85.228 17.8791
12.240536 85.242 17.8640
12.329235 85.256 17.8486
12.418578 85.270 17.8330
12.508568 85.284 17.8175
12.599211 85.298 17.8020
12.690510 85.312 17.7866
12.782471 85.326 17.7710
12.875097 85.340 17.7551
12.968395 85.354 17.7390
13.062370 85.368 17.7230
13.157025 85.382 17.7070
13.252366 85.396 17.6911
13.348398 85.410 17.6750
13.445127 85.424 17.6586
13.542556 85.438 17.6420
13.640691 85.452 17.6250
13.739536 85.466 17.6080
13.839099 85.479 17.5915
13.939383 85.493 17.5750
14.040393 85.507 17.5581
14.142136 85.521 17.5410
14.244616 85.535 17.5236
14.347837 85.549 17.5060
14.451808 85.563 17.4885
14.556532 85.577 17.4710
14.662014 85.591 17.4536
14.768262 85.605 17.4360
14.875278 85.619 17.4181
14.983070 85.633 17.4000
15.091644 85.647 17.3815
15.201005 85.661 17.3630
15.311157 85.675 17.3450
15.422109 85.689 17.3270
15.533863 85.702 17.3086
15.646428 85.716 17.2900
15.759809 85.730 17.2711
15.874010 85.744 17.2520
15.989040 85.758 17.2330
16.104904 85.772 17.2140
16.221605 85.786 17.1956
16.339155 85.800 17.1770
16.457554 85.814 17.1576
16.576813 85.828 17.1380
16.696936 85.842 17.1189
16.817928 85.856 17.1000
16.939798 85.870 17.0810
17.062551 85.884 17.0620
17.186193 85.898 17.0430
17.310732 85.912 17.0240
17.436172 85.926 17.0049
17.562521 85.940 16.9860
17.689787 85.953 16.9675
17.817974 85.967 16.9490
17.947090 85.981 16.9304
18.077143 85.995 16.9120
18.208138 86.009 16.8943
18.340080 86.023 16.8770
18.472980 86.037 16.8602
18.606844 86.051 16.8440
18.741676 86.065 16.8284
18.877487 86.079 16.8140
19.014280 86.093 16.8015
19.152065 86.107 16.7910
19.290850 86.121 16.7834
19.430639 86.136 16.7780
19.571442 86.151 16.7748
19.713264 86.168 16.7720
19.856115 86.186 16.7690
20.000000 86.205 16.7620
20.144928 86.226 16.7475
20.290907 86.247 16.7240
20.437943 86.269 16.6884
20.586044 86.290 16.6430
20.735220 86.310 16.5884
20.885475 86.328 16.5271
21.036821 86.345 16.4603
21.189262 86.361 16.3921
21.342808 86.373 16.3263
21.497467 86.384 16.2651
21.653246 86.395 16.2123
21.810154 86.406 16.1661
21.968201 86.416 16.1260
22.127390 86.426 16.0920
22.287735 86.436 16.0643
22.449242 86.446 16.0420
22.611917 86.457 16.0247
22.775772 86.469 16.0110
22.940815 86.481 15.9990
23.107054 86.494 15.9900
23.274498 86.506 15.9843
23.443153 86.519 15.9840
23.613033 86.532 15.9927
23.784142 86.546 16.0070
23.956491 86.563 16.0264
24.130091 86.583 16.0450
24.304947 86.606 16.0569
24.481071 86.631 16.0610
24.658470 86.657 16.0548
24.837156 86.684 16.0360
25.017136 86.713 16.0024
25.198421 86.743 15.9521
25.381020 86.772 15.8818
25.564941 86.801 15.7941
25.750195 86.828 15.6883
25.936790 86.852 15.5702
26.124741 86.873 15.4433
26.314051 86.890 15.3132
26.504732 86.904 15.1857
26.696796 86.916 15.0631
26.890253 86.926 14.9488
27.085112 86.935 14.8451
27.281382 86.942 14.7567
27.479073 86.948 14.6811
27.678198 86.956 14.6192
27.878765 86.966 14.5661
28.080786 86.977 14.5179
28.284271 86.989 14.4721
28.489231 87.004 14.4261
28.695675 87.020 14.3761
28.903616 87.037 14.3167
29.113064 87.055 14.2491
29.324028 87.072 14.1715
29.536524 87.088 14.0881
29.750557 87.103 14.0026
29.966141 87.117 13.9151
30.183289 87.131 13.8269
30.402010 87.145 13.7381
30.622314 87.158 13.6491
30.844217 87.170 13.5611
31.067726 87.182 13.4769
31.292856 87.195 13.3921
31.519617 87.209 13.3044
31.748020 87.224 13.2111
31.978081 87.239 13.1074
32.209808 87.253 12.9971
32.443211 87.265 12.8820
32.678310 87.276 12.7632
32.915108 87.286 12.6420
33.153625 87.295 12.5191
33.393871 87.302 12.3942
33.635857 87.308 12.2712
33.879597 87.311 12.1540
34.125103 87.313 12.0431
34.372387 87.314 11.9407
34.621464 87.315 11.8461
34.872345 87.315 11.7595
35.125042 87.315 11.6811
35.379574 87.315 11.6116
35.635948 87.315 11.5501
35.894180 87.316 11.4962
36.154285 87.317 11.4491
36.416275 87.319 11.4087
36.680161 87.323 11.3721
36.945961 87.329 11.3375
37.213688 87.336 11.3011
37.483353 87.344 11.2579
37.754974 87.353 11.2091
38.028561 87.362 11.1537
38.304131 87.371 11.0921
38.581699 87.380 11.0237
38.861279 87.388 10.9501
39.142883 87.395 10.8712
39.426529 87.401 10.7911
39.712231 87.404 10.7132
40.000000 87.405 10.6401
40.289856 87.406 10.5757
40.581814 87.407 10.5191
40.875885 87.408 10.4707
41.172089 87.409 10.4301
41.470440 87.411 10.3980
41.770950 87.414 10.3710
42.073643 87.419 10.3472
42.378525 87.425 10.3230
42.685616 87.433 10.2949
42.994934 87.441 10.2621
43.306492 87.450 10.2222
43.620308 87.459 10.1761
43.936401 87.468 10.1230
44.254780 87.476 10.0641
44.575470 87.484 9.9989
44.898483 87.490 9.9311
45.223835 87.494 9.8632
45.551544 87.497 9.7981
45.881630 87.499 9.7396
46.214108 87.500 9.6881
46.548996 87.500 9.6451
46.886307 87.500 9.6100
47.226067 87.501 9.5833
47.568283 87.502 9.5640
47.912983 87.504 9.5526
48.260181 87.507 9.5460
48.609894 87.513 9.5424
48.962143 87.520 9.5380
49.316940 87.529 9.5283
49.674313 87.538 9.5140
50.034271 87.546 9.4942
50.396843 87.555 9.4700
50.762039 87.564 9.4419
51.129883 87.573 9.4111
51.500389 87.581 9.3776
51.873581 87.588 9.3451
52.249481 87.594 9.3173
52.628101 87.600 9.2940
53.009464 87.606 9.2769
53.393593 87.613 9.2640
53.780506 87.621 9.2545
54.170223 87.630 9.2470
54.562763 87.640 9.2396
54.958145 87.650 9.2330
55.356396 87.661 9.2278
55.757530 87.672 9.2230
56.161572 87.685 9.2181
56.568542 87.699 9.2120
56.978462 87.714 9.2038
57.391350 87.730 9.1930
57.807232 87.747 9.1808
58.226128 87.766 9.1620
58.648056 87.788 9.1320
59.073048 87.811 9.0901
59.501114 87.833 9.0336
59.932281 87.856 8.9641
60.366577 87.879 8.8825
60.804020 87.901 8.7882
61.244629 87.923 8.6799
61.688435 87.943 8.5602
62.135452 87.961 8.4307
62.585712 87.978 8.2932
63.039234 87.993 8.1497
63.496040 88.007 8.0013
63.956161 88.019 7.8491
64.419617 88.029 7.6953
64.886421 88.037 7.5415
65.356621 88.043 7.3893
65.830215 88.048 7.2402
66.307251 88.051 7.0953
66.787743 88.053 6.9564
67.271713 88.054 6.8232
67.759193 88.055 6.6965
68.250206 88.055 6.5752
68.744774 88.056 6.4591
69.242928 88.056 6.3472
69.744690 88.056 6.2383
70.250084 88.056 6.1322
70.759148 88.056 6.0286
71.271896 88.056 5.9262
71.788361 88.056 5.8236
72.308571 88.056 5.7212
72.832550 88.055 5.6192
73.360321 88.053 5.5172
73.891922 88.052 5.4138
74.427376 88.050 5.3122
74.966705 88.045 5.2143
75.509949 88.039 5.1222
76.057121 88.033 5.0388
76.608261 88.027 4.9631
77.163399 88.021 4.8943
77.722557 88.015 4.8341
78.285767 88.008 4.7845
78.853058 88.001 4.7441
79.424461 87.997 4.7139
80.000000 87.994 4.6890
80.579712 87.993 4.6652
81.163628 87.993 4.6420
81.751770 87.994 4.6185
82.344177 87.996 4.5931
82.940880 88.000 4.5644
83.541901 88.005 4.5311
84.147285 88.010 4.4906
84.757050 88.016 4.4441
85.371231 88.022 4.3915
85.989868 88.028 4.3331
86.612984 88.034 4.2689
87.240616 88.039 4.2001
87.872803 88.043 4.1278
88.509560 88.046 4.0532
89.150940 88.049 3.9774
89.796967 88.052 3.9012
90.447670 88.053 3.8252
91.103088 88.054 3.7502
91.763260 88.055 3.6772
92.428215 88.055 3.6061
93.097992 88.056 3.5371
93.772614 88.056 3.4701
94.452133 88.056 3.4051
95.136566 88.056 3.3421
95.825966 88.056 3.2813
96.520363 88.056 3.2231
97.219788 88.056 3.1683
97.924286 88.056 3.1161
98.633881 88.057 3.0664
99.348625 88.059 3.0181
100.068542 88.062 2.9716
100.793686 88.066 2.9231
101.524078 88.072 2.8701
102.259766 88.080 2.8092
103.000778 88.089 2.7362
103.747162 88.098 2.6512
104.498962 88.106 2.5521
105.256203 88.114 2.4402
106.018929 88.121 2.3146
106.787186 88.126 2.1793
107.561012 88.127 2.0355
108.340446 88.125 1.8902
109.125526 88.120 1.7507
109.916290 88.113 1.6172
110.712791 88.106 1.4932
111.515060 88.097 1.3772
112.323143 88.087 1.2696
113.137085 88.077 1.1682
113.956924 88.068 1.0715
114.782700 88.058 0.9782
115.614464 88.048 0.8861
116.452255 88.037 0.7972
117.296112 88.025 0.7117
118.146095 88.012 0.6322
119.002228 87.997 0.5599
119.864563 87.981 0.4991
120.733154 87.964 0.4549
121.608040 87.946 0.4260
122.489258 87.930 0.4146
123.376869 87.915 0.4160
124.270905 87.902 0.4272
125.171425 87.892 0.4460
126.078468 87.884 0.4703
126.992081 87.878 0.4969
127.912323 87.875 0.5220
128.839233 87.873 0.5450
129.772842 87.872 0.5637
130.713242 87.872 0.5790
131.660431 87.873 0.5915
132.614502 87.876 0.6000
133.575485 87.880 0.6042
134.543427 87.886 0.6010
135.518387 87.894 0.5871
136.500412 87.903 0.5621
137.489548 87.911 0.5243
138.485855 87.920 0.4741
139.489380 87.929 0.4110
140.500168 87.938 0.3352
141.518295 87.946 0.2454
142.543793 87.952 0.1453
143.576721 87.955 0.0368
144.617142 87.957 -0.0767
145.665100 87.957 -0.1921
146.720642 87.956 -0.3077
147.783844 87.952 -0.4211
148.854752 87.947 -0.5307
149.933411 87.941 -0.6327
151.019897 87.936 -0.7318
152.114243 87.932 -0.8305
153.216522 87.928 -0.9307
154.326797 87.923 -1.0357
155.445114 87.917 -1.1437
156.571533 87.911 -1.2528
157.706116 87.905 -1.3667
158.848923 87.900 -1.4892
160.000000 87.893 -1.6187
161.159424 87.883 -1.7577
162.327255 87.870 -1.8977
163.503540 87.854 -2.0316
164.688354 87.835 -2.1577
165.881760 87.815 -2.2709
167.083801 87.794 -2.3747
168.294571 87.774 -2.4709
169.514099 87.753 -2.5608
170.742462 87.732 -2.6461
171.979736 87.710 -2.7278
173.225967 87.689 -2.8069
174.481232 87.667 -2.8848
175.745605 87.644 -2.9640
177.019119 87.620 -3.0418
178.301880 87.594 -3.1183
179.593933 87.565 -3.1878
180.895340 87.533 -3.2456
182.206177 87.499 -3.2889
183.526520 87.464 -3.3130
184.856430 87.428 -3.3200
186.195984 87.393 -3.3106
187.545227 87.357 -3.2851
188.904266 87.321 -3.2442
190.273132 87.285 -3.1872
191.651932 87.250 -3.1127
193.040726 87.215 -3.0223
194.439575 87.182 -2.9176
195.848572 87.150 -2.7974
197.267761 87.117 -2.6614
198.697250 87.086 -2.5084
200.137085 87.058 -2.3349
201.587372 87.032 -2.1475
203.048157 87.011 -1.9501
204.519531 86.993 -1.7476
206.001556 86.979 -1.5455
207.494324 86.967 -1.3455
208.997925 86.958 -1.1503
210.512405 86.952 -0.9624
212.037857 86.948 -0.7860
213.574371 86.944 -0.6194
215.122025 86.941 -0.4645
216.680893 86.937 -0.3154
218.251053 86.932 -0.1684
219.832581 86.925 -0.0184
221.425583 86.917 0.1409
223.030121 86.909 0.3096
224.646286 86.903 0.4903
226.274170 86.898 0.6815
227.913849 86.895 0.8847
229.565399 86.894 1.0935
231.228928 86.898 1.3032
232.904510 86.906 1.5104
234.592224 86.915 1.7099
236.292191 86.927 1.9015
238.004456 86.941 2.0838
239.729126 86.956 2.2555
241.466309 86.972 2.4132
243.216080 86.989 2.5616
244.978516 87.004 2.7037
246.753738 87.019 2.8416
248.541809 87.036 2.9805
250.342850 87.055 3.1146
252.156937 87.075 3.2399
253.984161 87.096 3.3567
255.824646 87.117 3.4635
257.678467 87.138 3.5628
259.545685 87.159 3.6565
261.426483 87.181 3.7438
263.320862 87.203 3.8243
265.229004 87.226 3.8988
267.150970 87.248 3.9674
269.086853 87.271 4.0318
271.036774 87.293 4.0949
273.000824 87.317 4.1528
274.979095 87.343 4.2031
276.971710 87.369 4.2449
278.978760 87.394 4.2761
281.000336 87.420 4.2980
283.036591 87.446 4.3109
285.087585 87.473 4.3150
287.153442 87.498 4.3101
289.234283 87.523 4.2980
291.330200 87.547 4.2798
293.441284 87.570 4.2571
295.567688 87.593 4.2324
297.709503 87.616 4.2041
299.866821 87.639 4.1713
302.039795 87.663 4.1341
304.228485 87.686 4.0931
306.433044 87.710 4.0461
308.653595 87.735 3.9920
310.890228 87.760 3.9282
313.143066 87.786 3.8521
315.412231 87.813 3.7623
317.697845 87.838 3.6549
320.000000 87.862 3.5344
322.318848 87.883 3.4034
324.654510 87.903 3.2635
327.007080 87.921 3.1155
329.376709 87.937 2.9635
331.763519 87.949 2.8109
334.167603 87.960 2.6595
336.589142 87.970 2.5138
339.028198 87.980 2.3694
341.484924 87.990 2.2240
343.959473 88.000 2.0764
346.451935 88.009 1.9252
348.962463 88.017 1.7684
351.491211 88.026 1.6040
354.038239 88.035 1.4305
356.603760 88.042 1.2448
359.187866 88.047 1.0496
361.790680 88.050 0.8467
364.412354 88.050 0.6366
367.053040 88.049 0.4201
369.712860 88.044 0.1987
372.391968 88.035 -0.0272
375.090454 88.023 -0.2533
377.808533 88.007 -0.4770
380.546265 87.986 -0.6934
383.303864 87.961 -0.8982
386.081451 87.931 -1.0865
388.879150 87.897 -1.2537
391.697144 87.860 -1.3946
394.535522 87.819 -1.5029
397.394501 87.776 -1.5778
400.274170 87.732 -1.6164
403.174744 87.688 -1.6190
406.096313 87.645 -1.5839
409.039062 87.603 -1.5143
412.003113 87.565 -1.4111
414.988647 87.530 -1.2805
417.995850 87.500 -1.1268
421.024811 87.475 -0.9556
424.075714 87.454 -0.7725
427.148743 87.437 -0.5816
430.244049 87.425 -0.3880
433.361786 87.417 -0.1936
436.502106 87.412 -0.0027
439.665161 87.410 0.1864
442.851166 87.410 0.3730
446.060242 87.412 0.5594
449.292572 87.416 0.7485
452.548340 87.423 0.9374
455.827698 87.435 1.1262
459.130798 87.451 1.3094
462.457855 87.471 1.4817
465.809021 87.494 1.6425
469.184448 87.520 1.7919
472.584381 87.550 1.9236
476.008911 87.584 2.0325
479.458252 87.622 2.1158
482.932617 87.661 2.1680
486.432159 87.701 2.1920
489.957031 87.741 2.1892
493.507477 87.782 2.1581
497.083618 87.823 2.0979
500.685699 87.865 2.0074
504.313873 87.905 1.8845
507.968323 87.944 1.7305
511.649292 87.981 1.5450
515.356934 88.015 1.3308
519.091370 88.045 1.0890
522.852966 88.070 0.8249
526.641724 88.091 0.5435
530.458008 88.107 0.2460
534.301941 88.119 -0.0663
538.173706 88.126 -0.3879
542.073547 88.127 -0.7138
546.001648 88.122 -1.0409
549.958191 88.113 -1.3642
553.943420 88.100 -1.6850
557.957520 88.083 -2.0040
562.000671 88.061 -2.3170
566.073181 88.033 -2.6214
570.175171 87.999 -2.9121
574.306885 87.961 -3.1833
578.468567 87.918 -3.4342
582.660400 87.871 -3.6641
586.882568 87.820 -3.8663
591.135376 87.763 -4.0352
595.419006 87.702 -4.1676
599.733643 87.640 -4.2576
604.079590 87.576 -4.3079
608.456970 87.512 -4.3196
612.866089 87.447 -4.2922
617.307190 87.382 -4.2252
621.780457 87.317 -4.1194
626.286133 87.254 -3.9748
630.824463 87.193 -3.7927
635.395691 87.134 -3.5750
640.000000 87.076 -3.3199
644.637695 87.021 -3.0261
649.309021 86.969 -2.6942
654.014160 86.921 -2.3249
658.753418 86.878 -1.9174
663.527039 86.839 -1.4699
668.335205 86.807 -0.9857
673.178284 86.783 -0.4647
678.056396 86.769 0.0841
682.969849 86.765 0.6555
687.918945 86.772 1.2389
692.903870 86.792 1.8264
697.924927 86.824 2.4050
702.982422 86.870 2.9637
708.076477 86.928 3.4892
713.207520 86.997 3.9669
718.375732 87.076 4.3896
723.581360 87.163 4.7461
728.824707 87.256 5.0341
734.106079 87.353 5.2460
739.425720 87.453 5.3866
744.783936 87.550 5.4565
750.180908 87.647 5.4611
755.617065 87.742 5.4052
761.092529 87.836 5.2915
766.607727 87.926 5.1235
772.162903 88.013 4.9029
777.758301 88.096 4.6329
783.394287 88.177 4.3132
789.071045 88.254 3.9446
794.789001 88.326 3.5266
800.548340 88.392 3.0570
806.349487 88.451 2.5409
812.192627 88.501 1.9792
818.078125 88.541 1.3822
824.006226 88.570 0.7574
829.977295 88.588 0.1143
835.991699 88.594 -0.5391
842.049622 88.588 -1.1906
848.151428 88.569 -1.8290
854.297485 88.538 -2.4428
860.488098 88.497 -3.0181
866.723572 88.446 -3.5501
873.004211 88.388 -4.0319
879.330322 88.322 -4.4566
885.702332 88.250 -4.8153
892.120483 88.173 -5.1071
898.585144 88.096 -5.3253
905.096680 88.020 -5.4776
911.655396 87.947 -5.5664
918.261597 87.877 -5.6010
924.915710 87.814 -5.5862
931.618042 87.758 -5.5372
938.368896 87.712 -5.4666
945.168762 87.674 -5.3863
952.017822 87.643 -5.3113
958.916504 87.617 -5.2452
965.865234 87.596 -5.1965
972.864319 87.577 -5.1651
979.914062 87.560 -5.1554
987.014954 87.544 -5.1629
994.167236 87.526 -5.1865
1001.371399 87.508 -5.2209
1008.627747 87.489 -5.2604
1015.936646 87.469 -5.3048
1023.298584 87.448 -5.3516
1030.713867 87.427 -5.4018
1038.182739 87.406 -5.4536
1045.705933 87.386 -5.5127
1053.283447 87.368 -5.5833
1060.916016 87.349 -5.6686
1068.603882 87.329 -5.7746
1076.347412 87.307 -5.8965
1084.147095 87.281 -6.0318
1092.003296 87.252 -6.1795
1099.916382 87.221 -6.3404
1107.886841 87.184 -6.5063
1115.915039 87.138 -6.6732
1124.001343 87.085 -6.8295
1132.146362 87.028 -6.9619
1140.350342 86.965 -7.0716
1148.613770 86.899 -7.1576
1156.937134 86.829 -7.2128
1165.320801 86.753 -7.2307
1173.765137 86.674 -7.2092
1182.270752 86.596 -7.1418
1190.838013 86.517 -7.0355
1199.467285 86.440 -6.8959
1208.159180 86.363 -6.7208
1216.913940 86.286 -6.5079
1225.732178 86.210 -6.2629
1234.614380 86.141 -5.9881
1243.560913 86.075 -5.6912
1252.572266 86.012 -5.3801
1261.648926 85.952 -5.0563
1270.791382 85.895 -4.7234
1280.000000 85.840 -4.3833
1289.275391 85.787 -4.0407
1298.618042 85.735 -3.6915
1308.028320 85.682 -3.3354
1317.506836 85.627 -2.9666
1327.054077 85.572 -2.5796
1336.670410 85.516 -2.1726
1346.356567 85.461 -1.7433
1356.112793 85.406 -1.2887
1365.939697 85.351 -0.8058
1375.837891 85.296 -0.2932
1385.807739 85.244 0.2519
1395.849854 85.194 0.8286
1405.964844 85.147 1.4374
1416.152954 85.104 2.0776
1426.415039 85.066 2.7498
1436.751465 85.032 3.4503
1447.162720 85.005 4.1775
1457.649414 84.984 4.9250
1468.212158 84.971 5.6893
1478.851440 84.967 6.4600
1489.567871 84.973 7.2290
1500.361816 84.988 7.9861
1511.234131 85.010 8.7199
1522.185059 85.038 9.4269
1533.215454 85.070 10.1000
1544.325806 85.106 10.7383
1555.516602 85.144 11.3361
1566.788574 85.181 11.8997
1578.142090 85.215 12.4281
1589.578003 85.244 12.9379
1601.096680 85.267 13.4411
1612.698975 85.284 13.9508
1624.385254 85.295 14.4801
1636.156250 85.302 15.0404
1648.012451 85.305 15.6444
1659.954590 85.307 16.3015
1671.983398 85.307 17.0258
1684.099243 85.311 17.8156
1696.302856 85.323 18.6792
1708.594971 85.345 19.5997
1720.976196 85.382 20.5703
1733.447144 85.435 21.5686
1746.008423 85.505 22.5767
1758.660645 85.592 23.5750
1771.404663 85.695 24.5427
1784.240967 85.811 25.4663
1797.170288 85.941 26.3275
1810.193359 86.079 27.1200
1823.310791 86.224 27.8290
1836.523193 86.370 28.4626
1849.831421 86.516 29.0187
1863.236084 86.658 29.5139
1876.737793 86.796 29.9591
1890.337524 86.928 30.3693
1904.035645 87.055 30.7605
1917.833008 87.179 31.1405
1931.730469 87.300 31.5208
1945.728638 87.419 31.9063
1959.828125 87.538 32.3063
1974.029907 87.658 32.7192
1988.334473 87.783 33.1495
2002.742798 87.913 33.5882
2017.255493 88.051 34.0306
2031.873291 88.195 34.4683
2046.597168 88.346 34.8935
2061.427734 88.504 35.2993
2076.365479 88.670 35.6781
2091.411865 88.842 36.0236
2106.566895 89.020 36.3270
2121.832031 89.202 36.5880
2137.207764 89.388 36.8038
2152.694824 89.576 36.9734
2168.294189 89.767 37.0951
2184.006592 89.960 37.1688
2199.832764 90.154 37.1926
2215.773682 90.348 37.1692
2231.830078 90.542 37.1001
2248.002686 90.735 36.9866
2264.292725 90.928 36.8294
2280.700684 91.118 36.6319
2297.227539 91.305 36.3960
2313.874268 91.490 36.1272
2330.641602 91.673 35.8308
2347.530273 91.854 35.5094
2364.541504 92.032 35.1661
2381.676025 92.208 34.8047
2398.934570 92.383 34.4303
2416.318359 92.558 34.0428
2433.827881 92.733 33.6444
2451.464355 92.910 33.2327
2469.228760 93.090 32.8097
2487.121826 93.273 32.3650
2505.144531 93.462 31.8912
2523.297852 93.655 31.3804
2541.582764 93.852 30.8235
2560.000000 94.051 30.2158
2578.550781 94.252 29.5531
2597.236084 94.455 28.8255
2616.056641 94.661 28.0217
2635.013672 94.865 27.1419
2654.108154 95.063 26.1794
2673.340820 95.255 25.1437
2692.713135 95.439 24.0397
2712.225586 95.615 22.8746
2731.879395 95.781 21.6528
2751.675781 95.936 20.3869
2771.615479 96.080 19.0881
2791.699707 96.212 17.7659
2811.929688 96.336 16.4323
2832.305908 96.450 15.0913
2852.830078 96.557 13.7509
2873.502930 96.658 12.4108
2894.325439 96.753 11.0765
2915.298828 96.845 9.7391
2936.424316 96.934 8.3921
2957.702881 97.020 7.0340
2979.135742 97.099 5.6604
3000.723633 97.173 4.2731
3022.468262 97.242 2.8729
3044.370117 97.306 1.4586
3066.430908 97.364 0.0267
3088.651611 97.416 -1.4165
3111.033203 97.458 -2.8685
3133.577148 97.492 -4.3221
3156.284180 97.519 -5.7689
3179.156006 97.539 -7.2102
3202.193359 97.555 -8.6450
3225.397949 97.565 -10.0722
3248.770508 97.567 -11.4911
3272.312500 97.564 -12.8997
3296.024902 97.557 -14.2941
3319.909180 97.545 -15.6796
3343.966797 97.530 -17.0608
3368.198486 97.509 -18.4365
3392.605713 97.483 -19.8074
3417.189941 97.450 -21.1717
3441.952393 97.412 -22.5279
3466.894287 97.368 -23.8750
3492.016846 97.317 -25.2136
3517.321289 97.259 -26.5369
3542.809326 97.193 -27.8405
3568.481934 97.118 -29.1182
3594.340576 97.037 -30.3633
3620.386719 96.949 -31.5723
3646.621582 96.854 -32.7416
3673.046387 96.752 -33.8648
3699.662842 96.645 -34.9338
3726.472168 96.533 -35.9504
3753.475586 96.419 -36.9124
3780.675049 96.304 -37.8230
3808.071289 96.186 -38.6849
3835.666016 96.067 -39.4982
3863.460938 95.946 -40.2640
3891.457275 95.826 -40.9827
3919.656250 95.705 -41.6560
3948.059814 95.585 -42.2812
3976.668945 95.462 -42.8583
4005.485596 95.339 -43.3816
4034.510986 95.215 -43.8449
4063.746582 95.092 -44.2492
4093.194336 94.972 -44.5925
4122.855469 94.855 -44.8777
4152.730957 94.742 -45.1084
4182.823730 94.633 -45.2803
4213.133789 94.526 -45.3912
4243.664062 94.425 -45.4389
4274.415527 94.332 -45.4196
4305.389648 94.246 -45.3356
4336.588379 94.171 -45.1873
4368.013184 94.108 -44.9762
4399.665527 94.058 -44.6969
4431.547363 94.026 -44.3697
4463.660156 94.019 -44.0007
4496.005371 94.038 -43.6268
4528.585449 94.085 -43.2792
4561.401367 94.157 -42.9822
4594.455078 94.251 -42.7663
4627.748535 94.364 -42.6453
4661.283203 94.495 -42.6418
4695.060547 94.637 -42.7611
4729.083008 94.789 -43.0191
4763.352051 94.946 -43.4069
4797.869141 95.105 -43.9214
4832.636719 95.267 -44.5605
4867.655762 95.432 -45.3155
4902.928711 95.601 -46.2033
4938.457520 95.775 -47.2318
4974.243652 95.950 -48.4199
5010.289062 96.124 -49.7875
5046.595703 96.289 -51.3407
5083.165527 96.443 -53.0968
5120.000000 96.576 -55.0420
5157.101562 96.683 -57.1834
5194.472168 96.757 -59.4755
5232.113281 96.788 -61.8951
5270.027344 96.777 -64.3814
5308.216309 96.719 -66.8862
5346.681641 96.615 -69.3472
5385.426270 96.463 -71.7027
5424.451172 96.270 -73.9027
5463.758789 96.038 -75.8809
5503.351562 95.777 -77.6241
5543.230957 95.498 -79.0935
5583.399414 95.207 -80.2997
5623.859375 94.913 -81.2318
5664.611816 94.623 -81.9172
5705.660156 94.350 -82.3643
5747.005859 94.099 -82.6201
5788.650879 93.879 -82.7190
5830.597656 93.690 -82.7083
5872.848633 93.536 -82.6332
5915.405762 93.416 -82.5345
5958.271484 93.329 -82.4583
6001.447266 93.270 -82.4339
6044.936523 93.237 -82.5018
6088.740234 93.223 -82.6738
6132.861816 93.221 -82.9773
6177.303223 93.225 -83.4055
6222.066406 93.230 -83.9676
6267.154297 93.230 -84.6424
6312.568359 93.219 -85.4225
6358.312012 93.196 -86.2756
6404.386719 93.156 -87.1763
6450.795898 93.100 -88.0953
6497.541016 93.029 -88.9995
6544.625000 92.945 -89.8737
6592.049805 92.851 -90.6948
6639.818359 92.750 -91.4533
6687.933594 92.642 -92.1306
6736.396973 92.534 -92.7301
6785.211426 92.430 -93.2430
6834.379883 92.334 -93.6869
6883.904785 92.252 -94.0699
6933.788574 92.184 -94.4113
6984.033691 92.132 -94.7254
7034.642578 92.098 -95.0354
7085.618652 92.086 -95.3584
7136.963867 92.095 -95.7280
7188.681152 92.129 -96.1729
7240.773438 92.184 -96.7259
7293.243164 92.258 -97.4203
7346.092773 92.347 -98.2832
7399.325684 92.448 -99.3441
7452.944336 92.556 -100.6289
7506.951172 92.667 -102.1724
7561.350098 92.769 -103.9770
7616.142578 92.853 -106.0648
7671.332031 92.911 -108.4113
7726.921875 92.935 -111.0170
7782.914551 92.916 -113.8271
7839.312500 92.844 -116.8154
7896.119629 92.714 -119.8976
7953.337891 92.517 -122.9999
8010.971191 92.261 -126.0630
8069.021973 91.949 -129.0189
8127.493164 91.578 -131.8207
8186.388672 91.146 -134.4222
8245.710938 90.657 -136.7545
8305.461914 90.110 -138.7470
8365.647461 89.519 -140.3576
8426.267578 88.895 -141.5286
8487.328125 88.241 -142.2356
8548.831055 87.557 -142.4478
8610.779297 86.854 -142.1272
8673.176758 86.130 -141.2198
8736.026367 85.411 -139.7416
8799.331055 84.715 -137.6656
8863.094727 84.063 -135.0660
8927.320312 83.475 -131.9757
8992.010742 82.971 -128.4943
9057.170898 82.577 -124.6858
9122.802734 82.304 -120.6904
9188.910156 82.176 -116.6274
9255.497070 82.177 -112.6252
9322.566406 82.305 -108.8217
9390.121094 82.542 -105.3086
9458.166016 82.877 -102.2056
9526.704102 83.281 -99.5666
9595.738281 83.729 -97.4872
9665.273438 84.203 -95.9616
9735.311523 84.679 -95.0294
9805.857422 85.146 -94.6486
9876.915039 85.587 -94.8148
9948.487305 85.993 -95.4544
10020.578125 86.348 -96.5209
10093.191406 86.652 -97.9266
10166.331055 86.901 -99.5928
10240.000000 87.093 -101.4449
10314.203125 87.228 -103.4100
10388.944336 87.306 -105.4046
10464.226562 87.324 -107.3427
10540.054688 87.293 -109.1587
10616.432617 87.219 -110.7670
10693.363281 87.115 -112.1416
10770.852539 86.988 -113.2217
10848.902344 86.858 -114.0284
10927.517578 86.738 -114.5387
11006.703125 86.644 -114.8260
11086.461914 86.594 -114.9230
11166.798828 86.592 -114.9301
11247.718750 86.650 -114.9296
11329.223633 86.759 -115.0082
11411.320312 86.919 -115.2640
11494.011719 87.113 -115.7457
11577.301758 87.330 -116.5336
11661.195312 87.557 -117.6300
11745.697266 87.779 -119.0756
11830.811523 87.986 -120.8346
11916.542969 88.165 -122.9023
12002.894531 88.312 -125.2245
12089.873047 88.420 -127.7601
12177.480469 88.489 -130.4642
12265.723633 88.517 -133.2895
12354.606445 88.505 -136.2021
12444.132812 88.451 -139.1616
12534.308594 88.357 -142.1399
12625.136719 88.222 -145.1039
12716.624023 88.049 -148.0277
12808.773438 87.837 -150.8849
12901.591797 87.588 -153.6447
12995.082031 87.300 -156.2819
13089.250000 86.975 -158.7521
13184.099609 86.612 -161.0122
13279.636719 86.218 -163.0323
13375.867188 85.798 -164.7685
13472.793945 85.359 -166.2196
13570.422852 84.906 -167.3612
13668.759766 84.451 -168.2197
13767.809570 84.003 -168.7946
13867.577148 83.572 -169.1436
13968.067383 83.171 -169.3061
14069.285156 82.798 -169.3371
14171.237305 82.459 -169.3001
14273.927734 82.146 -169.2096
14377.362305 81.852 -169.1096
14481.546875 81.571 -168.9748
14586.486328 81.297 -168.8085
14692.185547 81.027 -168.5677
14798.651367 80.752 -168.2188
14905.888672 80.483 -167.7363
15013.902344 80.219 -167.0776
15122.700195 79.976 -166.2591
15232.285156 79.762 -165.2587
15342.664062 79.594 -164.1500
15453.843750 79.490 -162.9620
15565.829102 79.451 -161.8070
15678.625000 79.488 -160.7782
15792.239258 79.586 -159.9627
15906.675781 79.740 -159.4636
16021.942383 79.931 -159.3266
16138.043945 80.144 -159.6327
16254.986328 80.362 -160.3784
16372.777344 80.564 -161.6085
16491.421875 80.737 -163.2587
16610.923828 80.861 -165.3086
16731.294922 80.933 -167.6685
16852.535156 80.944 -170.2700
16974.656250 80.894 -173.0280
17097.662109 80.776 -175.8607
17221.558594 80.594 -178.6890
17346.353516 80.347 178.5695
17472.052734 80.039 175.9871
17598.662109 79.669 173.6474
17726.189453 79.250 171.5989
17854.640625 78.787 169.9141
17984.021484 78.292 168.6042
18114.341797 77.773 167.7106
18245.605469 77.245 167.2137
18377.820312 76.716 167.1308
18510.994141 76.206 167.3926
18645.132812 75.735 167.9681
18780.242188 75.310 168.7583
18916.332031 74.947 169.6766
19053.408203 74.638 170.6524
19191.476562 74.384 171.5984
19330.546875 74.176 172.4795
19470.623047 74.009 173.2318
19611.714844 73.869 173.8549
19753.830078 73.743 174.3168
19896.974609 73.625 174.6483
