* Measurement data measured by REW V5.20.13
* Source: C:\Users\kurin\Desktop\Targets and Curves\Resolve\Img\Files\HiFiMAN_HE1000_V2_SPL.txt
* Format: Comma/Tab/Space delimited data
* Dated: Aug 14, 2023 5:26:29 PM
* REW Settings:
*  C-weighting compensation: Off
*  Target level: 75.0 dB
* Note: ; Measurement imported from C:\Users\kurin\Desktop\Targets and Curves\Resolve\Img\Files\HiFiMAN_HE1000_V2_SPL.txt Format: Comma/Tab/Space delimited data 623 values loaded, 5 Hz to 39,792 Hz log spaced 
* Measurement: HiFiMAN_HE1000_V2_SPL
* Smoothing: 1/48 octave
* Frequency Step: 1/96 octave
* Start Frequency: 5.000 Hz
*
* Freq(Hz) SPL(dB) Phase(degrees)
5.000000 90.841 12.7510
5.036232 90.845 12.7476
5.072727 90.850 12.7440
5.109486 90.855 12.7397
5.146511 90.861 12.7350
5.183805 90.869 12.7297
5.221369 90.877 12.7240
5.259205 90.885 12.7181
5.297316 90.894 12.7120
5.335702 90.903 12.7056
5.374367 90.913 12.6990
5.413311 90.923 12.6924
5.452538 90.932 12.6860
5.492050 90.941 12.6800
5.531847 90.950 12.6740
5.571934 90.959 12.6676
5.612310 90.969 12.6610
5.652979 90.979 12.6546
5.693943 90.988 12.6480
5.735204 90.997 12.6410
5.776763 91.007 12.6340
5.818624 91.017 12.6275
5.860788 91.026 12.6210
5.903258 91.035 12.6140
5.946035 91.045 12.6070
5.989123 91.055 12.6005
6.032523 91.064 12.5940
6.076237 91.073 12.5871
6.120268 91.082 12.5800
6.164618 91.091 12.5725
6.209289 91.101 12.5650
6.254284 91.110 12.5579
6.299605 91.120 12.5510
6.345255 91.130 12.5441
6.391235 91.139 12.5370
6.437549 91.148 12.5296
6.484198 91.158 12.5220
6.531185 91.167 12.5145
6.578513 91.177 12.5070
6.626183 91.187 12.4996
6.674199 91.196 12.4920
6.722563 91.206 12.4840
6.771278 91.215 12.4760
6.820345 91.224 12.4685
6.869768 91.233 12.4610
6.919549 91.242 12.4531
6.969691 91.252 12.4450
7.020196 91.261 12.4371
7.071068 91.271 12.4290
7.122308 91.281 12.4205
7.173919 91.290 12.4120
7.225904 91.299 12.4040
7.278266 91.309 12.3960
7.331007 91.318 12.3876
7.384131 91.328 12.3790
7.437639 91.338 12.3705
7.491535 91.347 12.3620
7.545822 91.356 12.3536
7.600502 91.365 12.3450
7.655579 91.374 12.3360
7.711054 91.384 12.3270
7.766932 91.394 12.3186
7.823214 91.403 12.3100
7.879904 91.412 12.3006
7.937005 91.422 12.2910
7.994520 91.431 12.2819
8.052452 91.441 12.2730
8.110803 91.451 12.2641
8.169578 91.460 12.2550
8.228777 91.469 12.2456
8.288406 91.479 12.2360
8.348468 91.489 12.2266
8.408964 91.498 12.2170
8.469899 91.507 12.2070
8.531276 91.516 12.1970
8.593097 91.525 12.1875
8.655366 91.535 12.1780
8.718086 91.545 12.1681
8.781260 91.554 12.1580
8.844893 91.563 12.1475
8.908987 91.573 12.1370
8.973545 91.582 12.1270
9.038571 91.592 12.1170
9.104069 91.602 12.1066
9.170040 91.611 12.0960
9.236490 91.621 12.0856
9.303422 91.630 12.0750
9.370838 91.639 12.0641
9.438744 91.648 12.0530
9.507140 91.657 12.0420
9.576033 91.667 12.0310
9.645425 91.676 12.0200
9.715320 91.686 12.0090
9.785721 91.695 11.9981
9.856632 91.705 11.9870
9.928058 91.715 11.9756
10.000000 91.724 11.9640
10.072464 91.733 11.9526
10.145453 91.743 11.9410
10.218971 91.752 11.9291
10.293022 91.762 11.9170
10.367610 91.772 11.9050
10.442738 91.781 11.8930
10.518411 91.790 11.8811
10.594631 91.799 11.8690
10.671404 91.808 11.8566
10.748734 91.818 11.8440
10.826623 91.827 11.8315
10.905077 91.837 11.8190
10.984100 91.846 11.8066
11.063695 91.856 11.7940
11.143867 91.866 11.7811
11.224621 91.875 11.7680
11.305959 91.884 11.7550
11.387886 91.894 11.7420
11.470407 91.904 11.7291
11.553527 91.913 11.7160
11.637249 91.922 11.7026
11.721577 91.931 11.6890
11.806517 91.940 11.6751
11.892071 91.950 11.6610
11.978246 91.959 11.6470
12.065045 91.969 11.6330
12.152473 91.979 11.6190
12.240536 91.988 11.6050
12.329235 91.997 11.5911
12.418578 92.007 11.5770
12.508568 92.016 11.5621
12.599211 92.026 11.5470
12.690510 92.035 11.5325
12.782471 92.045 11.5180
12.875097 92.055 11.5031
12.968395 92.064 11.4880
13.062370 92.073 11.4725
13.157025 92.082 11.4570
13.252366 92.091 11.4421
13.348398 92.101 11.4270
13.445127 92.110 11.4111
13.542556 92.120 11.3950
13.640691 92.129 11.3790
13.739536 92.139 11.3630
13.839099 92.148 11.3471
13.939383 92.158 11.3310
14.040393 92.167 11.3146
14.142136 92.177 11.2980
14.244616 92.187 11.2816
14.347837 92.196 11.2650
14.451808 92.205 11.2481
14.556532 92.214 11.2310
14.662014 92.223 11.2141
14.768262 92.233 11.1970
14.875278 92.242 11.1796
14.983070 92.252 11.1620
15.091644 92.261 11.1441
15.201005 92.271 11.1260
15.311157 92.280 11.1080
15.422109 92.290 11.0900
15.533863 92.299 11.0721
15.646428 92.309 11.0540
15.759809 92.318 11.0356
15.874010 92.328 11.0170
15.989040 92.338 10.9981
16.104904 92.347 10.9790
16.221605 92.356 10.9600
16.339155 92.365 10.9410
16.457554 92.374 10.9221
16.576813 92.384 10.9030
16.696936 92.393 10.8836
16.817928 92.403 10.8640
16.939798 92.412 10.8445
17.062551 92.422 10.8250
17.186193 92.431 10.8055
17.310732 92.441 10.7860
17.436172 92.450 10.7665
17.562521 92.460 10.7470
17.689787 92.470 10.7275
17.817974 92.479 10.7080
17.947090 92.488 10.6885
18.077143 92.497 10.6690
18.208138 92.506 10.6494
18.340080 92.516 10.6300
18.472980 92.525 10.6112
18.606844 92.535 10.5930
18.741676 92.544 10.5756
18.877487 92.554 10.5590
19.014280 92.563 10.5435
19.152065 92.573 10.5290
19.290850 92.583 10.5158
19.430639 92.593 10.5040
19.571442 92.603 10.4947
19.713264 92.614 10.4860
19.856115 92.626 10.4769
20.000000 92.639 10.4660
20.144928 92.653 10.4515
20.290907 92.667 10.4330
20.437943 92.682 10.4103
20.586044 92.697 10.3820
20.735220 92.713 10.3460
20.885475 92.728 10.3041
21.036821 92.742 10.2568
21.189262 92.755 10.2061
21.342808 92.768 10.1544
21.497467 92.780 10.1001
21.653246 92.793 10.0413
21.810154 92.805 9.9811
21.968201 92.815 9.9226
22.127390 92.825 9.8641
22.287735 92.837 9.8060
22.449242 92.849 9.7450
22.611917 92.860 9.6767
22.775772 92.871 9.6051
22.940815 92.879 9.5327
23.107054 92.887 9.4601
23.274498 92.894 9.3888
23.443153 92.901 9.3191
23.613033 92.907 9.2506
23.784142 92.912 9.1861
23.956491 92.915 9.1287
24.130091 92.919 9.0771
24.304947 92.924 9.0317
24.481071 92.930 8.9891
24.658470 92.936 8.9455
24.837156 92.942 8.9021
25.017136 92.948 8.8588
25.198421 92.955 8.8150
25.381020 92.963 8.7700
25.564941 92.970 8.7240
25.750195 92.976 8.6769
25.936790 92.982 8.6301
26.124741 92.988 8.5854
26.314051 92.995 8.5411
26.504732 93.002 8.4954
26.696796 93.009 8.4491
26.890253 93.015 8.4023
27.085112 93.022 8.3551
27.281382 93.029 8.3075
27.479073 93.036 8.2591
27.678198 93.043 8.2087
27.878765 93.049 8.1581
28.080786 93.055 8.1092
28.284271 93.062 8.0601
28.489231 93.069 8.0094
28.695675 93.076 7.9571
28.903616 93.083 7.9025
29.113064 93.089 7.8461
29.324028 93.095 7.7883
29.536524 93.101 7.7291
29.750557 93.107 7.6677
29.966141 93.112 7.6071
30.183289 93.116 7.5504
30.402010 93.119 7.4961
30.622314 93.124 7.4447
30.844217 93.130 7.3931
31.067726 93.136 7.3383
31.292856 93.143 7.2801
31.519617 93.150 7.2173
31.748020 93.156 7.1491
31.978081 93.162 7.0742
32.209808 93.168 6.9931
32.443211 93.172 6.9049
32.678310 93.175 6.8131
32.915108 93.175 6.7201
33.153625 93.174 6.6291
33.393871 93.171 6.5439
33.635857 93.167 6.4661
33.879597 93.161 6.3987
34.125103 93.154 6.3411
34.372387 93.147 6.2939
34.621464 93.141 6.2561
34.872345 93.135 6.2270
35.125042 93.129 6.2060
35.379574 93.124 6.1931
35.635948 93.120 6.1850
35.894180 93.118 6.1786
36.154285 93.117 6.1730
36.416275 93.116 6.1662
36.680161 93.116 6.1590
36.945961 93.116 6.1516
37.213688 93.116 6.1440
37.483353 93.116 6.1358
37.754974 93.116 6.1280
38.028561 93.116 6.1214
38.304131 93.116 6.1160
38.581699 93.116 6.1116
38.861279 93.116 6.1090
39.142883 93.116 6.1086
39.426529 93.116 6.1110
39.712231 93.116 6.1167
40.000000 93.116 6.1260
40.289856 93.116 6.1391
40.581814 93.117 6.1560
40.875885 93.118 6.1770
41.172089 93.121 6.2010
41.470440 93.125 6.2275
41.770950 93.130 6.2540
42.073643 93.136 6.2770
42.378525 93.142 6.2980
42.685616 93.149 6.3173
42.994934 93.157 6.3350
43.306492 93.165 6.3515
43.620308 93.173 6.3660
43.936401 93.183 6.3777
44.254780 93.193 6.3870
44.575470 93.203 6.3942
44.898483 93.213 6.3990
45.223835 93.225 6.4019
45.551544 93.238 6.4000
45.881630 93.252 6.3909
46.214108 93.267 6.3730
46.548996 93.282 6.3439
46.886307 93.297 6.3041
47.226067 93.312 6.2530
47.568283 93.326 6.1921
47.912983 93.338 6.1219
48.260181 93.349 6.0451
48.609894 93.358 5.9643
48.962143 93.366 5.8811
49.316940 93.372 5.7979
49.674313 93.377 5.7161
50.034271 93.380 5.6375
50.396843 93.381 5.5631
50.762039 93.382 5.4950
51.129883 93.383 5.4321
51.500389 93.383 5.3738
51.873581 93.383 5.3201
52.249481 93.383 5.2711
52.628101 93.383 5.2261
53.009464 93.383 5.1841
53.393593 93.383 5.1451
53.780506 93.383 5.1083
54.170223 93.383 5.0741
54.562763 93.383 5.0423
54.958145 93.383 5.0130
55.356396 93.383 4.9862
55.757530 93.383 4.9620
56.161572 93.383 4.9407
56.568542 93.383 4.9220
56.978462 93.383 4.9058
57.391350 93.383 4.8930
57.807232 93.383 4.8848
58.226128 93.383 4.8810
58.648056 93.383 4.8817
59.073048 93.384 4.8880
59.501114 93.385 4.9013
59.932281 93.387 4.9200
60.366577 93.391 4.9435
60.804020 93.396 4.9700
61.244629 93.403 4.9983
61.688435 93.412 5.0260
62.135452 93.423 5.0512
62.585712 93.436 5.0710
63.039234 93.451 5.0821
63.496040 93.467 5.0830
63.956161 93.485 5.0720
64.419617 93.504 5.0471
64.886421 93.523 5.0057
65.356621 93.543 4.9481
65.830215 93.562 4.8724
66.307251 93.580 4.7822
66.787743 93.595 4.6796
67.271713 93.609 4.5672
67.759193 93.621 4.4475
68.250206 93.631 4.3222
68.744774 93.638 4.1931
69.242928 93.643 4.0632
69.744690 93.646 3.9364
70.250084 93.648 3.8122
70.759148 93.649 3.6921
71.271896 93.648 3.5752
71.788361 93.647 3.4608
72.308571 93.645 3.3502
72.832550 93.641 3.2438
73.360321 93.636 3.1432
73.891922 93.630 3.0507
74.427376 93.623 2.9652
74.966705 93.617 2.8861
75.509949 93.610 2.8131
76.057121 93.603 2.7459
76.608261 93.596 2.6841
77.163399 93.589 2.6277
77.722557 93.583 2.5751
78.285767 93.577 2.5239
78.853058 93.570 2.4761
79.424461 93.563 2.4332
80.000000 93.556 2.3951
80.579712 93.549 2.3621
81.163628 93.543 2.3340
81.751770 93.537 2.3110
82.344177 93.531 2.2930
82.940880 93.526 2.2811
83.541901 93.522 2.2720
84.147285 93.520 2.2631
84.757050 93.518 2.2530
85.371231 93.517 2.2393
85.989868 93.516 2.2230
86.612984 93.516 2.2044
87.240616 93.516 2.1830
87.872803 93.516 2.1587
88.509560 93.516 2.1321
89.150940 93.516 2.1039
89.796967 93.516 2.0741
90.447670 93.516 2.0426
91.103088 93.516 2.0091
91.763260 93.516 1.9728
92.428215 93.516 1.9341
93.097992 93.516 1.8929
93.772614 93.515 1.8491
94.452133 93.514 1.8015
95.136566 93.511 1.7531
95.825966 93.507 1.7055
96.520363 93.502 1.6611
97.219788 93.496 1.6226
97.924286 93.489 1.5901
98.633881 93.483 1.5649
99.348625 93.477 1.5460
100.068542 93.470 1.5331
100.793686 93.464 1.5260
101.524078 93.459 1.5259
102.259766 93.455 1.5290
103.000778 93.453 1.5324
103.747162 93.451 1.5350
104.498962 93.450 1.5347
105.256203 93.450 1.5320
106.018929 93.450 1.5267
106.787186 93.450 1.5190
107.561012 93.450 1.5089
108.340446 93.450 1.4970
109.125526 93.450 1.4841
109.916290 93.450 1.4700
110.712791 93.450 1.4550
111.515060 93.450 1.4390
112.323143 93.450 1.4220
113.137085 93.450 1.4040
113.956924 93.450 1.3854
114.782700 93.450 1.3661
115.614464 93.450 1.3464
116.452255 93.450 1.3260
117.296112 93.450 1.3049
118.146095 93.450 1.2830
119.002228 93.450 1.2605
119.864563 93.450 1.2371
120.733154 93.450 1.2125
121.608040 93.450 1.1871
122.489258 93.450 1.1610
123.376869 93.450 1.1341
124.270905 93.450 1.1061
125.171425 93.450 1.0771
126.078468 93.450 1.0468
126.992081 93.450 1.0151
127.912323 93.450 0.9820
128.839233 93.450 0.9471
129.772842 93.450 0.9099
130.713242 93.450 0.8701
131.660431 93.450 0.8273
132.614502 93.450 0.7811
133.575485 93.449 0.7310
134.543427 93.448 0.6771
135.518387 93.446 0.6189
136.500412 93.444 0.5581
137.489548 93.440 0.4956
138.485855 93.435 0.4332
139.489380 93.429 0.3731
140.500168 93.423 0.3151
141.518295 93.416 0.2599
142.543793 93.408 0.2061
143.576721 93.400 0.1525
144.617142 93.392 0.1001
145.665100 93.382 0.0499
146.720642 93.372 0.0011
147.783844 93.362 -0.0467
148.854752 93.352 -0.0939
149.933411 93.340 -0.1421
151.019897 93.327 -0.1879
152.114243 93.312 -0.2289
153.216522 93.296 -0.2639
154.326797 93.279 -0.2913
155.445114 93.261 -0.3100
156.571533 93.242 -0.3184
157.706116 93.222 -0.3160
158.848923 93.202 -0.3012
160.000000 93.182 -0.2751
161.159424 93.162 -0.2389
162.327255 93.142 -0.1911
163.503540 93.122 -0.1301
164.688354 93.103 -0.0572
165.881760 93.086 0.0268
167.083801 93.069 0.1217
168.294571 93.053 0.2273
169.514099 93.038 0.3427
170.742462 93.026 0.4674
171.979736 93.015 0.5996
173.225967 93.007 0.7377
174.481232 93.000 0.8807
175.745605 92.995 1.0280
177.019119 92.993 1.1766
178.301880 92.994 1.3244
179.593933 92.998 1.4676
180.895340 93.004 1.6011
182.206177 93.011 1.7277
183.526520 93.018 1.8490
184.856430 93.027 1.9637
186.195984 93.038 2.0714
187.545227 93.050 2.1708
188.904266 93.062 2.2592
190.273132 93.075 2.3398
191.651932 93.087 2.4149
193.040726 93.100 2.4838
194.439575 93.114 2.5468
195.848572 93.128 2.6038
197.267761 93.141 2.6543
198.697250 93.155 2.6999
200.137085 93.170 2.7431
201.587372 93.185 2.7809
203.048157 93.201 2.8110
204.519531 93.217 2.8339
206.001556 93.233 2.8490
207.494324 93.248 2.8580
208.997925 93.263 2.8635
210.512405 93.278 2.8630
212.037857 93.295 2.8544
213.574371 93.311 2.8390
215.122025 93.326 2.8170
216.680893 93.340 2.7901
218.251053 93.354 2.7607
219.832581 93.369 2.7271
221.425583 93.384 2.6882
223.030121 93.398 2.6441
224.646286 93.411 2.5943
226.274170 93.425 2.5391
227.913849 93.439 2.4793
229.565399 93.454 2.4132
231.228928 93.468 2.3392
232.904510 93.481 2.2583
234.592224 93.494 2.1718
236.292191 93.506 2.0773
238.004456 93.519 1.9723
239.729126 93.532 1.8573
241.466309 93.543 1.7315
243.216080 93.552 1.5964
244.978516 93.561 1.4530
246.753738 93.568 1.3015
248.541809 93.573 1.1414
250.342850 93.576 0.9745
252.156937 93.577 0.8015
253.984161 93.576 0.6245
255.824646 93.573 0.4451
257.678467 93.567 0.2645
259.545685 93.559 0.0841
261.426483 93.548 -0.0956
263.320862 93.535 -0.2742
265.229004 93.520 -0.4495
267.150970 93.501 -0.6199
269.086853 93.480 -0.7825
271.036774 93.457 -0.9339
273.000824 93.432 -1.0746
274.979095 93.405 -1.2044
276.971710 93.376 -1.3217
278.978760 93.346 -1.4247
281.000336 93.314 -1.5138
283.036591 93.282 -1.5882
285.087585 93.250 -1.6488
287.153442 93.217 -1.6961
289.234283 93.183 -1.7309
291.330200 93.150 -1.7540
293.441284 93.117 -1.7660
295.567688 93.084 -1.7673
297.709503 93.050 -1.7590
299.866821 93.017 -1.7429
302.039795 92.983 -1.7181
304.228485 92.949 -1.6842
306.433044 92.914 -1.6411
308.653595 92.880 -1.5899
310.890228 92.844 -1.5272
313.143066 92.807 -1.4512
315.412231 92.768 -1.3583
317.697845 92.728 -1.2447
320.000000 92.688 -1.1094
322.318848 92.649 -0.9503
324.654510 92.610 -0.7666
327.007080 92.572 -0.5563
329.376709 92.536 -0.3208
331.763519 92.504 -0.0589
334.167603 92.475 0.2231
336.589142 92.451 0.5204
339.028198 92.431 0.8301
341.484924 92.415 1.1481
343.959473 92.404 1.4721
346.451935 92.397 1.7997
348.962463 92.395 2.1271
351.491211 92.397 2.4510
354.038239 92.404 2.7681
356.603760 92.415 3.0748
359.187866 92.430 3.3691
361.790680 92.448 3.6489
364.412354 92.469 3.9113
367.053040 92.493 4.1532
369.712860 92.520 4.3734
372.391968 92.548 4.5686
375.090454 92.577 4.7405
377.808533 92.606 4.8890
380.546265 92.634 5.0157
383.303864 92.662 5.1202
386.081451 92.688 5.2088
388.879150 92.710 5.2864
391.697144 92.731 5.3558
394.535522 92.752 5.4212
397.394501 92.771 5.4828
400.274170 92.789 5.5411
403.174744 92.805 5.5998
406.096313 92.820 5.6637
409.039062 92.835 5.7308
412.003113 92.851 5.8015
414.988647 92.868 5.8738
417.995850 92.886 5.9463
421.024811 92.905 6.0178
424.075714 92.926 6.0877
427.148743 92.948 6.1518
430.244049 92.973 6.2067
433.361786 92.999 6.2499
436.502106 93.026 6.2791
439.665161 93.055 6.2910
442.851166 93.085 6.2822
446.060242 93.116 6.2501
449.292572 93.147 6.1904
452.548340 93.176 6.1043
455.827698 93.203 5.9907
459.130798 93.227 5.8535
462.457855 93.246 5.6940
465.809021 93.261 5.5186
469.184448 93.270 5.3312
472.584381 93.274 5.1396
476.008911 93.270 4.9504
479.458252 93.261 4.7715
482.932617 93.246 4.6118
486.432159 93.227 4.4754
489.957031 93.204 4.3684
493.507477 93.178 4.2932
497.083618 93.150 4.2549
500.685699 93.122 4.2510
504.313873 93.096 4.2830
507.968323 93.072 4.3438
511.649292 93.052 4.4292
515.356934 93.036 4.5316
519.091370 93.026 4.6451
522.852966 93.020 4.7606
526.641724 93.019 4.8696
530.458008 93.023 4.9657
534.301941 93.030 5.0408
538.173706 93.040 5.0919
542.073547 93.050 5.1123
546.001648 93.059 5.1051
549.958191 93.065 5.0682
553.943420 93.068 5.0102
557.957520 93.065 4.9364
562.000671 93.056 4.8553
566.073181 93.042 4.7734
570.175171 93.021 4.7012
574.306885 92.993 4.6480
578.468567 92.959 4.6240
582.660400 92.920 4.6415
586.882568 92.877 4.7037
591.135376 92.833 4.8190
595.419006 92.790 4.9843
599.733643 92.749 5.2020
604.079590 92.712 5.4650
608.456970 92.681 5.7706
612.866089 92.657 6.1088
617.307190 92.642 6.4734
621.780457 92.636 6.8498
626.286133 92.640 7.2242
630.824463 92.653 7.5868
635.395691 92.673 7.9238
640.000000 92.699 8.2330
644.637695 92.728 8.5076
649.309021 92.761 8.7472
654.014160 92.796 8.9479
658.753418 92.832 9.1135
663.527039 92.865 9.2441
668.335205 92.896 9.3477
673.178284 92.923 9.4309
678.056396 92.948 9.4978
682.969849 92.970 9.5528
687.918945 92.989 9.6008
692.903870 93.004 9.6472
697.924927 93.016 9.6958
702.982422 93.026 9.7520
708.076477 93.034 9.8167
713.207520 93.040 9.8914
718.375732 93.044 9.9797
723.581360 93.047 10.0853
728.824707 93.049 10.2095
734.106079 93.052 10.3555
739.425720 93.056 10.5214
744.783936 93.062 10.7076
750.180908 93.070 10.9102
755.617065 93.083 11.1268
761.092529 93.099 11.3542
766.607727 93.119 11.5900
772.162903 93.143 11.8291
777.758301 93.173 12.0674
783.394287 93.207 12.3002
789.071045 93.245 12.5223
794.789001 93.288 12.7323
800.548340 93.333 12.9277
806.349487 93.383 13.1064
812.192627 93.437 13.2661
818.078125 93.494 13.4045
824.006226 93.554 13.5196
829.977295 93.617 13.6087
835.991699 93.683 13.6703
842.049622 93.752 13.6990
848.151428 93.824 13.6898
854.297485 93.899 13.6393
860.488098 93.974 13.5433
866.723572 94.051 13.3986
873.004211 94.127 13.2005
879.330322 94.202 12.9490
885.702332 94.272 12.6410
892.120483 94.338 12.2814
898.585144 94.398 11.8722
905.096680 94.451 11.4188
911.655396 94.495 10.9232
918.261597 94.530 10.3970
924.915710 94.553 9.8478
931.618042 94.565 9.2890
938.368896 94.565 8.7327
945.168762 94.554 8.1900
952.017822 94.532 7.6722
958.916504 94.500 7.1908
965.865234 94.459 6.7594
972.864319 94.412 6.3823
979.914062 94.361 6.0706
987.014954 94.308 5.8168
994.167236 94.258 5.6214
1001.371399 94.211 5.4715
1008.627747 94.170 5.3588
1015.936646 94.134 5.2693
1023.298584 94.106 5.1911
1030.713867 94.085 5.1093
1038.182739 94.070 5.0079
1045.705933 94.059 4.8786
1053.283447 94.051 4.7080
1060.916016 94.042 4.4960
1068.603882 94.031 4.2360
1076.347412 94.015 3.9353
1084.147095 93.992 3.5947
1092.003296 93.959 3.2273
1099.916382 93.915 2.8408
1107.886841 93.859 2.4516
1115.915039 93.790 2.0725
1124.001343 93.707 1.7222
1132.146362 93.611 1.4191
1140.350342 93.502 1.1778
1148.613770 93.383 1.0171
1156.937134 93.256 0.9431
1165.320801 93.124 0.9699
1173.765137 92.991 1.0922
1182.270752 92.858 1.3117
1190.838013 92.730 1.6216
1199.467285 92.606 2.0204
1208.159180 92.490 2.4930
1216.913940 92.387 3.0290
1225.732178 92.294 3.6118
1234.614380 92.213 4.2248
1243.560913 92.142 4.8576
1252.572266 92.082 5.4971
1261.648926 92.031 6.1354
1270.791382 91.989 6.7610
1280.000000 91.952 7.3726
1289.275391 91.919 7.9637
1298.618042 91.889 8.5396
1308.028320 91.859 9.1013
1317.506836 91.829 9.6556
1327.054077 91.798 10.2063
1336.670410 91.765 10.7638
1346.356567 91.730 11.3383
1356.112793 91.694 11.9347
1365.939697 91.659 12.5613
1375.837891 91.624 13.2182
1385.807739 91.592 13.9093
1395.849854 91.563 14.6321
1405.964844 91.540 15.3876
1416.152954 91.522 16.1691
1426.415039 91.512 16.9727
1436.751465 91.508 17.7908
1447.162720 91.512 18.6166
1457.649414 91.523 19.4437
1468.212158 91.542 20.2642
1478.851440 91.566 21.0759
1489.567871 91.595 21.8731
1500.361816 91.627 22.6590
1511.234131 91.661 23.4333
1522.185059 91.698 24.2016
1533.215454 91.736 24.9665
1544.325806 91.776 25.7356
1555.516602 91.816 26.5158
1566.788574 91.859 27.3106
1578.142090 91.907 28.1280
1589.578003 91.961 28.9614
1601.096680 92.023 29.8105
1612.698975 92.094 30.6644
1624.385254 92.176 31.5176
1636.156250 92.270 32.3544
1648.012451 92.375 33.1612
1659.954590 92.490 33.9253
1671.983398 92.612 34.6292
1684.099243 92.740 35.2734
1696.302856 92.871 35.8515
1708.594971 93.001 36.3678
1720.976196 93.131 36.8213
1733.447144 93.258 37.2224
1746.008423 93.380 37.5767
1758.660645 93.497 37.8977
1771.404663 93.607 38.1994
1784.240967 93.713 38.4868
1797.170288 93.816 38.7692
1810.193359 93.918 39.0479
1823.310791 94.016 39.3275
1836.523193 94.113 39.6079
1849.831421 94.209 39.8916
1863.236084 94.306 40.1757
1876.737793 94.402 40.4572
1890.337524 94.497 40.7388
1904.035645 94.589 41.0201
1917.833008 94.680 41.3068
1931.730469 94.769 41.6022
1945.728638 94.856 41.9126
1959.828125 94.940 42.2427
1974.029907 95.024 42.6014
1988.334473 95.106 42.9988
2002.742798 95.190 43.4362
2017.255493 95.278 43.9191
2031.873291 95.373 44.4438
2046.597168 95.473 45.0110
2061.427734 95.583 45.6133
2076.365479 95.706 46.2490
2091.411865 95.841 46.9023
2106.566895 95.992 47.5610
2121.832031 96.156 48.2113
2137.207764 96.337 48.8395
2152.694824 96.531 49.4327
2168.294189 96.740 49.9776
2184.006592 96.961 50.4629
2199.832764 97.194 50.8752
2215.773682 97.436 51.2078
2231.830078 97.685 51.4506
2248.002686 97.940 51.6016
2264.292725 98.199 51.6544
2280.700684 98.460 51.6114
2297.227539 98.720 51.4713
2313.874268 98.978 51.2391
2330.641602 99.233 50.9180
2347.530273 99.485 50.5129
2364.541504 99.732 50.0283
2381.676025 99.973 49.4697
2398.934570 100.208 48.8423
2416.318359 100.436 48.1512
2433.827881 100.657 47.4005
2451.464355 100.870 46.5984
2469.228760 101.074 45.7524
2487.121826 101.270 44.8689
2505.144531 101.458 43.9552
2523.297852 101.639 43.0153
2541.582764 101.813 42.0535
2560.000000 101.980 41.0754
2578.550781 102.141 40.0893
2597.236084 102.297 39.0916
2616.056641 102.452 38.0839
2635.013672 102.603 37.0594
2654.108154 102.752 36.0120
2673.340820 102.896 34.9407
2692.713135 103.037 33.8433
2712.225586 103.173 32.7174
2731.879395 103.306 31.5590
2751.675781 103.432 30.3706
2771.615479 103.551 29.1489
2791.699707 103.660 27.9065
2811.929688 103.757 26.6523
2832.305908 103.846 25.3949
2852.830078 103.926 24.1436
2873.502930 103.998 22.9054
2894.325439 104.061 21.6882
2915.298828 104.119 20.4974
2936.424316 104.171 19.3427
2957.702881 104.220 18.2178
2979.135742 104.270 17.1224
3000.723633 104.320 16.0486
3022.468262 104.370 14.9913
3044.370117 104.422 13.9428
3066.430908 104.476 12.8958
3088.651611 104.531 11.8428
3111.033203 104.587 10.7739
3133.577148 104.643 9.6892
3156.284180 104.696 8.5844
3179.156006 104.747 7.4624
3202.193359 104.795 6.3245
3225.397949 104.841 5.1705
3248.770508 104.883 4.0000
3272.312500 104.922 2.8153
3296.024902 104.956 1.6191
3319.909180 104.986 0.4106
3343.966797 105.012 -0.8094
3368.198486 105.034 -2.0421
3392.605713 105.051 -3.2903
3417.189941 105.063 -4.5492
3441.952393 105.067 -5.8167
3466.894287 105.064 -7.0873
3492.016846 105.054 -8.3565
3517.321289 105.036 -9.6192
3542.809326 105.011 -10.8711
3568.481934 104.977 -12.1043
3594.340576 104.934 -13.3120
3620.386719 104.884 -14.4875
3646.621582 104.828 -15.6227
3673.046387 104.766 -16.7149
3699.662842 104.699 -17.7600
3726.472168 104.628 -18.7545
3753.475586 104.554 -19.6937
3780.675049 104.477 -20.5772
3808.071289 104.401 -21.4010
3835.666016 104.325 -22.1705
3863.460938 104.254 -22.8867
3891.457275 104.186 -23.5579
3919.656250 104.124 -24.1901
3948.059814 104.067 -24.7913
3976.668945 104.018 -25.3685
4005.485596 103.975 -25.9313
4034.510986 103.940 -26.4904
4063.746582 103.910 -27.0493
4093.194336 103.885 -27.6150
4122.855469 103.863 -28.1872
4152.730957 103.845 -28.7688
4182.823730 103.829 -29.3572
4213.133789 103.816 -29.9518
4243.664062 103.805 -30.5502
4274.415527 103.796 -31.1474
4305.389648 103.792 -31.7490
4336.588379 103.794 -32.3553
4368.013184 103.803 -32.9770
4399.665527 103.819 -33.6213
4431.547363 103.842 -34.2996
4463.660156 103.872 -35.0218
4496.005371 103.908 -35.7999
4528.585449 103.950 -36.6463
4561.401367 103.996 -37.5704
4594.455078 104.044 -38.5843
4627.748535 104.091 -39.6924
4661.283203 104.135 -40.9033
4695.060547 104.174 -42.2163
4729.083008 104.205 -43.6355
4763.352051 104.224 -45.1555
4797.869141 104.229 -46.7778
4832.636719 104.216 -48.4862
4867.655762 104.180 -50.2750
4902.928711 104.119 -52.1139
4938.457520 104.030 -53.9823
4974.243652 103.912 -55.8452
5010.289062 103.762 -57.6730
5046.595703 103.582 -59.4284
5083.165527 103.369 -61.0753
5120.000000 103.129 -62.5810
5157.101562 102.863 -63.9061
5194.472168 102.577 -65.0360
5232.113281 102.276 -65.9430
5270.027344 101.966 -66.6271
5308.216309 101.652 -67.0738
5346.681641 101.342 -67.2994
5385.426270 101.044 -67.3066
5424.451172 100.761 -67.1223
5463.758789 100.501 -66.7638
5503.351562 100.265 -66.2628
5543.230957 100.059 -65.6453
5583.399414 99.885 -64.9456
5623.859375 99.744 -64.1967
5664.611816 99.635 -63.4278
5705.660156 99.558 -62.6718
5747.005859 99.509 -61.9496
5788.650879 99.488 -61.2882
5830.597656 99.489 -60.7018
5872.848633 99.510 -60.2118
5915.405762 99.547 -59.8237
5958.271484 99.597 -59.5508
6001.447266 99.656 -59.3905
6044.936523 99.720 -59.3468
6088.740234 99.787 -59.4134
6132.861816 99.855 -59.5884
6177.303223 99.922 -59.8634
6222.066406 99.984 -60.2322
6267.154297 100.042 -60.6855
6312.568359 100.093 -61.2154
6358.312012 100.138 -61.8109
6404.386719 100.174 -62.4623
6450.795898 100.201 -63.1583
6497.541016 100.220 -63.8877
6544.625000 100.230 -64.6402
6592.049805 100.231 -65.4057
6639.818359 100.223 -66.1731
6687.933594 100.208 -66.9301
6736.396973 100.187 -67.6702
6785.211426 100.162 -68.3833
6834.379883 100.134 -69.0676
6883.904785 100.106 -69.7166
6933.788574 100.079 -70.3349
6984.033691 100.058 -70.9206
7034.642578 100.043 -71.4862
7085.618652 100.038 -72.0366
7136.963867 100.045 -72.5922
7188.681152 100.066 -73.1669
7240.773438 100.102 -73.7857
7293.243164 100.153 -74.4679
7346.092773 100.220 -75.2448
7399.325684 100.302 -76.1457
7452.944336 100.395 -77.1963
7506.951172 100.494 -78.4277
7561.350098 100.594 -79.8531
7616.142578 100.691 -81.4968
7671.332031 100.776 -83.3568
7726.921875 100.844 -85.4468
7782.914551 100.887 -87.7447
7839.312500 100.897 -90.2477
7896.119629 100.869 -92.9126
7953.337891 100.798 -95.7101
8010.971191 100.680 -98.5936
8069.021973 100.512 -101.5232
8127.493164 100.293 -104.4486
8186.388672 100.020 -107.3242
8245.710938 99.694 -110.0967
8305.461914 99.313 -112.7151
8365.647461 98.880 -115.1269
8426.267578 98.396 -117.2799
8487.328125 97.864 -119.1212
8548.831055 97.285 -120.6009
8610.779297 96.663 -121.6567
8673.176758 96.001 -122.2269
8736.026367 95.307 -122.2594
8799.331055 94.587 -121.6856
8863.094727 93.860 -120.4920
8927.320312 93.135 -118.6265
8992.010742 92.443 -116.1368
9057.170898 91.803 -113.0083
9122.802734 91.253 -109.3764
9188.910156 90.828 -105.3084
9255.497070 90.548 -100.9957
9322.566406 90.448 -96.5905
9390.121094 90.510 -92.2802
9458.166016 90.743 -88.2579
9526.704102 91.106 -84.6596
9595.738281 91.575 -81.6683
9665.273438 92.112 -79.3344
9735.311523 92.679 -77.7819
9805.857422 93.252 -76.9724
9876.915039 93.799 -76.9402
9948.487305 94.308 -77.5888
10020.578125 94.760 -78.8656
10093.191406 95.153 -80.6700
10166.331055 95.480 -82.9123
10240.000000 95.739 -85.5055
10314.203125 95.925 -88.3604
10388.944336 96.040 -91.3943
10464.226562 96.081 -94.5175
10540.054688 96.052 -97.6614
10616.432617 95.954 -100.7502
10693.363281 95.789 -103.7159
10770.852539 95.560 -106.4884
10848.902344 95.272 -109.0012
10927.517578 94.926 -111.1794
11006.703125 94.534 -112.9784
11086.461914 94.105 -114.3249
11166.798828 93.656 -115.2302
11247.718750 93.201 -115.6579
11329.223633 92.761 -115.6789
11411.320312 92.355 -115.3142
11494.011719 91.998 -114.6790
11577.301758 91.711 -113.8551
11661.195312 91.492 -112.9649
11745.697266 91.353 -112.1310
11830.811523 91.275 -111.4362
11916.542969 91.251 -110.9981
12002.894531 91.258 -110.8341
12089.873047 91.278 -111.0167
12177.480469 91.293 -111.4965
12265.723633 91.283 -112.2750
12354.606445 91.241 -113.2691
12444.132812 91.155 -114.4205
12534.308594 91.027 -115.6552
12625.136719 90.852 -116.8953
12716.624023 90.635 -118.0939
12808.773438 90.379 -119.1847
12901.591797 90.090 -120.1479
12995.082031 89.771 -120.9441
13089.250000 89.429 -121.5663
13184.099609 89.067 -121.9974
13279.636719 88.689 -122.2303
13375.867188 88.298 -122.2593
13472.793945 87.895 -122.0638
13570.422852 87.481 -121.6331
13668.759766 87.058 -120.9311
13767.809570 86.624 -119.9254
13867.577148 86.192 -118.5928
13968.067383 85.763 -116.8944
14069.285156 85.354 -114.8447
14171.237305 84.976 -112.4238
14273.927734 84.646 -109.6952
14377.362305 84.382 -106.6818
14481.546875 84.198 -103.4868
14586.486328 84.111 -100.1851
14692.185547 84.119 -96.8860
14798.651367 84.228 -93.6954
14905.888672 84.422 -90.7026
15013.902344 84.694 -88.0178
15122.700195 85.024 -85.6841
15232.285156 85.393 -83.7851
15342.664062 85.786 -82.3087
15453.843750 86.183 -81.2835
15565.829102 86.577 -80.6712
15678.625000 86.956 -80.4561
15792.239258 87.317 -80.5963
15906.675781 87.655 -81.0576
16021.942383 87.966 -81.8023
16138.043945 88.249 -82.7904
16254.986328 88.503 -83.9944
16372.777344 88.727 -85.3785
16491.421875 88.922 -86.9280
16610.923828 89.087 -88.6230
16731.294922 89.219 -90.4441
16852.535156 89.317 -92.3757
16974.656250 89.378 -94.3856
17097.662109 89.399 -96.4507
17221.558594 89.380 -98.5274
17346.353516 89.318 -100.5811
17472.052734 89.216 -102.5623
17598.662109 89.071 -104.4224
17726.189453 88.890 -106.1237
17854.640625 88.677 -107.6159
17984.021484 88.441 -108.8886
18114.341797 88.188 -109.9079
18245.605469 87.928 -110.6952
18377.820312 87.673 -111.2458
18510.994141 87.427 -111.6044
18645.132812 87.203 -111.7991
18780.242188 86.999 -111.8758
18916.332031 86.822 -111.8786
19053.408203 86.668 -111.8413
19191.476562 86.537 -111.8079
19330.546875 86.423 -111.7910
19470.623047 86.321 -111.8195
19611.714844 86.228 -111.8875
19753.830078 86.138 -112.0019
19896.974609 86.051 -112.1520
