* Measurement data measured by REW V5.20.13
* Source: C:\Users\kurin\Desktop\Targets and Curves\Resolve\Img\Files\Thieaudio Wraith_SPL.txt
* Format: Comma/Tab/Space delimited data
* Dated: Aug 14, 2023 6:42:48 PM
* REW Settings:
*  C-weighting compensation: Off
*  Target level: 75.0 dB
* Note: ; Measurement imported from C:\Users\kurin\Desktop\Targets and Curves\Resolve\Img\Files\Thieaudio Wraith_SPL.txt Format: Comma/Tab/Space delimited data 623 values loaded, 5 Hz to 39,792 Hz log spaced 
* Measurement: Thieaudio Wraith_SPL
* Smoothing: 1/48 octave
* Frequency Step: 1/96 octave
* Start Frequency: 5.000 Hz
*
* Freq(Hz) SPL(dB) Phase(degrees)
5.000000 67.537 76.7720
5.036232 67.562 76.7607
5.072727 67.588 76.7490
5.109486 67.619 76.7363
5.146511 67.655 76.7220
5.183805 67.698 76.7049
5.221369 67.745 76.6870
5.259205 67.793 76.6706
5.297316 67.844 76.6540
5.335702 67.898 76.6360
5.374367 67.954 76.6180
5.413311 68.009 76.6014
5.452538 68.064 76.5850
5.492050 68.119 76.5681
5.531847 68.174 76.5510
5.571934 68.228 76.5340
5.612310 68.283 76.5170
5.652979 68.338 76.5000
5.693943 68.393 76.4830
5.735204 68.448 76.4661
5.776763 68.503 76.4490
5.818624 68.558 76.4316
5.860788 68.613 76.4140
5.903258 68.668 76.3966
5.946035 68.723 76.3790
5.989123 68.777 76.3611
6.032523 68.832 76.3430
6.076237 68.887 76.3251
6.120268 68.942 76.3070
6.164618 68.997 76.2885
6.209289 69.052 76.2700
6.254284 69.107 76.2521
6.299605 69.162 76.2340
6.345255 69.216 76.2151
6.391235 69.271 76.1960
6.437549 69.326 76.1770
6.484198 69.381 76.1580
6.531185 69.436 76.1391
6.578513 69.491 76.1200
6.626183 69.546 76.1006
6.674199 69.601 76.0810
6.722563 69.655 76.0615
6.771278 69.710 76.0420
6.820345 69.765 76.0226
6.869768 69.820 76.0030
6.919549 69.875 75.9826
6.969691 69.930 75.9620
7.020196 69.985 75.9421
7.071068 70.040 75.9220
7.122308 70.095 75.9011
7.173919 70.150 75.8800
7.225904 70.204 75.8590
7.278266 70.259 75.8380
7.331007 70.314 75.8171
7.384131 70.369 75.7960
7.437639 70.424 75.7746
7.491535 70.479 75.7530
7.545822 70.534 75.7316
7.600502 70.589 75.7100
7.655579 70.643 75.6881
7.711054 70.698 75.6660
7.766932 70.753 75.6436
7.823214 70.808 75.6210
7.879904 70.863 75.5985
7.937005 70.918 75.5760
7.994520 70.973 75.5536
8.052452 71.028 75.5310
8.110803 71.082 75.5076
8.169578 71.137 75.4840
8.228777 71.192 75.4605
8.288406 71.247 75.4370
8.348468 71.302 75.4136
8.408964 71.357 75.3900
8.469899 71.412 75.3656
8.531276 71.467 75.3410
8.593097 71.522 75.3165
8.655366 71.577 75.2920
8.718086 71.631 75.2676
8.781260 71.686 75.2430
8.844893 71.741 75.2181
8.908987 71.796 75.1930
8.973545 71.851 75.1676
9.038571 71.906 75.1420
9.104069 71.961 75.1161
9.170040 72.016 75.0900
9.236490 72.070 75.0641
9.303422 72.125 75.0380
9.370838 72.180 75.0116
9.438744 72.235 74.9850
9.507140 72.290 74.9581
9.576033 72.345 74.9310
9.645425 72.400 74.9041
9.715320 72.455 74.8770
9.785721 72.509 74.8496
9.856632 72.564 74.8220
9.928058 72.619 74.7941
10.000000 72.674 74.7660
10.072464 72.729 74.7376
10.145453 72.784 74.7090
10.218971 72.839 74.6806
10.293022 72.894 74.6520
10.367610 72.949 74.6231
10.442738 73.004 74.5940
10.518411 73.058 74.5646
10.594631 73.113 74.5350
10.671404 73.168 74.5051
10.748734 73.223 74.4750
10.826623 73.278 74.4451
10.905077 73.333 74.4150
10.984100 73.388 74.3847
11.063695 73.443 74.3540
11.143867 73.497 74.3231
11.224621 73.552 74.2920
11.305959 73.607 74.2606
11.387886 73.662 74.2290
11.470407 73.717 74.1971
11.553527 73.772 74.1650
11.637249 73.827 74.1326
11.721577 73.882 74.1000
11.806517 73.936 74.0676
11.892071 73.991 74.0350
11.978246 74.046 74.0021
12.065045 74.101 73.9690
12.152473 74.156 73.9357
12.240536 74.211 73.9020
12.329235 74.266 73.8676
12.418578 74.321 73.8330
12.508568 74.376 73.7991
12.599211 74.431 73.7650
12.690510 74.485 73.7302
12.782471 74.540 73.6950
12.875097 74.595 73.6597
12.968395 74.650 73.6240
13.062370 74.705 73.5881
13.157025 74.760 73.5520
13.252366 74.815 73.5161
13.348398 74.870 73.4800
13.445127 74.924 73.4432
13.542556 74.979 73.4060
13.640691 75.034 73.3691
13.739536 75.089 73.3320
13.839099 75.144 73.2941
13.939383 75.199 73.2560
14.040393 75.254 73.2181
14.142136 75.309 73.1800
14.244616 75.363 73.1417
14.347837 75.418 73.1030
14.451808 75.473 73.0636
14.556532 75.528 73.0240
14.662014 75.583 72.9846
14.768262 75.638 72.9450
14.875278 75.693 72.9052
14.983070 75.748 72.8650
15.091644 75.802 72.8242
15.201005 75.857 72.7830
15.311157 75.912 72.7416
15.422109 75.967 72.7000
15.533863 76.022 72.6586
15.646428 76.077 72.6170
15.759809 76.132 72.5747
15.874010 76.187 72.5320
15.989040 76.242 72.4892
16.104904 76.297 72.4460
16.221605 76.351 72.4027
16.339155 76.406 72.3591
16.457554 76.461 72.3152
16.576813 76.516 72.2710
16.696936 76.571 72.2267
16.817928 76.626 72.1820
16.939798 76.681 72.1372
17.062551 76.736 72.0921
17.186193 76.790 72.0467
17.310732 76.845 72.0010
17.436172 76.900 71.9547
17.562521 76.955 71.9080
17.689787 77.010 71.8617
17.817974 77.065 71.8151
17.947090 77.120 71.7672
18.077143 77.175 71.7190
18.208138 77.229 71.6712
18.340080 77.284 71.6231
18.472980 77.339 71.5743
18.606844 77.394 71.5250
18.741676 77.449 71.4754
18.877487 77.504 71.4251
19.014280 77.559 71.3739
19.152065 77.614 71.3221
19.290850 77.669 71.2699
19.430639 77.724 71.2170
19.571442 77.779 71.1636
19.713264 77.833 71.1091
19.856115 77.888 71.0529
20.000000 77.942 70.9961
20.144928 77.995 70.9394
20.290907 78.049 70.8821
20.437943 78.104 70.8240
20.586044 78.158 70.7640
20.735220 78.211 70.7001
20.885475 78.264 70.6351
21.036821 78.315 70.5713
21.189262 78.366 70.5091
21.342808 78.416 70.4488
21.497467 78.466 70.3921
21.653246 78.514 70.3389
21.810154 78.561 70.2941
21.968201 78.606 70.2625
22.127390 78.651 70.2440
22.287735 78.697 70.2406
22.449242 78.745 70.2500
22.611917 78.794 70.2721
22.775772 78.845 70.3020
22.940815 78.900 70.3361
23.107054 78.959 70.3700
23.274498 79.019 70.3980
23.443153 79.082 70.4190
23.613033 79.147 70.4306
23.784142 79.213 70.4310
23.956491 79.280 70.4168
24.130091 79.346 70.3910
24.304947 79.411 70.3542
24.481071 79.475 70.3101
24.658470 79.538 70.2624
24.837156 79.601 70.2121
25.017136 79.663 70.1608
25.198421 79.725 70.1091
25.381020 79.787 70.0582
25.564941 79.848 70.0080
25.750195 79.909 69.9589
25.936790 79.971 69.9101
26.124741 80.033 69.8609
26.314051 80.095 69.8121
26.504732 80.157 69.7647
26.696796 80.220 69.7171
26.890253 80.284 69.6678
27.085112 80.349 69.6161
27.281382 80.414 69.5599
27.479073 80.479 69.5011
27.678198 80.544 69.4416
27.878765 80.610 69.3781
28.080786 80.677 69.3073
28.284271 80.745 69.2301
28.489231 80.811 69.1457
28.695675 80.877 69.0561
28.903616 80.944 68.9636
29.113064 81.010 68.8661
29.324028 81.075 68.7615
29.536524 81.140 68.6531
29.750557 81.202 68.5434
29.966141 81.264 68.4341
30.183289 81.325 68.3273
30.402010 81.386 68.2241
30.622314 81.445 68.1262
30.844217 81.505 68.0341
31.067726 81.565 67.9507
31.292856 81.627 67.8711
31.519617 81.690 67.7919
31.748020 81.755 67.7111
31.978081 81.820 67.6257
32.209808 81.886 67.5361
32.443211 81.952 67.4414
32.678310 82.019 67.3431
32.915108 82.084 67.2428
33.153625 82.150 67.1401
33.393871 82.216 67.0352
33.635857 82.283 66.9282
33.879597 82.349 66.8184
34.125103 82.416 66.7081
34.372387 82.482 66.6008
34.621464 82.548 66.4932
34.872345 82.616 66.3841
35.125042 82.686 66.2711
35.379574 82.756 66.1510
35.635948 82.826 66.0252
35.894180 82.896 65.8937
36.154285 82.967 65.7572
36.416275 83.038 65.6160
36.680161 83.109 65.4702
36.945961 83.180 65.3205
37.213688 83.251 65.1652
37.483353 83.323 65.0034
37.754974 83.395 64.8343
38.028561 83.467 64.6561
38.304131 83.539 64.4703
38.581699 83.610 64.2776
38.861279 83.681 64.0783
39.142883 83.751 63.8727
39.426529 83.820 63.6613
39.712231 83.888 63.4436
40.000000 83.956 63.2223
40.289856 84.021 62.9998
40.581814 84.086 62.7773
40.875885 84.150 62.5568
41.172089 84.214 62.3383
41.470440 84.278 62.1238
41.770950 84.342 61.9104
42.073643 84.407 61.6965
42.378525 84.473 61.4793
42.685616 84.540 61.2550
42.994934 84.607 61.0243
43.306492 84.673 60.7862
43.620308 84.738 60.5424
43.936401 84.802 60.2932
44.254780 84.866 60.0414
44.575470 84.928 59.7898
44.898483 84.989 59.5384
45.223835 85.051 59.2886
45.551544 85.113 59.0384
45.881630 85.175 58.7851
46.214108 85.237 58.5314
46.548996 85.297 58.2800
46.886307 85.358 58.0284
47.226067 85.421 57.7758
47.568283 85.484 57.5194
47.912983 85.547 57.2546
48.260181 85.610 56.9864
48.609894 85.671 56.7200
48.962143 85.732 56.4514
49.316940 85.796 56.1794
49.674313 85.861 55.9014
50.034271 85.925 55.6136
50.396843 85.988 55.3195
50.762039 86.049 55.0217
51.129883 86.111 54.7195
51.500389 86.174 54.4130
51.873581 86.237 54.1015
52.249481 86.299 53.7835
52.628101 86.360 53.4615
53.009464 86.420 53.1389
53.393593 86.481 52.8126
53.780506 86.543 52.4813
54.170223 86.606 52.1426
54.562763 86.669 51.7933
54.958145 86.732 51.4336
55.356396 86.794 51.0627
55.757530 86.855 50.6806
56.161572 86.916 50.2871
56.568542 86.976 49.8827
56.978462 87.034 49.4671
57.391350 87.090 49.0428
57.807232 87.144 48.6116
58.226128 87.196 48.1748
58.648056 87.246 47.7336
59.073048 87.295 47.2897
59.501114 87.342 46.8449
59.932281 87.387 46.3998
60.366577 87.431 45.9560
60.804020 87.473 45.5128
61.244629 87.514 45.0700
61.688435 87.554 44.6268
62.135452 87.594 44.1822
62.585712 87.632 43.7368
63.039234 87.668 43.2895
63.496040 87.703 42.8438
63.956161 87.736 42.4035
64.419617 87.768 41.9668
64.886421 87.800 41.5325
65.356621 87.831 41.1017
65.830215 87.860 40.6758
66.307251 87.889 40.2538
66.787743 87.919 39.8375
67.271713 87.949 39.4208
67.759193 87.981 38.9976
68.250206 88.012 38.5688
68.744774 88.041 38.1323
69.242928 88.068 37.6908
69.744690 88.095 37.2463
70.250084 88.120 36.7989
70.759148 88.143 36.3470
71.271896 88.163 35.8978
71.788361 88.179 35.4578
72.308571 88.194 35.0268
72.832550 88.210 34.6075
73.360321 88.225 34.1978
73.891922 88.239 33.7970
74.427376 88.253 33.4037
74.966705 88.268 33.0178
75.509949 88.284 32.6347
76.057121 88.301 32.2501
76.608261 88.319 31.8628
77.163399 88.337 31.4699
77.722557 88.355 31.0718
78.285767 88.372 30.6675
78.853058 88.388 30.2578
79.424461 88.403 29.8422
80.000000 88.416 29.4238
80.579712 88.427 29.0058
81.163628 88.436 28.5888
81.751770 88.444 28.1741
82.344177 88.450 27.7628
82.940880 88.455 27.3561
83.541901 88.458 26.9558
84.147285 88.460 26.5648
84.757050 88.461 26.1817
85.371231 88.462 25.8066
85.989868 88.462 25.4387
86.612984 88.462 25.0776
87.240616 88.462 24.7227
87.872803 88.462 24.3738
88.509560 88.462 24.0297
89.150940 88.462 23.6889
89.796967 88.462 23.3517
90.447670 88.462 23.0182
91.103088 88.462 22.6877
91.763260 88.462 22.3596
92.428215 88.462 22.0337
93.097992 88.462 21.7098
93.772614 88.462 21.3877
94.452133 88.462 21.0666
95.136566 88.462 20.7467
95.825966 88.462 20.4280
96.520363 88.462 20.1097
97.219788 88.462 19.7911
97.924286 88.462 19.4717
98.633881 88.462 19.1512
99.348625 88.462 18.8287
100.068542 88.462 18.5034
100.793686 88.461 18.1748
101.524078 88.460 17.8420
102.259766 88.458 17.5048
103.000778 88.456 17.1618
103.747162 88.452 16.8157
104.498962 88.446 16.4685
105.256203 88.438 16.1217
106.018929 88.429 15.7764
106.787186 88.418 15.4347
107.561012 88.405 15.0980
108.340446 88.390 14.7685
109.125526 88.374 14.4489
109.916290 88.356 14.1386
110.712791 88.338 13.8382
111.515060 88.320 13.5466
112.323143 88.301 13.2622
113.137085 88.282 12.9866
113.956924 88.262 12.7210
114.782700 88.241 12.4646
115.614464 88.221 12.2177
116.452255 88.201 11.9785
117.296112 88.182 11.7451
118.146095 88.163 11.5185
119.002228 88.143 11.2998
119.864563 88.124 11.0866
120.733154 88.107 10.8769
121.608040 88.090 10.6695
122.489258 88.073 10.4618
123.376869 88.056 10.2555
124.270905 88.038 10.0511
125.171425 88.020 9.8494
126.078468 88.002 9.6506
126.992081 87.983 9.4574
127.912323 87.962 9.2721
128.839233 87.940 9.0963
129.772842 87.919 8.9338
130.713242 87.899 8.7813
131.660431 87.880 8.6375
132.614502 87.863 8.5004
133.575485 87.847 8.3686
134.543427 87.832 8.2382
135.518387 87.821 8.1056
136.500412 87.810 7.9693
137.489548 87.799 7.8260
138.485855 87.787 7.6784
139.489380 87.776 7.5275
140.500168 87.764 7.3753
141.518295 87.751 7.2227
142.543793 87.737 7.0734
143.576721 87.722 6.9315
144.617142 87.706 6.7963
145.665100 87.692 6.6700
146.720642 87.679 6.5483
147.783844 87.667 6.4284
148.854752 87.657 6.3083
149.933411 87.648 6.1856
151.019897 87.639 6.0593
152.114243 87.631 5.9270
153.216522 87.622 5.7904
154.326797 87.613 5.6501
155.445114 87.603 5.5073
156.571533 87.593 5.3629
157.706116 87.583 5.2183
158.848923 87.571 5.0747
160.000000 87.558 4.9343
161.159424 87.545 4.8009
162.327255 87.532 4.6713
163.503540 87.520 4.5437
164.688354 87.509 4.4173
165.881760 87.498 4.2897
167.083801 87.486 4.1633
168.294571 87.473 4.0403
169.514099 87.461 3.9193
170.742462 87.450 3.8006
171.979736 87.439 3.6823
173.225967 87.429 3.5630
174.481232 87.419 3.4423
175.745605 87.409 3.3190
177.019119 87.399 3.1943
178.301880 87.389 3.0693
179.593933 87.378 2.9433
180.895340 87.368 2.8168
182.206177 87.358 2.6883
183.526520 87.349 2.5570
184.856430 87.339 2.4223
186.195984 87.329 2.2829
187.545227 87.318 2.1403
188.904266 87.306 1.9955
190.273132 87.294 1.8484
191.651932 87.281 1.6990
193.040726 87.267 1.5484
194.439575 87.251 1.3956
195.848572 87.234 1.2464
197.267761 87.214 1.1062
198.697250 87.192 0.9763
200.137085 87.170 0.8616
201.587372 87.149 0.7572
203.048157 87.130 0.6609
204.519531 87.112 0.5703
206.001556 87.094 0.4829
207.494324 87.078 0.3962
208.997925 87.064 0.3072
210.512405 87.050 0.2142
212.037857 87.037 0.1146
213.574371 87.023 0.0093
215.122025 87.009 -0.1033
216.680893 86.993 -0.2187
218.251053 86.976 -0.3336
219.832581 86.958 -0.4467
221.425583 86.939 -0.5554
223.030121 86.920 -0.6597
224.646286 86.900 -0.7586
226.274170 86.880 -0.8528
227.913849 86.860 -0.9423
229.565399 86.841 -1.0278
231.228928 86.823 -1.1089
232.904510 86.805 -1.1888
234.592224 86.788 -1.2696
236.292191 86.772 -1.3538
238.004456 86.757 -1.4442
239.729126 86.742 -1.5407
241.466309 86.727 -1.6446
243.216080 86.711 -1.7547
244.978516 86.695 -1.8704
246.753738 86.678 -1.9916
248.541809 86.660 -2.1176
250.342850 86.642 -2.2496
252.156937 86.623 -2.3884
253.984161 86.603 -2.5346
255.824646 86.581 -2.6893
257.678467 86.558 -2.8516
259.545685 86.533 -3.0209
261.426483 86.505 -3.1966
263.320862 86.475 -3.3789
265.229004 86.440 -3.5635
267.150970 86.400 -3.7479
269.086853 86.356 -3.9255
271.036774 86.308 -4.0902
273.000824 86.255 -4.2386
274.979095 86.198 -4.3665
276.971710 86.138 -4.4707
278.978760 86.075 -4.5471
281.000336 86.008 -4.5939
283.036591 85.940 -4.6076
285.087585 85.870 -4.5891
287.153442 85.800 -4.5382
289.234283 85.730 -4.4543
291.330200 85.660 -4.3376
293.441284 85.590 -4.1855
295.567688 85.520 -3.9947
297.709503 85.451 -3.7667
299.866821 85.387 -3.4996
302.039795 85.326 -3.1999
304.228485 85.270 -2.8724
306.433044 85.219 -2.5200
308.653595 85.172 -2.1459
310.890228 85.131 -1.7551
313.143066 85.097 -1.3507
315.412231 85.069 -0.9422
317.697845 85.049 -0.5395
320.000000 85.034 -0.1442
322.318848 85.022 0.2385
324.654510 85.013 0.6098
327.007080 85.007 0.9691
329.376709 85.004 1.3169
331.763519 85.003 1.6531
334.167603 85.003 1.9800
336.589142 85.004 2.3000
339.028198 85.006 2.6131
341.484924 85.011 2.9206
343.959473 85.018 3.2202
346.451935 85.026 3.5094
348.962463 85.035 3.7902
351.491211 85.045 4.0642
354.038239 85.056 4.3302
356.603760 85.069 4.5886
359.187866 85.083 4.8373
361.790680 85.097 5.0723
364.412354 85.111 5.2994
367.053040 85.123 5.5225
369.712860 85.136 5.7423
372.391968 85.150 5.9615
375.090454 85.165 6.1774
377.808533 85.180 6.3864
380.546265 85.194 6.5944
383.303864 85.206 6.8060
386.081451 85.219 7.0214
388.879150 85.233 7.2429
391.697144 85.249 7.4683
394.535522 85.265 7.6949
397.394501 85.283 7.9263
400.274170 85.301 8.1663
403.174744 85.321 8.4112
406.096313 85.345 8.6600
409.039062 85.372 8.9092
412.003113 85.401 9.1550
414.988647 85.434 9.3972
417.995850 85.469 9.6357
421.024811 85.508 9.8663
424.075714 85.551 10.0861
427.148743 85.599 10.2914
430.244049 85.649 10.4786
433.361786 85.703 10.6435
436.502106 85.760 10.7825
439.665161 85.821 10.8897
442.851166 85.884 10.9576
446.060242 85.949 10.9870
449.292572 86.011 10.9752
452.548340 86.072 10.9252
455.827698 86.132 10.8371
459.130798 86.188 10.7164
462.457855 86.238 10.5656
465.809021 86.283 10.3946
469.184448 86.323 10.2131
472.584381 86.359 10.0236
476.008911 86.392 9.8318
479.458252 86.422 9.6376
482.932617 86.449 9.4436
486.432159 86.474 9.2476
489.957031 86.499 9.0507
493.507477 86.523 8.8466
497.083618 86.547 8.6291
500.685699 86.569 8.3988
504.313873 86.588 8.1553
507.968323 86.605 7.8959
511.649292 86.622 7.6184
515.356934 86.636 7.3210
519.091370 86.645 6.9990
522.852966 86.648 6.6591
526.641724 86.644 6.3058
530.458008 86.633 5.9422
534.301941 86.616 5.5716
538.173706 86.591 5.1993
542.073547 86.557 4.8271
546.001648 86.512 4.4682
549.958191 86.456 4.1321
553.943420 86.389 3.8309
557.957520 86.313 3.5771
562.000671 86.227 3.3796
566.073181 86.132 3.2472
570.175171 86.029 3.1920
574.306885 85.919 3.2256
578.468567 85.802 3.3584
582.660400 85.682 3.6048
586.882568 85.562 3.9645
591.135376 85.446 4.4448
595.419006 85.336 5.0378
599.733643 85.236 5.7432
604.079590 85.149 6.5460
608.456970 85.079 7.4385
612.866089 85.027 8.3987
617.307190 84.996 9.4093
621.780457 84.987 10.4485
626.286133 85.001 11.4961
630.824463 85.037 12.5296
635.395691 85.093 13.5234
640.000000 85.167 14.4679
644.637695 85.254 15.3461
649.309021 85.354 16.1553
654.014160 85.464 16.8883
658.753418 85.584 17.5409
663.527039 85.708 18.1050
668.335205 85.837 18.5855
673.178284 85.966 18.9820
678.056396 86.095 19.3030
682.969849 86.220 19.5538
687.918945 86.343 19.7444
692.903870 86.460 19.8838
697.924927 86.574 19.9807
702.982422 86.682 20.0441
708.076477 86.787 20.0829
713.207520 86.886 20.1081
718.375732 86.984 20.1220
723.581360 87.080 20.1328
728.824707 87.178 20.1340
734.106079 87.277 20.1231
739.425720 87.378 20.0961
744.783936 87.479 20.0494
750.180908 87.582 19.9793
755.617065 87.685 19.8815
761.092529 87.790 19.7545
766.607727 87.894 19.5930
772.162903 87.997 19.4037
777.758301 88.095 19.1913
783.394287 88.193 18.9569
789.071045 88.291 18.7036
794.789001 88.389 18.4300
800.548340 88.485 18.1359
806.349487 88.581 17.8212
812.192627 88.677 17.4878
818.078125 88.774 17.1294
824.006226 88.873 16.7427
829.977295 88.973 16.3196
835.991699 89.074 15.8522
842.049622 89.176 15.3360
848.151428 89.276 14.7657
854.297485 89.375 14.1364
860.488098 89.471 13.4426
866.723572 89.563 12.6819
873.004211 89.646 11.8481
879.330322 89.721 10.9473
885.702332 89.784 9.9795
892.120483 89.833 8.9577
898.585144 89.865 7.8880
905.096680 89.878 6.7921
911.655396 89.870 5.6848
918.261597 89.840 4.5930
924.915710 89.788 3.5406
931.618042 89.715 2.5514
938.368896 89.623 1.6499
945.168762 89.513 0.8577
952.017822 89.387 0.2024
958.916504 89.250 -0.3083
965.865234 89.108 -0.6543
972.864319 88.967 -0.8456
979.914062 88.829 -0.8795
987.014954 88.701 -0.7746
994.167236 88.589 -0.5372
1001.371399 88.494 -0.2013
1008.627747 88.425 0.2063
1015.936646 88.377 0.6570
1023.298584 88.351 1.1191
1030.713867 88.345 1.5746
1038.182739 88.357 1.9995
1045.705933 88.386 2.3805
1053.283447 88.429 2.6961
1060.916016 88.482 2.9461
1068.603882 88.539 3.1213
1076.347412 88.601 3.2277
1084.147095 88.665 3.2666
1092.003296 88.730 3.2432
1099.916382 88.792 3.1601
1107.886841 88.853 3.0267
1115.915039 88.910 2.8519
1124.001343 88.964 2.6389
1132.146362 89.016 2.3930
1140.350342 89.065 2.1161
1148.613770 89.109 1.8100
1156.937134 89.150 1.4804
1165.320801 89.186 1.1336
1173.765137 89.219 0.7696
1182.270752 89.250 0.3911
1190.838013 89.277 -0.0034
1199.467285 89.301 -0.4163
1208.159180 89.320 -0.8423
1216.913940 89.333 -1.2778
1225.732178 89.341 -1.7194
1234.614380 89.345 -2.1654
1243.560913 89.342 -2.6074
1252.572266 89.331 -3.0398
1261.648926 89.314 -3.4524
1270.791382 89.291 -3.8327
1280.000000 89.265 -4.1807
1289.275391 89.237 -4.4928
1298.618042 89.207 -4.7669
1308.028320 89.175 -4.9988
1317.506836 89.144 -5.1913
1327.054077 89.117 -5.3419
1336.670410 89.095 -5.4626
1346.356567 89.079 -5.5613
1356.112793 89.070 -5.6467
1365.939697 89.067 -5.7272
1375.837891 89.070 -5.8116
1385.807739 89.080 -5.9084
1395.849854 89.097 -6.0265
1405.964844 89.119 -6.1749
1416.152954 89.145 -6.3612
1426.415039 89.175 -6.5957
1436.751465 89.206 -6.8788
1447.162720 89.235 -7.2164
1457.649414 89.261 -7.6033
1468.212158 89.283 -8.0388
1478.851440 89.299 -8.5151
1489.567871 89.307 -9.0290
1500.361816 89.306 -9.5659
1511.234131 89.294 -10.1122
1522.185059 89.273 -10.6615
1533.215454 89.246 -11.2031
1544.325806 89.211 -11.7367
1555.516602 89.169 -12.2597
1566.788574 89.120 -12.7679
1578.142090 89.064 -13.2585
1589.578003 89.000 -13.7241
1601.096680 88.928 -14.1596
1612.698975 88.848 -14.5554
1624.385254 88.761 -14.9037
1636.156250 88.666 -15.1939
1648.012451 88.565 -15.4141
1659.954590 88.459 -15.5596
1671.983398 88.351 -15.6213
1684.099243 88.243 -15.6013
1696.302856 88.139 -15.4948
1708.594971 88.039 -15.3130
1720.976196 87.949 -15.0602
1733.447144 87.868 -14.7524
1746.008423 87.799 -14.4042
1758.660645 87.740 -14.0246
1771.404663 87.691 -13.6250
1784.240967 87.651 -13.2127
1797.170288 87.622 -12.7974
1810.193359 87.602 -12.3836
1823.310791 87.589 -11.9781
1836.523193 87.584 -11.5845
1849.831421 87.587 -11.2074
1863.236084 87.596 -10.8515
1876.737793 87.611 -10.5237
1890.337524 87.630 -10.2232
1904.035645 87.652 -9.9513
1917.833008 87.676 -9.7089
1931.730469 87.704 -9.4982
1945.728638 87.732 -9.3177
1959.828125 87.759 -9.1711
1974.029907 87.784 -9.0445
1988.334473 87.802 -8.9275
2002.742798 87.818 -8.8125
2017.255493 87.833 -8.6891
2031.873291 87.847 -8.5546
2046.597168 87.857 -8.4049
2061.427734 87.867 -8.2328
2076.365479 87.877 -8.0300
2091.411865 87.889 -7.7960
2106.566895 87.904 -7.5271
2121.832031 87.924 -7.2253
2137.207764 87.949 -6.8916
2152.694824 87.982 -6.5265
2168.294189 88.022 -6.1290
2184.006592 88.074 -5.7050
2199.832764 88.139 -5.2534
2215.773682 88.221 -4.7939
2231.830078 88.322 -4.3370
2248.002686 88.445 -3.9087
2264.292725 88.591 -3.5256
2280.700684 88.761 -3.2271
2297.227539 88.960 -3.0435
2313.874268 89.179 -3.0187
2330.641602 89.417 -3.1998
2347.530273 89.663 -3.6077
2364.541504 89.910 -4.2796
2381.676025 90.149 -5.2131
2398.934570 90.371 -6.4280
2416.318359 90.566 -7.8959
2433.827881 90.726 -9.6160
2451.464355 90.843 -11.5247
2469.228760 90.905 -13.5823
2487.121826 90.915 -15.7148
2505.144531 90.869 -17.8622
2523.297852 90.767 -19.9428
2541.582764 90.602 -21.8835
2560.000000 90.382 -23.5970
2578.550781 90.106 -24.9855
2597.236084 89.791 -26.0072
2616.056641 89.445 -26.5828
2635.013672 89.087 -26.7273
2654.108154 88.728 -26.4131
2673.340820 88.386 -25.6910
2692.713135 88.077 -24.5710
2712.225586 87.818 -23.1483
2731.879395 87.634 -21.4862
2751.675781 87.521 -19.6915
2771.615479 87.486 -17.8688
2791.699707 87.517 -16.0887
2811.929688 87.613 -14.4479
2832.305908 87.756 -12.9725
2852.830078 87.933 -11.7223
2873.502930 88.134 -10.6920
2894.325439 88.349 -9.9029
2915.298828 88.571 -9.3331
2936.424316 88.791 -8.9783
2957.702881 89.006 -8.8074
2979.135742 89.211 -8.7953
3000.723633 89.406 -8.9182
3022.468262 89.593 -9.1471
3044.370117 89.770 -9.4723
3066.430908 89.940 -9.8774
3088.651611 90.101 -10.3537
3111.033203 90.254 -10.8882
3133.577148 90.398 -11.4781
3156.284180 90.538 -12.1156
3179.156006 90.670 -12.8026
3202.193359 90.797 -13.5399
3225.397949 90.915 -14.3232
3248.770508 91.025 -15.1513
3272.312500 91.126 -16.0151
3296.024902 91.215 -16.9079
3319.909180 91.295 -17.8197
3343.966797 91.363 -18.7419
3368.198486 91.422 -19.6636
3392.605713 91.469 -20.5742
3417.189941 91.508 -21.4649
3441.952393 91.539 -22.3245
3466.894287 91.565 -23.1504
3492.016846 91.586 -23.9354
3517.321289 91.605 -24.6816
3542.809326 91.624 -25.3877
3568.481934 91.643 -26.0570
3594.340576 91.663 -26.6897
3620.386719 91.687 -27.2942
3646.621582 91.717 -27.8760
3673.046387 91.752 -28.4443
3699.662842 91.793 -29.0082
3726.472168 91.841 -29.5734
3753.475586 91.894 -30.1448
3780.675049 91.955 -30.7333
3808.071289 92.023 -31.3486
3835.666016 92.097 -31.9988
3863.460938 92.176 -32.6934
3891.457275 92.260 -33.4383
3919.656250 92.348 -34.2410
3948.059814 92.438 -35.1059
3976.668945 92.528 -36.0403
4005.485596 92.617 -37.0419
4034.510986 92.703 -38.1119
4063.746582 92.786 -39.2474
4093.194336 92.863 -40.4488
4122.855469 92.933 -41.7077
4152.730957 92.994 -43.0184
4182.823730 93.047 -44.3735
4213.133789 93.092 -45.7665
4243.664062 93.128 -47.1902
4274.415527 93.153 -48.6381
4305.389648 93.169 -50.0998
4336.588379 93.176 -51.5634
4368.013184 93.175 -53.0270
4399.665527 93.169 -54.4853
4431.547363 93.158 -55.9369
4463.660156 93.141 -57.3785
4496.005371 93.120 -58.8118
4528.585449 93.099 -60.2332
4561.401367 93.080 -61.6562
4594.455078 93.064 -63.0875
4627.748535 93.052 -64.5438
4661.283203 93.045 -66.0358
4695.060547 93.043 -67.5882
4729.083008 93.048 -69.2211
4763.352051 93.056 -70.9594
4797.869141 93.067 -72.8299
4832.636719 93.074 -74.8485
4867.655762 93.073 -77.0412
4902.928711 93.058 -79.4050
4938.457520 93.022 -81.9524
4974.243652 92.958 -84.6618
5010.289062 92.861 -87.5284
5046.595703 92.725 -90.5138
5083.165527 92.543 -93.5960
5120.000000 92.311 -96.7207
5157.101562 92.024 -99.8527
5194.472168 91.679 -102.9113
5232.113281 91.269 -105.8303
5270.027344 90.799 -108.5301
5308.216309 90.268 -110.9322
5346.681641 89.681 -112.9671
5385.426270 89.037 -114.5574
5424.451172 88.345 -115.6490
5463.758789 87.609 -116.1573
5503.351562 86.850 -116.0957
5543.230957 86.085 -115.4297
5583.399414 85.334 -114.2192
5623.859375 84.611 -112.4848
5664.611816 83.937 -110.3116
5705.660156 83.332 -107.7579
5747.005859 82.805 -104.9261
5788.650879 82.377 -101.9143
5830.597656 82.037 -98.7982
5872.848633 81.782 -95.6690
5915.405762 81.607 -92.5787
5958.271484 81.509 -89.5992
6001.447266 81.476 -86.7612
6044.936523 81.494 -84.1161
6088.740234 81.558 -81.6737
6132.861816 81.658 -79.4584
6177.303223 81.788 -77.4763
6222.066406 81.940 -75.7450
6267.154297 82.107 -74.2559
6312.568359 82.281 -73.0125
6358.312012 82.457 -71.9956
6404.386719 82.630 -71.1949
6450.795898 82.797 -70.5857
6497.541016 82.952 -70.1500
6544.625000 83.095 -69.8572
6592.049805 83.223 -69.6795
6639.818359 83.336 -69.5893
6687.933594 83.436 -69.5543
6736.396973 83.525 -69.5599
6785.211426 83.605 -69.5821
6834.379883 83.681 -69.6168
6883.904785 83.752 -69.6500
6933.788574 83.825 -69.6878
6984.033691 83.901 -69.7253
7034.642578 83.985 -69.7816
7085.618652 84.078 -69.8672
7136.963867 84.180 -70.0042
7188.681152 84.294 -70.2119
7240.773438 84.415 -70.5093
7293.243164 84.546 -70.9150
7346.092773 84.681 -71.4480
7399.325684 84.821 -72.1299
7452.944336 84.959 -72.9704
7506.951172 85.092 -73.9866
7561.350098 85.214 -75.1764
7616.142578 85.322 -76.5477
7671.332031 85.411 -78.0876
7726.921875 85.473 -79.7941
7782.914551 85.506 -81.6421
7839.312500 85.505 -83.6214
7896.119629 85.464 -85.6869
7953.337891 85.378 -87.8099
8010.971191 85.244 -89.9309
8069.021973 85.060 -92.0039
8127.493164 84.826 -93.9591
8186.388672 84.539 -95.7366
8245.710938 84.203 -97.2598
8305.461914 83.815 -98.4483
8365.647461 83.389 -99.2529
8426.267578 82.932 -99.5948
8487.328125 82.460 -99.4818
8548.831055 81.990 -98.8726
8610.779297 81.541 -97.8375
8673.176758 81.134 -96.3972
8736.026367 80.783 -94.6610
8799.331055 80.509 -92.7094
8863.094727 80.311 -90.6510
8927.320312 80.196 -88.5971
8992.010742 80.150 -86.6201
9057.170898 80.166 -84.8288
9122.802734 80.222 -83.2239
9188.910156 80.296 -81.8582
9255.497070 80.383 -80.6829
9322.566406 80.467 -79.6865
9390.121094 80.548 -78.8094
9458.166016 80.615 -78.0020
9526.704102 80.679 -77.2211
9595.738281 80.740 -76.4056
9665.273438 80.812 -75.5606
9735.311523 80.903 -74.6550
9805.857422 81.022 -73.7380
9876.915039 81.180 -72.8259
9948.487305 81.375 -71.9863
10020.578125 81.614 -71.2732
10093.191406 81.885 -70.7443
10166.331055 82.186 -70.4664
10240.000000 82.502 -70.4652
10314.203125 82.823 -70.7948
10388.944336 83.137 -71.4362
10464.226562 83.428 -72.4073
10540.054688 83.692 -73.6499
10616.432617 83.916 -75.1352
10693.363281 84.102 -76.7927
10770.852539 84.244 -78.5611
10848.902344 84.348 -80.3841
10927.517578 84.414 -82.1931
11006.703125 84.450 -83.9646
11086.461914 84.462 -85.6501
11166.798828 84.457 -87.2553
11247.718750 84.441 -88.7630
11329.223633 84.419 -90.1938
11411.320312 84.398 -91.5539
11494.011719 84.377 -92.8699
11577.301758 84.361 -94.1650
11661.195312 84.346 -95.4568
11745.697266 84.333 -96.7691
11830.811523 84.319 -98.1067
11916.542969 84.302 -99.4825
12002.894531 84.280 -100.8960
12089.873047 84.252 -102.3521
12177.480469 84.215 -103.8474
12265.723633 84.169 -105.3831
12354.606445 84.110 -106.9504
12444.132812 84.037 -108.5469
12534.308594 83.949 -110.1553
12625.136719 83.842 -111.7641
12716.624023 83.717 -113.3537
12808.773438 83.573 -114.9066
12901.591797 83.410 -116.4047
12995.082031 83.229 -117.8316
13089.250000 83.030 -119.1646
13184.099609 82.814 -120.3804
13279.636719 82.583 -121.4638
13375.867188 82.341 -122.3942
13472.793945 82.092 -123.1641
13570.422852 81.840 -123.7585
13668.759766 81.589 -124.1790
13767.809570 81.345 -124.4178
13867.577148 81.113 -124.4881
13968.067383 80.898 -124.3907
14069.285156 80.706 -124.1547
14171.237305 80.546 -123.7924
14273.927734 80.423 -123.3544
14377.362305 80.343 -122.8773
14481.546875 80.306 -122.4162
14586.486328 80.315 -122.0222
14692.185547 80.365 -121.7442
14798.651367 80.454 -121.6352
14905.888672 80.573 -121.7347
15013.902344 80.719 -122.0962
15122.700195 80.878 -122.7306
15232.285156 81.039 -123.6709
15342.664062 81.195 -124.9026
15453.843750 81.337 -126.4326
15565.829102 81.458 -128.2306
15678.625000 81.550 -130.2839
15792.239258 81.607 -132.5453
15906.675781 81.624 -134.9792
16021.942383 81.599 -137.5369
16138.043945 81.531 -140.1711
16254.986328 81.420 -142.8414
16372.777344 81.266 -145.5019
16491.421875 81.072 -148.1226
16610.923828 80.839 -150.6652
16731.294922 80.571 -153.1101
16852.535156 80.268 -155.4290
16974.656250 79.936 -157.6092
17097.662109 79.577 -159.6309
17221.558594 79.193 -161.4863
17346.353516 78.789 -163.1673
17472.052734 78.365 -164.6556
17598.662109 77.919 -165.9357
17726.189453 77.457 -166.9906
17854.640625 76.982 -167.8006
17984.021484 76.499 -168.3576
18114.341797 76.010 -168.6442
18245.605469 75.523 -168.6686
18377.820312 75.043 -168.4216
18510.994141 74.581 -167.9384
18645.132812 74.145 -167.2354
18780.242188 73.741 -166.3601
18916.332031 73.374 -165.3486
19053.408203 73.047 -164.2534
19191.476562 72.767 -163.1251
19330.546875 72.527 -162.0050
19470.623047 72.325 -160.9474
19611.714844 72.153 -159.9633
19753.830078 72.003 -159.0828
19896.974609 71.872 -158.3024
