* Measurement data measured by REW V5.20.13
* Source: C:\Users\kurin\Desktop\Targets and Curves\Resolve\Img\Files\Final UX3000_SPL.txt
* Format: Comma/Tab/Space delimited data
* Dated: Aug 14, 2023 3:35:53 PM
* REW Settings:
*  C-weighting compensation: Off
*  Target level: 75.0 dB
* Note: ; Measurement imported from C:\Users\kurin\Desktop\Targets and Curves\Resolve\Img\Files\Final UX3000_SPL.txt Format: Comma/Tab/Space delimited data 623 values loaded, 5 Hz to 39,792 Hz log spaced 
* Measurement: Final UX3000_SPL
* Smoothing: 1/48 octave
* Frequency Step: 1/96 octave
* Start Frequency: 5.000 Hz
*
* Freq(Hz) SPL(dB) Phase(degrees)
5.000000 71.966 108.9790
5.036232 72.003 108.9467
5.072727 72.043 108.9120
5.109486 72.089 108.8718
5.146511 72.143 108.8260
5.183805 72.206 108.7719
5.221369 72.276 108.7140
5.259205 72.348 108.6565
5.297316 72.424 108.5970
5.335702 72.505 108.5336
5.374367 72.587 108.4690
5.413311 72.668 108.4055
5.452538 72.750 108.3420
5.492050 72.832 108.2782
5.531847 72.913 108.2140
5.571934 72.994 108.1492
5.612310 73.075 108.0840
5.652979 73.156 108.0187
5.693943 73.238 107.9530
5.735204 73.319 107.8867
5.776763 73.401 107.8200
5.818624 73.482 107.7527
5.860788 73.564 107.6850
5.903258 73.645 107.6173
5.946035 73.727 107.5490
5.989123 73.808 107.4798
6.032523 73.890 107.4100
6.076237 73.971 107.3402
6.120268 74.053 107.2700
6.164618 74.134 107.1993
6.209289 74.216 107.1280
6.254284 74.297 107.0558
6.299605 74.379 106.9830
6.345255 74.461 106.9102
6.391235 74.542 106.8370
6.437549 74.623 106.7633
6.484198 74.704 106.6890
6.531185 74.785 106.6138
6.578513 74.867 106.5380
6.626183 74.948 106.4623
6.674199 75.030 106.3860
6.722563 75.111 106.3088
6.771278 75.193 106.2310
6.820345 75.274 106.1528
6.869768 75.356 106.0740
6.919549 75.437 105.9948
6.969691 75.519 105.9150
7.020196 75.600 105.8348
7.071068 75.682 105.7540
7.122308 75.763 105.6724
7.173919 75.845 105.5900
7.225904 75.926 105.5068
7.278266 76.008 105.4230
7.331007 76.090 105.3393
7.384131 76.171 105.2550
7.437639 76.252 105.1699
7.491535 76.333 105.0840
7.545822 76.414 104.9973
7.600502 76.496 104.9100
7.655579 76.577 104.8223
7.711054 76.659 104.7340
7.766932 76.740 104.6448
7.823214 76.822 104.5550
7.879904 76.903 104.4648
7.937005 76.985 104.3740
7.994520 77.066 104.2824
8.052452 77.148 104.1900
8.110803 77.229 104.0968
8.169578 77.311 104.0030
8.228777 77.392 103.9089
8.288406 77.474 103.8140
8.348468 77.555 103.7179
8.408964 77.637 103.6210
8.469899 77.719 103.5238
8.531276 77.800 103.4260
8.593097 77.881 103.3274
8.655366 77.962 103.2280
8.718086 78.043 103.1280
8.781260 78.125 103.0270
8.844893 78.206 102.9249
8.908987 78.288 102.8220
8.973545 78.369 102.7189
9.038571 78.451 102.6150
9.104069 78.532 102.5105
9.170040 78.614 102.4050
9.236490 78.695 102.2985
9.303422 78.777 102.1910
9.370838 78.858 102.0829
9.438744 78.940 101.9740
9.507140 79.021 101.8644
9.576033 79.103 101.7540
9.645425 79.184 101.6430
9.715320 79.266 101.5311
9.785721 79.348 101.4180
9.856632 79.429 101.3041
9.928058 79.510 101.1895
10.000000 79.591 101.0741
10.072464 79.672 100.9575
10.145453 79.754 100.8401
10.218971 79.835 100.7220
10.293022 79.917 100.6030
10.367610 79.998 100.4830
10.442738 80.080 100.3620
10.518411 80.161 100.2400
10.594631 80.243 100.1170
10.671404 80.324 99.9929
10.748734 80.406 99.8680
10.826623 80.487 99.7426
10.905077 80.569 99.6161
10.984100 80.650 99.4881
11.063695 80.732 99.3591
11.143867 80.813 99.2295
11.224621 80.895 99.0990
11.305959 80.977 98.9676
11.387886 81.058 98.8351
11.470407 81.139 98.7011
11.553527 81.220 98.5660
11.637249 81.301 98.4301
11.721577 81.383 98.2931
11.806517 81.464 98.1552
11.892071 81.546 98.0161
11.978246 81.627 97.8756
12.065045 81.709 97.7340
12.152473 81.790 97.5916
12.240536 81.872 97.4480
12.329235 81.953 97.3031
12.418578 82.035 97.1571
12.508568 82.116 97.0102
12.599211 82.198 96.8621
12.690510 82.279 96.7127
12.782471 82.361 96.5621
12.875097 82.442 96.4103
12.968395 82.524 96.2571
13.062370 82.606 96.1027
13.157025 82.687 95.9471
13.252366 82.768 95.7902
13.348398 82.849 95.6321
13.445127 82.930 95.4728
13.542556 83.012 95.3122
13.640691 83.093 95.1503
13.739536 83.175 94.9871
13.839099 83.256 94.8223
13.939383 83.338 94.6561
14.040393 83.419 94.4887
14.142136 83.501 94.3201
14.244616 83.582 94.1503
14.347837 83.664 93.9791
14.451808 83.745 93.8058
14.556532 83.827 93.6311
14.662014 83.908 93.4554
14.768262 83.990 93.2782
14.875278 84.071 93.0990
14.983070 84.153 92.9182
15.091644 84.234 92.7360
15.201005 84.316 92.5521
15.311157 84.397 92.3664
15.422109 84.478 92.1791
15.533863 84.559 91.9909
15.646428 84.641 91.8011
15.759809 84.722 91.6090
15.874010 84.804 91.4151
15.989040 84.885 91.2200
16.104904 84.967 91.0232
16.221605 85.048 90.8246
16.339155 85.130 90.6242
16.457554 85.211 90.4221
16.576813 85.293 90.2182
16.696936 85.374 90.0126
16.817928 85.456 89.8051
16.939798 85.537 89.5956
17.062551 85.619 89.3843
17.186193 85.700 89.1711
17.310732 85.782 88.9561
17.436172 85.863 88.7396
17.562521 85.944 88.5212
17.689787 86.025 88.3007
17.817974 86.107 88.0782
17.947090 86.188 87.8537
18.077143 86.270 87.6271
18.208138 86.351 87.3987
18.340080 86.433 87.1682
18.472980 86.514 86.9356
18.606844 86.596 86.7011
18.741676 86.677 86.4654
18.877487 86.759 86.2282
19.014280 86.840 85.9895
19.152065 86.922 85.7493
19.290850 87.004 85.5079
19.430639 87.086 85.2652
19.571442 87.168 85.0215
19.713264 87.251 84.7753
19.856115 87.335 84.5260
20.000000 87.420 84.2713
20.144928 87.506 84.0083
20.290907 87.592 83.7373
20.437943 87.677 83.4573
20.586044 87.762 83.1692
20.735220 87.847 82.8736
20.885475 87.931 82.5704
21.036821 88.014 82.2585
21.189262 88.096 81.9414
21.342808 88.176 81.6215
21.497467 88.256 81.3004
21.653246 88.335 80.9802
21.810154 88.413 80.6614
21.968201 88.490 80.3454
22.127390 88.567 80.0323
22.287735 88.645 79.7240
22.449242 88.723 79.4172
22.611917 88.802 79.1105
22.775772 88.883 78.8014
22.940815 88.965 78.4882
23.107054 89.049 78.1674
23.274498 89.134 77.8355
23.443153 89.219 77.4915
23.613033 89.305 77.1332
23.784142 89.390 76.7603
23.956491 89.475 76.3714
24.130091 89.558 75.9685
24.304947 89.639 75.5520
24.481071 89.719 75.1256
24.658470 89.796 74.6918
24.837156 89.871 74.2536
25.017136 89.943 73.8148
25.198421 90.014 73.3755
25.381020 90.084 72.9368
25.564941 90.153 72.4994
25.750195 90.220 72.0633
25.936790 90.285 71.6305
26.124741 90.349 71.2046
26.314051 90.414 70.7816
26.504732 90.479 70.3592
26.696796 90.545 69.9365
26.890253 90.610 69.5117
27.085112 90.674 69.0855
27.281382 90.738 68.6583
27.479073 90.802 68.2286
27.678198 90.866 67.7947
27.878765 90.929 67.3576
28.080786 90.991 66.9172
28.284271 91.053 66.4746
28.489231 91.114 66.0312
28.695675 91.174 65.5866
28.903616 91.233 65.1408
29.113064 91.292 64.6936
29.324028 91.350 64.2457
29.536524 91.409 63.7955
29.750557 91.468 63.3418
29.966141 91.526 62.8845
30.183289 91.583 62.4229
30.402010 91.639 61.9576
30.622314 91.695 61.4886
30.844217 91.750 61.0166
31.067726 91.803 60.5411
31.292856 91.854 60.0647
31.519617 91.905 59.5903
31.748020 91.955 59.1166
31.978081 92.004 58.6430
32.209808 92.052 58.1706
32.443211 92.099 57.7003
32.678310 92.146 57.2326
32.915108 92.192 56.7695
33.153625 92.238 56.3076
33.393871 92.285 55.8444
33.635857 92.333 55.3787
33.879597 92.380 54.9083
34.125103 92.427 54.4336
34.372387 92.473 53.9547
34.621464 92.518 53.4707
34.872345 92.563 52.9809
35.125042 92.607 52.4856
35.379574 92.650 51.9838
35.635948 92.690 51.4796
35.894180 92.727 50.9760
36.154285 92.762 50.4757
36.416275 92.796 49.9835
36.680161 92.830 49.4968
36.945961 92.864 49.0146
37.213688 92.897 48.5367
37.483353 92.930 48.0630
37.754974 92.962 47.5917
38.028561 92.995 47.1215
38.304131 93.028 46.6506
38.581699 93.061 46.1758
38.861279 93.093 45.6997
39.142883 93.123 45.2243
39.426529 93.153 44.7487
39.712231 93.183 44.2719
40.000000 93.212 43.7957
40.289856 93.239 43.3205
40.581814 93.265 42.8487
40.875885 93.290 42.3845
41.172089 93.316 41.9227
41.470440 93.343 41.4592
41.770950 93.370 40.9948
42.073643 93.395 40.5280
42.378525 93.420 40.0607
42.685616 93.444 39.5949
42.994934 93.468 39.1287
43.306492 93.492 38.6606
43.620308 93.515 38.1917
43.936401 93.536 37.7221
44.254780 93.557 37.2527
44.575470 93.578 36.7851
44.898483 93.598 36.3178
45.223835 93.617 35.8493
45.551544 93.635 35.3807
45.881630 93.652 34.9119
46.214108 93.669 34.4437
46.548996 93.684 33.9761
46.886307 93.698 33.5117
47.226067 93.710 33.0535
47.568283 93.722 32.6007
47.912983 93.734 32.1544
48.260181 93.745 31.7127
48.609894 93.756 31.2740
48.962143 93.767 30.8396
49.316940 93.778 30.4119
49.674313 93.789 29.9867
50.034271 93.801 29.5616
50.396843 93.814 29.1337
50.762039 93.827 28.6978
51.129883 93.840 28.2578
51.500389 93.850 27.8156
51.873581 93.859 27.3718
52.249481 93.868 26.9273
52.628101 93.876 26.4827
53.009464 93.882 26.0378
53.393593 93.887 25.5957
53.780506 93.890 25.1597
54.170223 93.891 24.7297
54.562763 93.892 24.3068
54.958145 93.893 23.8907
55.356396 93.893 23.4815
55.757530 93.893 23.0786
56.161572 93.893 22.6816
56.568542 93.893 22.2896
56.978462 93.893 21.9018
57.391350 93.893 21.5177
57.807232 93.893 21.1366
58.226128 93.893 20.7586
58.648056 93.893 20.3838
59.073048 93.893 20.0116
59.501114 93.893 19.6415
59.932281 93.893 19.2737
60.366577 93.893 18.9081
60.804020 93.893 18.5446
61.244629 93.893 18.1827
61.688435 93.893 17.8226
62.135452 93.893 17.4644
62.585712 93.893 17.1076
63.039234 93.893 16.7515
63.496040 93.893 16.3966
63.956161 93.893 16.0432
64.419617 93.893 15.6906
64.886421 93.893 15.3383
65.356621 93.893 14.9866
65.830215 93.893 14.6360
66.307251 93.893 14.2857
66.787743 93.893 13.9352
67.271713 93.893 13.5846
67.759193 93.893 13.2343
68.250206 93.893 12.8836
68.744774 93.893 12.5325
69.242928 93.893 12.1807
69.744690 93.893 11.8280
70.250084 93.893 11.4737
70.759148 93.893 11.1170
71.271896 93.893 10.7577
71.788361 93.893 10.3953
72.308571 93.892 10.0297
72.832550 93.891 9.6604
73.360321 93.889 9.2887
73.891922 93.886 8.9149
74.427376 93.881 8.5417
74.966705 93.875 8.1716
75.509949 93.868 7.8056
76.057121 93.861 7.4460
76.608261 93.853 7.0917
77.163399 93.845 6.7429
77.722557 93.838 6.3987
78.285767 93.831 6.0594
78.853058 93.825 5.7217
79.424461 93.821 5.3831
80.000000 93.818 5.0407
80.579712 93.815 4.6906
81.163628 93.813 4.3327
81.751770 93.811 3.9652
82.344177 93.808 3.5898
82.940880 93.804 3.2060
83.541901 93.798 2.8178
84.147285 93.790 2.4291
84.757050 93.781 2.0387
85.371231 93.772 1.6460
85.989868 93.762 1.2528
86.612984 93.749 0.8604
87.240616 93.735 0.4708
87.872803 93.721 0.0872
88.509560 93.706 -0.2932
89.150940 93.691 -0.6727
89.796967 93.676 -1.0502
90.447670 93.660 -1.4248
91.103088 93.643 -1.7982
91.763260 93.628 -2.1709
92.428215 93.613 -2.5452
93.097992 93.597 -2.9239
93.772614 93.580 -3.3062
94.452133 93.563 -3.6918
95.136566 93.546 -4.0822
95.825966 93.529 -4.4797
96.520363 93.510 -4.8811
97.219788 93.488 -5.2853
97.924286 93.463 -5.6882
98.633881 93.437 -6.0849
99.348625 93.410 -6.4772
100.068542 93.382 -6.8649
100.793686 93.354 -7.2490
101.524078 93.325 -7.6309
102.259766 93.295 -8.0101
103.000778 93.264 -8.3861
103.747162 93.233 -8.7603
104.498962 93.202 -9.1335
105.256203 93.170 -9.5063
106.018929 93.137 -9.8805
106.787186 93.102 -10.2533
107.561012 93.066 -10.6222
108.340446 93.028 -10.9874
109.125526 92.990 -11.3481
109.916290 92.951 -11.7053
110.712791 92.911 -12.0594
111.515060 92.871 -12.4113
112.323143 92.830 -12.7626
113.137085 92.788 -13.1123
113.956924 92.744 -13.4606
114.782700 92.699 -13.8051
115.614464 92.652 -14.1432
116.452255 92.603 -14.4754
117.296112 92.554 -14.8019
118.146095 92.504 -15.1213
119.002228 92.451 -15.4326
119.864563 92.397 -15.7342
120.733154 92.343 -16.0233
121.608040 92.288 -16.3034
122.489258 92.234 -16.5771
123.376869 92.179 -16.8444
124.270905 92.123 -17.1063
125.171425 92.066 -17.3615
126.078468 92.009 -17.6087
126.992081 91.952 -17.8495
127.912323 91.894 -18.0857
128.839233 91.835 -18.3155
129.772842 91.775 -18.5384
130.713242 91.713 -18.7526
131.660431 91.651 -18.9560
132.614502 91.588 -19.1485
133.575485 91.524 -19.3286
134.543427 91.460 -19.4977
135.518387 91.396 -19.6570
136.500412 91.332 -19.8047
137.489548 91.267 -19.9384
138.485855 91.202 -20.0607
139.489380 91.139 -20.1728
140.500168 91.076 -20.2768
141.518295 91.014 -20.3755
142.543793 90.951 -20.4678
143.576721 90.888 -20.5534
144.617142 90.825 -20.6318
145.665100 90.763 -20.7032
146.720642 90.700 -20.7658
147.783844 90.635 -20.8187
148.854752 90.570 -20.8599
149.933411 90.506 -20.8869
151.019897 90.443 -20.9010
152.114243 90.379 -20.9027
153.216522 90.316 -20.8911
154.326797 90.254 -20.8636
155.445114 90.193 -20.8251
156.571533 90.136 -20.7784
157.706116 90.081 -20.7261
158.848923 90.027 -20.6726
160.000000 89.974 -20.6161
161.159424 89.922 -20.5561
162.327255 89.870 -20.4931
163.503540 89.821 -20.4270
164.688354 89.772 -20.3591
165.881760 89.724 -20.2914
167.083801 89.676 -20.2222
168.294571 89.630 -20.1496
169.514099 89.584 -20.0762
170.742462 89.540 -20.0035
171.979736 89.497 -19.9322
173.225967 89.454 -19.8635
174.481232 89.411 -19.7972
175.745605 89.369 -19.7333
177.019119 89.327 -19.6721
178.301880 89.285 -19.6148
179.593933 89.242 -19.5581
180.895340 89.198 -19.4999
182.206177 89.152 -19.4382
183.526520 89.106 -19.3699
184.856430 89.060 -19.2962
186.195984 89.014 -19.2181
187.545227 88.967 -19.1332
188.904266 88.919 -19.0399
190.273132 88.870 -18.9363
191.651932 88.821 -18.8201
193.040726 88.772 -18.6914
194.439575 88.724 -18.5489
195.848572 88.677 -18.3935
197.267761 88.631 -18.2253
198.697250 88.587 -18.0455
200.137085 88.544 -17.8541
201.587372 88.503 -17.6545
203.048157 88.466 -17.4492
204.519531 88.431 -17.2406
206.001556 88.398 -17.0310
207.494324 88.367 -16.8225
208.997925 88.340 -16.6175
210.512405 88.314 -16.4175
212.037857 88.289 -16.2249
213.574371 88.265 -16.0384
215.122025 88.242 -15.8572
216.680893 88.220 -15.6815
218.251053 88.199 -15.5112
219.832581 88.178 -15.3465
221.425583 88.158 -15.1873
223.030121 88.138 -15.0334
224.646286 88.118 -14.8847
226.274170 88.098 -14.7404
227.913849 88.079 -14.5994
229.565399 88.060 -14.4623
231.228928 88.040 -14.3297
232.904510 88.020 -14.2004
234.592224 88.000 -14.0731
236.292191 87.980 -13.9483
238.004456 87.959 -13.8268
239.729126 87.938 -13.7063
241.466309 87.916 -13.5854
243.216080 87.893 -13.4633
244.978516 87.871 -13.3390
246.753738 87.848 -13.2124
248.541809 87.825 -13.0832
250.342850 87.801 -12.9504
252.156937 87.777 -12.8123
253.984161 87.753 -12.6704
255.824646 87.731 -12.5250
257.678467 87.709 -12.3774
259.545685 87.687 -12.2289
261.426483 87.665 -12.0794
263.320862 87.644 -11.9285
265.229004 87.624 -11.7774
267.150970 87.604 -11.6275
269.086853 87.584 -11.4784
271.036774 87.564 -11.3306
273.000824 87.544 -11.1834
274.979095 87.524 -11.0364
276.971710 87.503 -10.8894
278.978760 87.483 -10.7429
281.000336 87.462 -10.5944
283.036591 87.439 -10.4422
285.087585 87.416 -10.2845
287.153442 87.393 -10.1184
289.234283 87.370 -9.9455
291.330200 87.348 -9.7670
293.441284 87.326 -9.5815
295.567688 87.303 -9.3867
297.709503 87.282 -9.1865
299.866821 87.264 -8.9834
302.039795 87.248 -8.7796
304.228485 87.231 -8.5788
306.433044 87.215 -8.3786
308.653595 87.200 -8.1771
310.890228 87.185 -7.9766
313.143066 87.172 -7.7790
315.412231 87.158 -7.5826
317.697845 87.143 -7.3864
320.000000 87.128 -7.1886
322.318848 87.114 -6.9858
324.654510 87.101 -6.7816
327.007080 87.089 -6.5793
329.376709 87.077 -6.3776
331.763519 87.065 -6.1774
334.167603 87.052 -5.9766
336.589142 87.040 -5.7729
339.028198 87.028 -5.5686
341.484924 87.017 -5.3660
343.959473 87.005 -5.1626
346.451935 86.992 -4.9573
348.962463 86.979 -4.7476
351.491211 86.966 -4.5296
354.038239 86.953 -4.3067
356.603760 86.942 -4.0807
359.187866 86.932 -3.8527
361.790680 86.922 -3.6250
364.412354 86.911 -3.3947
367.053040 86.900 -3.1590
369.712860 86.889 -2.9188
372.391968 86.879 -2.6736
375.090454 86.870 -2.4237
377.808533 86.861 -2.1698
380.546265 86.853 -1.9108
383.303864 86.845 -1.6459
386.081451 86.838 -1.3758
388.879150 86.832 -1.1001
391.697144 86.828 -0.8209
394.535522 86.825 -0.5398
397.394501 86.823 -0.2578
400.274170 86.822 0.0231
403.174744 86.821 0.3051
406.096313 86.821 0.5892
409.039062 86.822 0.8761
412.003113 86.823 1.1664
414.988647 86.825 1.4610
417.995850 86.827 1.7618
421.024811 86.831 2.0670
424.075714 86.837 2.3759
427.148743 86.845 2.6870
430.244049 86.854 2.9991
433.361786 86.864 3.3110
436.502106 86.877 3.6220
439.665161 86.892 3.9300
442.851166 86.907 4.2323
446.060242 86.924 4.5301
449.292572 86.942 4.8240
452.548340 86.961 5.1141
455.827698 86.981 5.4004
459.130798 87.001 5.6841
462.457855 87.022 5.9666
465.809021 87.043 6.2471
469.184448 87.065 6.5253
472.584381 87.089 6.8011
476.008911 87.113 7.0740
479.458252 87.138 7.3461
482.932617 87.163 7.6204
486.432159 87.189 7.8941
489.957031 87.218 8.1659
493.507477 87.249 8.4352
497.083618 87.279 8.7007
500.685699 87.311 8.9631
504.313873 87.344 9.2239
507.968323 87.379 9.4802
511.649292 87.416 9.7298
515.356934 87.455 9.9722
519.091370 87.494 10.2059
522.852966 87.534 10.4323
526.641724 87.575 10.6529
530.458008 87.617 10.8663
534.301941 87.660 11.0719
538.173706 87.704 11.2684
542.073547 87.749 11.4541
546.001648 87.795 11.6294
549.958191 87.841 11.7941
553.943420 87.888 11.9485
557.957520 87.934 12.0925
562.000671 87.981 12.2276
566.073181 88.027 12.3543
570.175171 88.073 12.4746
574.306885 88.117 12.5908
578.468567 88.162 12.7026
582.660400 88.207 12.8114
586.882568 88.254 12.9146
591.135376 88.301 13.0101
595.419006 88.349 13.0977
599.733643 88.396 13.1765
604.079590 88.443 13.2468
608.456970 88.490 13.3089
612.866089 88.538 13.3618
617.307190 88.585 13.4036
621.780457 88.631 13.4379
626.286133 88.674 13.4670
630.824463 88.717 13.4929
635.395691 88.759 13.5190
640.000000 88.801 13.5439
644.637695 88.842 13.5665
649.309021 88.883 13.5889
654.014160 88.923 13.6127
658.753418 88.962 13.6379
663.527039 89.001 13.6646
668.335205 89.041 13.6939
673.178284 89.080 13.7276
678.056396 89.119 13.7639
682.969849 89.160 13.8025
687.918945 89.203 13.8409
692.903870 89.246 13.8756
697.924927 89.289 13.9089
702.982422 89.332 13.9427
708.076477 89.376 13.9749
713.207520 89.422 14.0037
718.375732 89.468 14.0299
723.581360 89.514 14.0529
728.824707 89.560 14.0759
734.106079 89.606 14.1028
739.425720 89.654 14.1309
744.783936 89.705 14.1595
750.180908 89.758 14.1859
755.617065 89.812 14.2082
761.092529 89.869 14.2230
766.607727 89.929 14.2271
772.162903 89.992 14.2171
777.758301 90.056 14.1880
783.394287 90.122 14.1402
789.071045 90.188 14.0727
794.789001 90.255 13.9844
800.548340 90.322 13.8734
806.349487 90.390 13.7415
812.192627 90.456 13.5892
818.078125 90.521 13.4187
824.006226 90.585 13.2333
829.977295 90.648 13.0298
835.991699 90.712 12.8055
842.049622 90.774 12.5619
848.151428 90.832 12.2987
854.297485 90.889 12.0191
860.488098 90.943 11.7267
866.723572 90.996 11.4202
873.004211 91.046 11.0984
879.330322 91.093 10.7642
885.702332 91.136 10.4192
892.120483 91.176 10.0653
898.585144 91.213 9.7048
905.096680 91.247 9.3384
911.655396 91.277 8.9660
918.261597 91.302 8.5924
924.915710 91.322 8.2213
931.618042 91.338 7.8553
938.368896 91.350 7.4956
945.168762 91.356 7.1503
952.017822 91.356 6.8250
958.916504 91.351 6.5281
965.865234 91.342 6.2685
972.864319 91.330 6.0497
979.914062 91.316 5.8783
987.014954 91.302 5.7544
994.167236 91.289 5.6814
1001.371399 91.279 5.6560
1008.627747 91.274 5.6799
1015.936646 91.276 5.7417
1023.298584 91.288 5.8356
1030.713867 91.310 5.9466
1038.182739 91.342 6.0620
1045.705933 91.384 6.1686
1053.283447 91.437 6.2518
1060.916016 91.499 6.3039
1068.603882 91.566 6.3131
1076.347412 91.639 6.2772
1084.147095 91.715 6.1900
1092.003296 91.793 6.0516
1099.916382 91.871 5.8580
1107.886841 91.949 5.6161
1115.915039 92.023 5.3297
1124.001343 92.094 5.0033
1132.146362 92.162 4.6423
1140.350342 92.228 4.2486
1148.613770 92.289 3.8240
1156.937134 92.346 3.3730
1165.320801 92.397 2.8996
1173.765137 92.444 2.4072
1182.270752 92.486 1.8990
1190.838013 92.522 1.3801
1199.467285 92.552 0.8552
1208.159180 92.576 0.3291
1216.913940 92.595 -0.1923
1225.732178 92.610 -0.7071
1234.614380 92.621 -1.2122
1243.560913 92.628 -1.7062
1252.572266 92.631 -2.1862
1261.648926 92.632 -2.6541
1270.791382 92.631 -3.1107
1280.000000 92.628 -3.5563
1289.275391 92.622 -3.9928
1298.618042 92.613 -4.4163
1308.028320 92.601 -4.8237
1317.506836 92.586 -5.2144
1327.054077 92.570 -5.5870
1336.670410 92.552 -5.9407
1346.356567 92.531 -6.2747
1356.112793 92.509 -6.5869
1365.939697 92.486 -6.8740
1375.837891 92.463 -7.1389
1385.807739 92.440 -7.3838
1395.849854 92.416 -7.6072
1405.964844 92.391 -7.8104
1416.152954 92.365 -7.9874
1426.415039 92.338 -8.1333
1436.751465 92.311 -8.2456
1447.162720 92.284 -8.3215
1457.649414 92.259 -8.3569
1468.212158 92.235 -8.3472
1478.851440 92.216 -8.2923
1489.567871 92.202 -8.1855
1500.361816 92.198 -8.0426
1511.234131 92.208 -7.8714
1522.185059 92.230 -7.6898
1533.215454 92.265 -7.5127
1544.325806 92.314 -7.3566
1555.516602 92.376 -7.2374
1566.788574 92.450 -7.1721
1578.142090 92.533 -7.1824
1589.578003 92.623 -7.2705
1601.096680 92.713 -7.4483
1612.698975 92.804 -7.7078
1624.385254 92.890 -8.0479
1636.156250 92.972 -8.4580
1648.012451 93.045 -8.9325
1659.954590 93.110 -9.4560
1671.983398 93.164 -10.0151
1684.099243 93.210 -10.5985
1696.302856 93.246 -11.1927
1708.594971 93.274 -11.7913
1720.976196 93.294 -12.3855
1733.447144 93.307 -12.9695
1746.008423 93.313 -13.5356
1758.660645 93.313 -14.0808
1771.404663 93.309 -14.5992
1784.240967 93.301 -15.0920
1797.170288 93.291 -15.5583
1810.193359 93.280 -15.9983
1823.310791 93.267 -16.4109
1836.523193 93.253 -16.7995
1849.831421 93.241 -17.1655
1863.236084 93.229 -17.5135
1876.737793 93.218 -17.8481
1890.337524 93.208 -18.1706
1904.035645 93.199 -18.4838
1917.833008 93.190 -18.7878
1931.730469 93.182 -19.0844
1945.728638 93.173 -19.3718
1959.828125 93.164 -19.6488
1974.029907 93.155 -19.9159
1988.334473 93.147 -20.1735
2002.742798 93.139 -20.4210
2017.255493 93.131 -20.6581
2031.873291 93.124 -20.8851
2046.597168 93.118 -21.1012
2061.427734 93.113 -21.3101
2076.365479 93.111 -21.5149
2091.411865 93.109 -21.7162
2106.566895 93.107 -21.9162
2121.832031 93.105 -22.1132
2137.207764 93.103 -22.3075
2152.694824 93.101 -22.4953
2168.294189 93.096 -22.6747
2184.006592 93.090 -22.8403
2199.832764 93.083 -22.9867
2215.773682 93.075 -23.1115
2231.830078 93.067 -23.2113
2248.002686 93.060 -23.2838
2264.292725 93.053 -23.3265
2280.700684 93.047 -23.3360
2297.227539 93.043 -23.3078
2313.874268 93.043 -23.2433
2330.641602 93.048 -23.1422
2347.530273 93.058 -23.0067
2364.541504 93.073 -22.8382
2381.676025 93.096 -22.6380
2398.934570 93.127 -22.4054
2416.318359 93.168 -22.1472
2433.827881 93.221 -21.8668
2451.464355 93.286 -21.5742
2469.228760 93.364 -21.2777
2487.121826 93.456 -20.9862
2505.144531 93.562 -20.7074
2523.297852 93.683 -20.4541
2541.582764 93.820 -20.2373
2560.000000 93.971 -20.0696
2578.550781 94.138 -19.9626
2597.236084 94.319 -19.9300
2616.056641 94.514 -19.9847
2635.013672 94.722 -20.1411
2654.108154 94.941 -20.4137
2673.340820 95.168 -20.8149
2692.713135 95.402 -21.3589
2712.225586 95.639 -22.0554
2731.879395 95.876 -22.9204
2751.675781 96.108 -23.9489
2771.615479 96.328 -25.1466
2791.699707 96.534 -26.4957
2811.929688 96.721 -27.9870
2832.305908 96.888 -29.5992
2852.830078 97.032 -31.3188
2873.502930 97.151 -33.1131
2894.325439 97.240 -34.9542
2915.298828 97.304 -36.8135
2936.424316 97.342 -38.6593
2957.702881 97.357 -40.4732
2979.135742 97.351 -42.2300
3000.723633 97.326 -43.9188
3022.468262 97.285 -45.5220
3044.370117 97.230 -47.0342
3066.430908 97.166 -48.4440
3088.651611 97.094 -49.7533
3111.033203 97.019 -50.9584
3133.577148 96.941 -52.0660
3156.284180 96.865 -53.0797
3179.156006 96.791 -54.0058
3202.193359 96.722 -54.8482
3225.397949 96.659 -55.6175
3248.770508 96.607 -56.3203
3272.312500 96.566 -56.9732
3296.024902 96.538 -57.5881
3319.909180 96.523 -58.1852
3343.966797 96.524 -58.7809
3368.198486 96.541 -59.3980
3392.605713 96.574 -60.0579
3417.189941 96.619 -60.7815
3441.952393 96.675 -61.5932
3466.894287 96.738 -62.5037
3492.016846 96.805 -63.5325
3517.321289 96.870 -64.6774
3542.809326 96.928 -65.9491
3568.481934 96.976 -67.3284
3594.340576 97.006 -68.8090
3620.386719 97.018 -70.3635
3646.621582 97.009 -71.9710
3673.046387 96.978 -73.6052
3699.662842 96.924 -75.2412
3726.472168 96.846 -76.8526
3753.475586 96.746 -78.4119
3780.675049 96.626 -79.8985
3808.071289 96.486 -81.2880
3835.666016 96.331 -82.5652
3863.460938 96.161 -83.7117
3891.457275 95.979 -84.7126
3919.656250 95.787 -85.5489
3948.059814 95.592 -86.2143
3976.668945 95.398 -86.6943
4005.485596 95.210 -86.9950
4034.510986 95.032 -87.1080
4063.746582 94.875 -87.0616
4093.194336 94.746 -86.8654
4122.855469 94.650 -86.5676
4152.730957 94.593 -86.2010
4182.823730 94.576 -85.8218
4213.133789 94.604 -85.4803
4243.664062 94.671 -85.2269
4274.415527 94.772 -85.1218
4305.389648 94.898 -85.1862
4336.588379 95.040 -85.4644
4368.013184 95.189 -85.9472
4399.665527 95.336 -86.6505
4431.547363 95.473 -87.5422
4463.660156 95.594 -88.6113
4496.005371 95.695 -89.8107
4528.585449 95.770 -91.1020
4561.401367 95.824 -92.4475
4594.455078 95.857 -93.8021
4627.748535 95.873 -95.1495
4661.283203 95.876 -96.4577
4695.060547 95.870 -97.7289
4729.083008 95.860 -98.9492
4763.352051 95.849 -100.1344
4797.869141 95.841 -101.2904
4832.636719 95.835 -102.4343
4867.655762 95.834 -103.5822
4902.928711 95.834 -104.7433
4938.457520 95.835 -105.9354
4974.243652 95.834 -107.1482
5010.289062 95.827 -108.3828
5046.595703 95.814 -109.6218
5083.165527 95.794 -110.8530
5120.000000 95.768 -112.0622
5157.101562 95.738 -113.2319
5194.472168 95.708 -114.3596
5232.113281 95.681 -115.4290
5270.027344 95.662 -116.4629
5308.216309 95.660 -117.4656
5346.681641 95.674 -118.4760
5385.426270 95.709 -119.5220
5424.451172 95.763 -120.6413
5463.758789 95.834 -121.8727
5503.351562 95.918 -123.2409
5543.230957 96.009 -124.7825
5583.399414 96.100 -126.5011
5623.859375 96.184 -128.4209
5664.611816 96.254 -130.5173
5705.660156 96.300 -132.7865
5747.005859 96.321 -135.1903
5788.650879 96.312 -137.7001
5830.597656 96.272 -140.2806
5872.848633 96.199 -142.8993
5915.405762 96.094 -145.5186
5958.271484 95.953 -148.0998
6001.447266 95.781 -150.6133
6044.936523 95.581 -153.0202
6088.740234 95.357 -155.3098
6132.861816 95.114 -157.4597
6177.303223 94.853 -159.4663
6222.066406 94.580 -161.3160
6267.154297 94.297 -163.0158
6312.568359 94.012 -164.5637
6358.312012 93.726 -165.9743
6404.386719 93.443 -167.2568
6450.795898 93.164 -168.4252
6497.541016 92.893 -169.4926
6544.625000 92.629 -170.4703
6592.049805 92.374 -171.3729
6639.818359 92.126 -172.2049
6687.933594 91.885 -172.9756
6736.396973 91.651 -173.6845
6785.211426 91.424 -174.3320
6834.379883 91.206 -174.9241
6883.904785 90.998 -175.4640
6933.788574 90.801 -175.9605
6984.033691 90.616 -176.4204
7034.642578 90.444 -176.8539
7085.618652 90.285 -177.2676
7136.963867 90.142 -177.6789
7188.681152 90.015 -178.1011
7240.773438 89.905 -178.5536
7293.243164 89.810 -179.0546
7346.092773 89.729 -179.6219
7399.325684 89.663 179.7255
7452.944336 89.606 178.9731
7506.951172 89.557 178.1025
7561.350098 89.512 177.1065
7616.142578 89.468 175.9714
7671.332031 89.419 174.6979
7726.921875 89.362 173.2768
7782.914551 89.289 171.7243
7839.312500 89.197 170.0433
7896.119629 89.081 168.2636
7953.337891 88.936 166.4032
8010.971191 88.758 164.5021
8069.021973 88.543 162.5884
8127.493164 88.290 160.7167
8186.388672 87.996 158.9300
8245.710938 87.660 157.2921
8305.461914 87.281 155.8591
8365.647461 86.863 154.6983
8426.267578 86.405 153.8770
8487.328125 85.918 153.4521
8548.831055 85.404 153.5000
8610.779297 84.884 154.0299
8673.176758 84.370 155.0947
8736.026367 83.887 156.6384
8799.331055 83.457 158.6607
8863.094727 83.103 161.0466
8927.320312 82.853 163.7286
8992.010742 82.716 166.5609
9057.170898 82.715 169.4216
9122.802734 82.835 172.1690
9188.910156 83.077 174.6507
9255.497070 83.413 176.7767
9322.566406 83.821 178.4131
9390.121094 84.277 179.5395
9458.166016 84.754 -179.9183
9526.704102 85.237 -179.9305
9595.738281 85.706 179.4846
9665.273438 86.149 178.3980
9735.311523 86.549 176.8481
9805.857422 86.907 174.9164
9876.915039 87.217 172.6736
9948.487305 87.480 170.1910
10020.578125 87.692 167.5422
10093.191406 87.857 164.7911
10166.331055 87.977 162.0135
10240.000000 88.060 159.2465
10314.203125 88.110 156.5482
10388.944336 88.137 153.9302
10464.226562 88.147 151.4300
10540.054688 88.149 149.0280
10616.432617 88.154 146.7315
10693.363281 88.168 144.4982
10770.852539 88.199 142.3040
10848.902344 88.249 140.0971
10927.517578 88.321 137.8367
11006.703125 88.414 135.4652
11086.461914 88.532 132.9267
11166.798828 88.663 130.1760
11247.718750 88.802 127.1523
11329.223633 88.938 123.8458
11411.320312 89.061 120.2217
11494.011719 89.161 116.2961
11577.301758 89.228 112.0593
11661.195312 89.255 107.5547
11745.697266 89.231 102.7995
11830.811523 89.153 97.8622
11916.542969 89.011 92.7939
12002.894531 88.805 87.6645
12089.873047 88.534 82.5386
12177.480469 88.198 77.4824
12265.723633 87.794 72.5630
12354.606445 87.328 67.8429
12444.132812 86.799 63.3963
12534.308594 86.217 59.2545
12625.136719 85.589 55.4730
12716.624023 84.923 52.0531
12808.773438 84.226 49.0214
12901.591797 83.508 46.3571
12995.082031 82.777 44.0620
13089.250000 82.045 42.0951
13184.099609 81.325 40.4328
13279.636719 80.620 39.0227
13375.867188 79.938 37.8159
13472.793945 79.278 36.7775
13570.422852 78.642 35.8594
13668.759766 78.026 35.0515
13767.809570 77.425 34.3228
13867.577148 76.833 33.6884
13968.067383 76.248 33.1378
14069.285156 75.661 32.7180
14171.237305 75.065 32.4552
14273.927734 74.462 32.4026
14377.362305 73.851 32.6123
14481.546875 73.238 33.1146
14586.486328 72.626 33.9615
14692.185547 72.030 35.1402
14798.651367 71.464 36.6815
14905.888672 70.947 38.5057
15013.902344 70.501 40.5829
15122.700195 70.140 42.7923
15232.285156 69.884 45.0428
15342.664062 69.727 47.2133
15453.843750 69.677 49.1840
15565.829102 69.715 50.8589
15678.625000 69.832 52.1127
15792.239258 70.001 52.9150
15906.675781 70.197 53.1852
16021.942383 70.405 52.9496
16138.043945 70.604 52.1883
16254.986328 70.783 50.9614
16372.777344 70.926 49.2975
16491.421875 71.030 47.2721
16610.923828 71.085 44.9503
16731.294922 71.092 42.3944
16852.535156 71.050 39.6725
16974.656250 70.960 36.8325
17097.662109 70.821 33.9342
17221.558594 70.638 31.0108
17346.353516 70.412 28.1091
17472.052734 70.147 25.2472
17598.662109 69.846 22.4540
17726.189453 69.511 19.7435
17854.640625 69.145 17.1337
17984.021484 68.749 14.6405
18114.341797 68.327 12.2790
18245.605469 67.879 10.0691
18377.820312 67.405 8.0295
18510.994141 66.910 6.1791
18645.132812 66.395 4.5402
18780.242188 65.866 3.1221
18916.332031 65.327 1.9471
19053.408203 64.785 0.9988
19191.476562 64.248 0.2812
19330.546875 63.722 -0.2456
19470.623047 63.216 -0.6073
19611.714844 62.734 -0.8439
19753.830078 62.278 -0.9916
19896.974609 61.851 -1.0875
