* Measurement data measured by REW V5.20.13
* Source: C:\Users\kurin\Desktop\Targets and Curves\Resolve\Img\Lecram\Aeon X Closed_SPL.txt
* Format: Comma/Tab/Space delimited data
* Dated: Aug 15, 2023 3:17:03 PM
* REW Settings:
*  C-weighting compensation: Off
*  Target level: 75.0 dB
* Note: ; Measurement imported from C:\Users\kurin\Desktop\Targets and Curves\Resolve\Img\Lecram\Aeon X Closed_SPL.txt Format: Comma/Tab/Space delimited data 623 values loaded, 5 Hz to 39,792 Hz log spaced 
* Measurement: Aeon X Closed_SPL
* Smoothing: 1/48 octave
* Frequency Step: 1/96 octave
* Start Frequency: 5.000 Hz
*
* Freq(Hz) SPL(dB) Phase(degrees)
5.000000 88.810 2.9790
5.036232 88.811 2.9752
5.072727 88.813 2.9710
5.109486 88.815 2.9658
5.146511 88.817 2.9600
5.183805 88.819 2.9538
5.221369 88.821 2.9470
5.259205 88.823 2.9398
5.297316 88.826 2.9320
5.335702 88.829 2.9236
5.374367 88.832 2.9150
5.413311 88.835 2.9065
5.452538 88.838 2.8980
5.492050 88.840 2.8895
5.531847 88.843 2.8810
5.571934 88.846 2.8726
5.612310 88.849 2.8640
5.652979 88.851 2.8551
5.693943 88.854 2.8460
5.735204 88.857 2.8370
5.776763 88.860 2.8280
5.818624 88.863 2.8190
5.860788 88.866 2.8100
5.903258 88.868 2.8011
5.946035 88.871 2.7920
5.989123 88.874 2.7826
6.032523 88.877 2.7730
6.076237 88.880 2.7635
6.120268 88.883 2.7540
6.164618 88.886 2.7445
6.209289 88.888 2.7350
6.254284 88.891 2.7256
6.299605 88.894 2.7160
6.345255 88.897 2.7061
6.391235 88.900 2.6960
6.437549 88.902 2.6861
6.484198 88.905 2.6760
6.531185 88.908 2.6656
6.578513 88.911 2.6550
6.626183 88.914 2.6445
6.674199 88.917 2.6340
6.722563 88.919 2.6235
6.771278 88.922 2.6130
6.820345 88.925 2.6026
6.869768 88.928 2.5920
6.919549 88.931 2.5811
6.969691 88.934 2.5700
7.020196 88.937 2.5590
7.071068 88.939 2.5480
7.122308 88.942 2.5371
7.173919 88.945 2.5260
7.225904 88.947 2.5146
7.278266 88.950 2.5030
7.331007 88.953 2.4915
7.384131 88.956 2.4800
7.437639 88.959 2.4686
7.491535 88.962 2.4570
7.545822 88.965 2.4451
7.600502 88.967 2.4330
7.655579 88.970 2.4211
7.711054 88.973 2.4090
7.766932 88.976 2.3965
7.823214 88.979 2.3840
7.879904 88.981 2.3721
7.937005 88.984 2.3600
7.994520 88.987 2.3471
8.052452 88.990 2.3340
8.110803 88.993 2.3216
8.169578 88.996 2.3090
8.228777 88.998 2.2956
8.288406 89.001 2.2820
8.348468 89.004 2.2690
8.408964 89.007 2.2560
8.469899 89.010 2.2426
8.531276 89.013 2.2290
8.593097 89.015 2.2156
8.655366 89.018 2.2020
8.718086 89.021 2.1881
8.781260 89.024 2.1740
8.844893 89.027 2.1601
8.908987 89.030 2.1460
8.973545 89.033 2.1316
9.038571 89.035 2.1170
9.104069 89.038 2.1026
9.170040 89.041 2.0880
9.236490 89.043 2.0731
9.303422 89.046 2.0580
9.370838 89.049 2.0431
9.438744 89.052 2.0280
9.507140 89.055 2.0126
9.576033 89.058 1.9970
9.645425 89.061 1.9815
9.715320 89.063 1.9660
9.785721 89.066 1.9506
9.856632 89.069 1.9350
9.928058 89.072 1.9186
10.000000 89.075 1.9020
10.072464 89.077 1.8860
10.145453 89.080 1.8700
10.218971 89.083 1.8536
10.293022 89.086 1.8370
10.367610 89.089 1.8201
10.442738 89.092 1.8030
10.518411 89.095 1.7855
10.594631 89.097 1.7680
10.671404 89.100 1.7511
10.748734 89.103 1.7340
10.826623 89.106 1.7161
10.905077 89.109 1.6980
10.984100 89.111 1.6801
11.063695 89.114 1.6620
11.143867 89.117 1.6436
11.224621 89.120 1.6250
11.305959 89.123 1.6066
11.387886 89.126 1.5880
11.470407 89.128 1.5691
11.553527 89.131 1.5500
11.637249 89.134 1.5306
11.721577 89.137 1.5110
11.806517 89.139 1.4916
11.892071 89.142 1.4720
11.978246 89.145 1.4521
12.065045 89.148 1.4320
12.152473 89.151 1.4116
12.240536 89.154 1.3910
12.329235 89.156 1.3706
12.418578 89.159 1.3500
12.508568 89.162 1.3291
12.599211 89.165 1.3080
12.690510 89.168 1.2866
12.782471 89.171 1.2650
12.875097 89.174 1.2431
12.968395 89.176 1.2210
13.062370 89.179 1.1986
13.157025 89.182 1.1760
13.252366 89.185 1.1536
13.348398 89.188 1.1310
13.445127 89.190 1.1081
13.542556 89.193 1.0850
13.640691 89.196 1.0616
13.739536 89.199 1.0380
13.839099 89.202 1.0141
13.939383 89.205 0.9900
14.040393 89.207 0.9656
14.142136 89.210 0.9410
14.244616 89.213 0.9166
14.347837 89.216 0.8920
14.451808 89.219 0.8666
14.556532 89.222 0.8410
14.662014 89.224 0.8156
14.768262 89.227 0.7900
14.875278 89.230 0.7637
14.983070 89.233 0.7370
15.091644 89.235 0.7101
15.201005 89.238 0.6830
15.311157 89.241 0.6561
15.422109 89.244 0.6290
15.533863 89.247 0.6012
15.646428 89.250 0.5730
15.759809 89.252 0.5446
15.874010 89.255 0.5160
15.989040 89.258 0.4871
16.104904 89.261 0.4580
16.221605 89.264 0.4287
16.339155 89.267 0.3990
16.457554 89.270 0.3692
16.576813 89.272 0.3390
16.696936 89.275 0.3081
16.817928 89.278 0.2770
16.939798 89.281 0.2462
17.062551 89.284 0.2150
17.186193 89.286 0.1832
17.310732 89.289 0.1510
17.436172 89.292 0.1186
17.562521 89.295 0.0860
17.689787 89.298 0.0532
17.817974 89.301 0.0200
17.947090 89.303 -0.0133
18.077143 89.306 -0.0470
18.208138 89.309 -0.0809
18.340080 89.312 -0.1150
18.472980 89.315 -0.1488
18.606844 89.318 -0.1830
18.741676 89.320 -0.2178
18.877487 89.323 -0.2530
19.014280 89.326 -0.2886
19.152065 89.329 -0.3240
19.290850 89.331 -0.3586
19.430639 89.333 -0.3920
19.571442 89.335 -0.4237
19.713264 89.338 -0.4530
19.856115 89.340 -0.4785
20.000000 89.343 -0.5010
20.144928 89.347 -0.5187
20.290907 89.353 -0.5370
20.437943 89.361 -0.5599
20.586044 89.371 -0.5890
20.735220 89.380 -0.6274
20.885475 89.390 -0.6749
21.036821 89.400 -0.7321
21.189262 89.411 -0.7999
21.342808 89.422 -0.8809
21.497467 89.431 -0.9709
21.653246 89.437 -1.0678
21.810154 89.442 -1.1679
21.968201 89.445 -1.2666
22.127390 89.447 -1.3639
22.287735 89.448 -1.4580
22.449242 89.448 -1.5489
22.611917 89.448 -1.6357
22.775772 89.448 -1.7199
22.940815 89.448 -1.8025
23.107054 89.448 -1.8839
23.274498 89.448 -1.9645
23.443153 89.448 -2.0449
23.613033 89.448 -2.1257
23.784142 89.448 -2.2069
23.956491 89.448 -2.2886
24.130091 89.447 -2.3709
24.304947 89.447 -2.4545
24.481071 89.446 -2.5379
24.658470 89.445 -2.6198
24.837156 89.443 -2.7009
25.017136 89.442 -2.7808
25.198421 89.441 -2.8609
25.381020 89.440 -2.9425
25.564941 89.440 -3.0259
25.750195 89.439 -3.1115
25.936790 89.439 -3.1999
26.124741 89.439 -3.2916
26.314051 89.439 -3.3879
26.504732 89.440 -3.4899
26.696796 89.440 -3.5989
26.890253 89.440 -3.7173
27.085112 89.438 -3.8419
27.281382 89.435 -3.9707
27.479073 89.430 -4.1018
27.678198 89.423 -4.2331
27.878765 89.415 -4.3628
28.080786 89.405 -4.4888
28.284271 89.394 -4.6108
28.489231 89.383 -4.7269
28.695675 89.371 -4.8408
28.903616 89.361 -4.9569
29.113064 89.349 -5.0718
29.324028 89.334 -5.1853
29.536524 89.317 -5.2929
29.750557 89.300 -5.3893
29.966141 89.282 -5.4769
30.183289 89.264 -5.5580
30.402010 89.245 -5.6279
30.622314 89.224 -5.6818
30.844217 89.205 -5.7230
31.067726 89.189 -5.7485
31.292856 89.177 -5.7720
31.519617 89.169 -5.8056
31.748020 89.163 -5.8499
31.978081 89.156 -5.9092
32.209808 89.150 -5.9839
32.443211 89.145 -6.0771
32.678310 89.138 -6.1849
32.915108 89.126 -6.3074
33.153625 89.111 -6.4358
33.393871 89.092 -6.5631
33.635857 89.070 -6.6838
33.879597 89.043 -6.7915
34.125103 89.014 -6.8819
34.372387 88.983 -6.9472
34.621464 88.951 -6.9919
34.872345 88.922 -7.0152
35.125042 88.894 -7.0250
35.379574 88.869 -7.0291
35.635948 88.844 -7.0270
35.894180 88.819 -7.0207
36.154285 88.795 -7.0100
36.416275 88.773 -6.9936
36.680161 88.752 -6.9770
36.945961 88.733 -6.9658
37.213688 88.713 -6.9590
37.483353 88.693 -6.9610
37.754974 88.670 -6.9610
38.028561 88.642 -6.9496
38.304131 88.613 -6.9270
38.581699 88.588 -6.8891
38.861279 88.563 -6.8401
39.142883 88.537 -6.7848
39.426529 88.510 -6.7181
39.712231 88.483 -6.6358
40.000000 88.457 -6.5392
40.289856 88.433 -6.4264
40.581814 88.411 -6.3032
40.875885 88.393 -6.1726
41.172089 88.377 -6.0402
41.470440 88.365 -5.9130
41.770950 88.355 -5.7902
42.073643 88.345 -5.6740
42.378525 88.335 -5.5622
42.685616 88.327 -5.4521
42.994934 88.320 -5.3471
43.306492 88.314 -5.2502
43.620308 88.309 -5.1601
43.936401 88.303 -5.0782
44.254780 88.296 -5.0001
44.575470 88.288 -4.9224
44.898483 88.279 -4.8431
45.223835 88.269 -4.7588
45.551544 88.260 -4.6701
45.881630 88.252 -4.5762
46.214108 88.244 -4.4782
46.548996 88.236 -4.3772
46.886307 88.229 -4.2722
47.226067 88.223 -4.1599
47.568283 88.219 -4.0482
47.912983 88.220 -3.9427
48.260181 88.222 -3.8471
48.609894 88.224 -3.7669
48.962143 88.227 -3.7021
49.316940 88.231 -3.6564
49.674313 88.233 -3.6240
50.034271 88.229 -3.6028
50.396843 88.222 -3.5860
50.762039 88.214 -3.5669
51.129883 88.203 -3.5430
51.500389 88.188 -3.5116
51.873581 88.171 -3.4671
52.249481 88.151 -3.4028
52.628101 88.130 -3.3192
53.009464 88.108 -3.2136
53.393593 88.087 -3.0882
53.780506 88.067 -2.9443
54.170223 88.047 -2.7823
54.562763 88.028 -2.6035
54.958145 88.010 -2.4063
55.356396 87.993 -2.1905
55.757530 87.977 -1.9534
56.161572 87.963 -1.6893
56.568542 87.952 -1.4065
56.978462 87.949 -1.1100
57.391350 87.950 -0.8046
57.807232 87.953 -0.4962
58.226128 87.961 -0.1855
58.648056 87.973 0.1279
59.073048 87.991 0.4355
59.501114 88.015 0.7286
59.932281 88.042 1.0075
60.366577 88.069 1.2674
60.804020 88.097 1.5156
61.244629 88.126 1.7579
61.688435 88.157 1.9936
62.135452 88.190 2.2245
62.585712 88.225 2.4486
63.039234 88.262 2.6648
63.496040 88.302 2.8726
63.956161 88.343 3.0712
64.419617 88.387 3.2617
64.886421 88.432 3.4465
65.356621 88.479 3.6217
65.830215 88.530 3.7853
66.307251 88.585 3.9337
66.787743 88.642 4.0626
67.271713 88.701 4.1728
67.759193 88.762 4.2654
68.250206 88.825 4.3359
68.744774 88.891 4.3807
69.242928 88.959 4.3980
69.744690 89.026 4.3834
70.250084 89.094 4.3411
70.759148 89.161 4.2731
71.271896 89.227 4.1812
71.788361 89.292 4.0685
72.308571 89.357 3.9333
72.832550 89.423 3.7751
73.360321 89.488 3.5924
73.891922 89.551 3.3825
74.427376 89.613 3.1475
74.966705 89.672 2.8882
75.509949 89.730 2.6045
76.057121 89.786 2.2947
76.608261 89.838 1.9647
77.163399 89.884 1.6192
77.722557 89.926 1.2607
78.285767 89.967 0.8929
78.853058 90.004 0.5178
79.424461 90.035 0.1365
80.000000 90.063 -0.2442
80.579712 90.087 -0.6155
81.163628 90.110 -0.9823
81.751770 90.133 -1.3464
82.344177 90.156 -1.7093
82.940880 90.176 -2.0728
83.541901 90.195 -2.4373
84.147285 90.215 -2.8012
84.757050 90.236 -3.1723
85.371231 90.257 -3.5580
85.989868 90.278 -3.9582
86.612984 90.296 -4.3747
87.240616 90.312 -4.8081
87.872803 90.328 -5.2597
88.509560 90.341 -5.7290
89.150940 90.349 -6.2182
89.796967 90.353 -6.7209
90.447670 90.352 -7.2331
91.103088 90.345 -7.7509
91.763260 90.332 -8.2715
92.428215 90.314 -8.7879
93.097992 90.289 -9.2928
93.772614 90.259 -9.7840
94.452133 90.225 -10.2593
95.136566 90.186 -10.7121
95.825966 90.140 -11.1357
96.520363 90.091 -11.5282
97.219788 90.042 -11.8838
97.924286 89.991 -12.2073
98.633881 89.939 -12.5025
99.348625 89.886 -12.7665
100.068542 89.833 -12.9964
100.793686 89.782 -13.1955
101.524078 89.734 -13.3639
102.259766 89.688 -13.5087
103.000778 89.647 -13.6357
103.747162 89.609 -13.7498
104.498962 89.575 -13.8555
105.256203 89.546 -13.9588
106.018929 89.521 -14.0653
106.787186 89.500 -14.1808
107.561012 89.482 -14.3127
108.340446 89.467 -14.4617
109.125526 89.453 -14.6331
109.916290 89.438 -14.8206
110.712791 89.421 -15.0200
111.515060 89.403 -15.2305
112.323143 89.386 -15.4480
113.137085 89.370 -15.6785
113.956924 89.354 -15.9273
114.782700 89.338 -16.1933
115.614464 89.319 -16.4775
116.452255 89.299 -16.7784
117.296112 89.277 -17.0951
118.146095 89.252 -17.4273
119.002228 89.224 -17.7778
119.864563 89.191 -18.1370
120.733154 89.151 -18.4974
121.608040 89.107 -18.8562
122.489258 89.061 -19.2078
123.376869 89.011 -19.5532
124.270905 88.957 -19.8938
125.171425 88.898 -20.2234
126.078468 88.836 -20.5337
126.992081 88.771 -20.8323
127.912323 88.709 -21.1256
128.839233 88.643 -21.4094
129.772842 88.570 -21.6845
130.713242 88.493 -21.9435
131.660431 88.416 -22.1766
132.614502 88.337 -22.3924
133.575485 88.259 -22.5986
134.543427 88.177 -22.7887
135.518387 88.090 -22.9586
136.500412 88.000 -23.1077
137.489548 87.912 -23.2322
138.485855 87.822 -23.3368
139.489380 87.732 -23.4268
140.500168 87.639 -23.4959
141.518295 87.543 -23.5404
142.543793 87.444 -23.5570
143.576721 87.346 -23.5391
144.617142 87.248 -23.4931
145.665100 87.151 -23.4231
146.720642 87.055 -23.3303
147.783844 86.960 -23.2179
148.854752 86.865 -23.0834
149.933411 86.769 -22.9251
151.019897 86.674 -22.7435
152.114243 86.581 -22.5379
153.216522 86.489 -22.3107
154.326797 86.399 -22.0650
155.445114 86.309 -21.7976
156.571533 86.219 -21.5033
157.706116 86.132 -21.1907
158.848923 86.051 -20.8670
160.000000 85.972 -20.5328
161.159424 85.891 -20.1959
162.327255 85.808 -19.8418
163.503540 85.724 -19.4575
164.688354 85.640 -19.0459
165.881760 85.560 -18.6063
167.083801 85.481 -18.1363
168.294571 85.401 -17.6354
169.514099 85.323 -17.0974
170.742462 85.248 -16.5099
171.979736 85.179 -15.8907
173.225967 85.124 -15.2488
174.481232 85.077 -14.5975
175.745605 85.036 -13.9546
177.019119 85.000 -13.3156
178.301880 84.968 -12.6828
179.593933 84.940 -12.0536
180.895340 84.915 -11.4268
182.206177 84.892 -10.7995
183.526520 84.872 -10.1689
184.856430 84.856 -9.5344
186.195984 84.844 -8.8932
187.545227 84.836 -8.2495
188.904266 84.834 -7.6035
190.273132 84.838 -6.9646
191.651932 84.850 -6.3418
193.040726 84.866 -5.7367
194.439575 84.885 -5.1549
195.848572 84.906 -4.5926
197.267761 84.929 -4.0471
198.697250 84.955 -3.5193
200.137085 84.983 -3.0106
201.587372 85.013 -2.5162
203.048157 85.042 -2.0317
204.519531 85.073 -1.5574
206.001556 85.108 -1.0904
207.494324 85.145 -0.6361
208.997925 85.185 -0.1998
210.512405 85.226 0.2210
212.037857 85.268 0.6265
213.574371 85.312 1.0181
215.122025 85.358 1.3981
216.680893 85.406 1.7640
218.251053 85.456 2.1158
219.832581 85.509 2.4481
221.425583 85.566 2.7562
223.030121 85.625 3.0383
224.646286 85.683 3.2897
226.274170 85.741 3.5145
227.913849 85.799 3.7152
229.565399 85.856 3.8916
231.228928 85.913 4.0419
232.904510 85.968 4.1726
234.592224 86.019 4.2880
236.292191 86.068 4.3927
238.004456 86.116 4.4950
239.729126 86.164 4.5888
241.466309 86.213 4.6712
243.216080 86.263 4.7408
244.978516 86.312 4.7957
246.753738 86.361 4.8349
248.541809 86.409 4.8565
250.342850 86.456 4.8620
252.156937 86.500 4.8509
253.984161 86.543 4.8281
255.824646 86.583 4.7974
257.678467 86.621 4.7611
259.545685 86.656 4.7228
261.426483 86.691 4.6821
263.320862 86.725 4.6419
265.229004 86.760 4.5961
267.150970 86.796 4.5393
269.086853 86.831 4.4732
271.036774 86.863 4.3973
273.000824 86.894 4.3133
274.979095 86.925 4.2247
276.971710 86.956 4.1253
278.978760 86.987 4.0076
281.000336 87.016 3.8784
283.036591 87.039 3.7407
285.087585 87.060 3.5984
287.153442 87.079 3.4568
289.234283 87.097 3.3154
291.330200 87.112 3.1746
293.441284 87.125 3.0364
295.567688 87.137 2.9045
297.709503 87.149 2.7733
299.866821 87.163 2.6394
302.039795 87.176 2.5004
304.228485 87.188 2.3533
306.433044 87.199 2.1965
308.653595 87.210 2.0276
310.890228 87.220 1.8455
313.143066 87.226 1.6450
315.412231 87.229 1.4356
317.697845 87.226 1.2237
320.000000 87.218 1.0136
322.318848 87.207 0.8121
324.654510 87.192 0.6186
327.007080 87.175 0.4333
329.376709 87.154 0.2605
331.763519 87.129 0.1063
334.167603 87.102 -0.0336
336.589142 87.077 -0.1610
339.028198 87.049 -0.2767
341.484924 87.017 -0.3852
343.959473 86.982 -0.4768
346.451935 86.943 -0.5434
348.962463 86.901 -0.5849
351.491211 86.859 -0.6001
354.038239 86.816 -0.5841
356.603760 86.770 -0.5310
359.187866 86.723 -0.4423
361.790680 86.680 -0.3150
364.412354 86.640 -0.1565
367.053040 86.603 0.0267
369.712860 86.569 0.2343
372.391968 86.539 0.4672
375.090454 86.514 0.7163
377.808533 86.497 0.9753
380.546265 86.485 1.2362
383.303864 86.477 1.4893
386.081451 86.474 1.7333
388.879150 86.475 1.9648
391.697144 86.479 2.1804
394.535522 86.486 2.3752
397.394501 86.495 2.5495
400.274170 86.503 2.7014
403.174744 86.511 2.8326
406.096313 86.518 2.9403
409.039062 86.522 3.0367
412.003113 86.519 3.1290
414.988647 86.512 3.2296
417.995850 86.502 3.3547
421.024811 86.492 3.5005
424.075714 86.483 3.6712
427.148743 86.476 3.8594
430.244049 86.473 4.0605
433.361786 86.474 4.2703
436.502106 86.477 4.4861
439.665161 86.484 4.6993
442.851166 86.497 4.9018
446.060242 86.512 5.0904
449.292572 86.527 5.2571
452.548340 86.543 5.4095
455.827698 86.558 5.5522
459.130798 86.572 5.6876
462.457855 86.585 5.8194
465.809021 86.599 5.9476
469.184448 86.614 6.0744
472.584381 86.629 6.1966
476.008911 86.646 6.3128
479.458252 86.663 6.4207
482.932617 86.681 6.5185
486.432159 86.699 6.6038
489.957031 86.718 6.6722
493.507477 86.735 6.7278
497.083618 86.749 6.7693
500.685699 86.760 6.8089
504.313873 86.765 6.8589
507.968323 86.769 6.9178
511.649292 86.776 6.9896
515.356934 86.783 7.0687
519.091370 86.789 7.1488
522.852966 86.795 7.2357
526.641724 86.800 7.3351
530.458008 86.807 7.4406
534.301941 86.818 7.5489
538.173706 86.831 7.6566
542.073547 86.844 7.7602
546.001648 86.858 7.8577
549.958191 86.876 7.9478
553.943420 86.895 8.0248
557.957520 86.915 8.0821
562.000671 86.936 8.1209
566.073181 86.955 8.1392
570.175171 86.972 8.1400
574.306885 86.987 8.1241
578.468567 86.998 8.0971
582.660400 87.005 8.0621
586.882568 87.007 8.0281
591.135376 87.004 8.0051
595.419006 86.998 7.9930
599.733643 86.991 7.9950
604.079590 86.983 8.0109
608.456970 86.972 8.0431
612.866089 86.960 8.0878
617.307190 86.950 8.1431
621.780457 86.939 8.2058
626.286133 86.926 8.2673
630.824463 86.910 8.3427
635.395691 86.886 8.4409
640.000000 86.859 8.5725
644.637695 86.830 8.7517
649.309021 86.801 8.9771
654.014160 86.775 9.2542
658.753418 86.752 9.5768
663.527039 86.735 9.9466
668.335205 86.726 10.3466
673.178284 86.730 10.7641
678.056396 86.743 11.1876
682.969849 86.763 11.6047
687.918945 86.792 12.0046
692.903870 86.831 12.3747
697.924927 86.877 12.7089
702.982422 86.924 12.9929
708.076477 86.972 13.2392
713.207520 87.017 13.4541
718.375732 87.062 13.6414
723.581360 87.106 13.8055
728.824707 87.148 13.9505
734.106079 87.187 14.0788
739.425720 87.223 14.2006
744.783936 87.255 14.3269
750.180908 87.286 14.4575
755.617065 87.318 14.5978
761.092529 87.351 14.7425
766.607727 87.385 14.8883
772.162903 87.421 15.0345
777.758301 87.457 15.1798
783.394287 87.495 15.3225
789.071045 87.534 15.4605
794.789001 87.575 15.5935
800.548340 87.616 15.7188
806.349487 87.657 15.8416
812.192627 87.697 15.9684
818.078125 87.740 16.0936
824.006226 87.787 16.2153
829.977295 87.837 16.3286
835.991699 87.887 16.4274
842.049622 87.939 16.5127
848.151428 87.993 16.5859
854.297485 88.050 16.6398
860.488098 88.109 16.6671
866.723572 88.168 16.6690
873.004211 88.225 16.6430
879.330322 88.280 16.5932
885.702332 88.334 16.5223
892.120483 88.385 16.4333
898.585144 88.432 16.3278
905.096680 88.475 16.2124
911.655396 88.514 16.0935
918.261597 88.549 15.9744
924.915710 88.581 15.8569
931.618042 88.609 15.7523
938.368896 88.630 15.6709
945.168762 88.648 15.6181
952.017822 88.668 15.6059
958.916504 88.690 15.6249
965.865234 88.717 15.6725
972.864319 88.749 15.7397
979.914062 88.788 15.8221
987.014954 88.835 15.9037
994.167236 88.891 15.9724
1001.371399 88.955 16.0129
1008.627747 89.026 16.0067
1015.936646 89.101 15.9523
1023.298584 89.175 15.8401
1030.713867 89.249 15.6766
1038.182739 89.319 15.4625
1045.705933 89.385 15.2072
1053.283447 89.445 14.9175
1060.916016 89.499 14.6024
1068.603882 89.547 14.2721
1076.347412 89.591 13.9294
1084.147095 89.630 13.5805
1092.003296 89.665 13.2252
1099.916382 89.697 12.8644
1107.886841 89.725 12.5005
1115.915039 89.747 12.1356
1124.001343 89.766 11.7723
1132.146362 89.782 11.4143
1140.350342 89.794 11.0603
1148.613770 89.803 10.7094
1156.937134 89.808 10.3654
1165.320801 89.809 10.0310
1173.765137 89.807 9.7094
1182.270752 89.801 9.4055
1190.838013 89.793 9.1171
1199.467285 89.785 8.8444
1208.159180 89.776 8.5860
1216.913940 89.764 8.3385
1225.732178 89.750 8.1078
1234.614380 89.733 7.8992
1243.560913 89.716 7.7107
1252.572266 89.700 7.5449
1261.648926 89.684 7.3936
1270.791382 89.671 7.2487
1280.000000 89.658 7.1125
1289.275391 89.643 6.9829
1298.618042 89.627 6.8645
1308.028320 89.611 6.7616
1317.506836 89.595 6.6724
1327.054077 89.580 6.5966
1336.670410 89.565 6.5332
1346.356567 89.550 6.4814
1356.112793 89.537 6.4401
1365.939697 89.526 6.4101
1375.837891 89.516 6.3861
1385.807739 89.509 6.3639
1395.849854 89.504 6.3411
1405.964844 89.499 6.3132
1416.152954 89.494 6.2821
1426.415039 89.489 6.2478
1436.751465 89.483 6.2111
1447.162720 89.477 6.1717
1457.649414 89.470 6.1331
1468.212158 89.460 6.0976
1478.851440 89.448 6.0701
1489.567871 89.434 6.0568
1500.361816 89.419 6.0560
1511.234131 89.405 6.0668
1522.185059 89.390 6.0919
1533.215454 89.372 6.1320
1544.325806 89.354 6.1917
1555.516602 89.336 6.2759
1566.788574 89.319 6.3835
1578.142090 89.303 6.5142
1589.578003 89.287 6.6703
1601.096680 89.272 6.8553
1612.698975 89.261 7.0651
1624.385254 89.256 7.2981
1636.156250 89.255 7.5499
1648.012451 89.258 7.8159
1659.954590 89.266 8.0940
1671.983398 89.280 8.3836
1684.099243 89.301 8.6748
1696.302856 89.330 8.9598
1708.594971 89.366 9.2308
1720.976196 89.408 9.4793
1733.447144 89.455 9.6991
1746.008423 89.507 9.8818
1758.660645 89.563 10.0265
1771.404663 89.619 10.1277
1784.240967 89.674 10.1908
1797.170288 89.727 10.2177
1810.193359 89.778 10.2131
1823.310791 89.825 10.1797
1836.523193 89.868 10.1252
1849.831421 89.904 10.0536
1863.236084 89.935 9.9793
1876.737793 89.958 9.9159
1890.337524 89.976 9.8701
1904.035645 89.991 9.8520
1917.833008 90.004 9.8659
1931.730469 90.013 9.9204
1945.728638 90.023 10.0125
1959.828125 90.038 10.1473
1974.029907 90.059 10.3093
1988.334473 90.086 10.4860
2002.742798 90.119 10.6732
2017.255493 90.155 10.8639
2031.873291 90.197 11.0543
2046.597168 90.244 11.2384
2061.427734 90.295 11.4152
2076.365479 90.347 11.5795
2091.411865 90.402 11.7383
2106.566895 90.457 11.8952
2121.832031 90.514 12.0563
2137.207764 90.572 12.2313
2152.694824 90.635 12.4133
2168.294189 90.707 12.6013
2184.006592 90.786 12.7872
2199.832764 90.869 12.9649
2215.773682 90.960 13.1264
2231.830078 91.061 13.2647
2248.002686 91.171 13.3696
2264.292725 91.285 13.4270
2280.700684 91.403 13.4410
2297.227539 91.524 13.4134
2313.874268 91.649 13.3374
2330.641602 91.782 13.2113
2347.530273 91.918 13.0220
2364.541504 92.059 12.7547
2381.676025 92.198 12.4127
2398.934570 92.334 11.9927
2416.318359 92.464 11.5004
2433.827881 92.591 10.9384
2451.464355 92.710 10.3127
2469.228760 92.818 9.6257
2487.121826 92.917 8.8912
2505.144531 93.004 8.1182
2523.297852 93.080 7.3236
2541.582764 93.141 6.5248
2560.000000 93.192 5.7295
2578.550781 93.235 4.9516
2597.236084 93.271 4.1905
2616.056641 93.300 3.4494
2635.013672 93.322 2.7310
2654.108154 93.339 2.0385
2673.340820 93.351 1.3738
2692.713135 93.358 0.7382
2712.225586 93.360 0.1367
2731.879395 93.358 -0.4271
2751.675781 93.353 -0.9477
2771.615479 93.345 -1.4171
2791.699707 93.338 -1.8382
2811.929688 93.334 -2.2094
2832.305908 93.333 -2.5376
2852.830078 93.338 -2.8268
2873.502930 93.349 -3.0839
2894.325439 93.367 -3.3128
2915.298828 93.393 -3.5270
2936.424316 93.430 -3.7361
2957.702881 93.478 -3.9560
2979.135742 93.535 -4.2044
3000.723633 93.601 -4.4857
3022.468262 93.671 -4.8071
3044.370117 93.748 -5.1772
3066.430908 93.832 -5.6040
3088.651611 93.921 -6.0966
3111.033203 94.010 -6.6679
3133.577148 94.098 -7.3147
3156.284180 94.183 -8.0399
3179.156006 94.263 -8.8390
3202.193359 94.335 -9.7125
3225.397949 94.398 -10.6484
3248.770508 94.447 -11.6423
3272.312500 94.483 -12.6723
3296.024902 94.502 -13.7202
3319.909180 94.506 -14.7702
3343.966797 94.497 -15.8044
3368.198486 94.474 -16.8103
3392.605713 94.438 -17.7721
3417.189941 94.392 -18.6819
3441.952393 94.338 -19.5273
3466.894287 94.278 -20.3057
3492.016846 94.213 -21.0083
3517.321289 94.146 -21.6422
3542.809326 94.083 -22.2096
3568.481934 94.021 -22.7158
3594.340576 93.960 -23.1650
3620.386719 93.903 -23.5632
3646.621582 93.854 -23.9128
3673.046387 93.812 -24.2286
3699.662842 93.780 -24.5238
3726.472168 93.754 -24.8057
3753.475586 93.734 -25.0863
3780.675049 93.720 -25.3647
3808.071289 93.710 -25.6419
3835.666016 93.706 -25.9246
3863.460938 93.709 -26.2186
3891.457275 93.718 -26.5285
3919.656250 93.730 -26.8609
3948.059814 93.745 -27.2153
3976.668945 93.763 -27.5920
4005.485596 93.784 -27.9950
4034.510986 93.808 -28.4272
4063.746582 93.833 -28.8917
4093.194336 93.860 -29.3935
4122.855469 93.886 -29.9303
4152.730957 93.909 -30.5052
4182.823730 93.929 -31.1061
4213.133789 93.943 -31.7246
4243.664062 93.952 -32.3520
4274.415527 93.958 -32.9760
4305.389648 93.961 -33.5990
4336.588379 93.964 -34.2198
4368.013184 93.966 -34.8371
4399.665527 93.966 -35.4489
4431.547363 93.966 -36.0560
4463.660156 93.967 -36.6552
4496.005371 93.971 -37.2560
4528.585449 93.978 -37.8656
4561.401367 93.988 -38.4880
4594.455078 93.998 -39.1309
4627.748535 94.009 -39.7907
4661.283203 94.019 -40.4688
4695.060547 94.029 -41.1586
4729.083008 94.036 -41.8540
4763.352051 94.043 -42.5556
4797.869141 94.053 -43.2599
4832.636719 94.066 -43.9744
4867.655762 94.082 -44.7033
4902.928711 94.102 -45.4533
4938.457520 94.125 -46.2270
4974.243652 94.154 -47.0400
5010.289062 94.191 -47.9038
5046.595703 94.232 -48.8331
5083.165527 94.275 -49.8468
5120.000000 94.318 -50.9454
5157.101562 94.356 -52.1390
5194.472168 94.387 -53.4185
5232.113281 94.409 -54.7822
5270.027344 94.420 -56.2176
5308.216309 94.418 -57.7141
5346.681641 94.403 -59.2653
5385.426270 94.377 -60.8636
5424.451172 94.337 -62.5029
5463.758789 94.282 -64.1743
5503.351562 94.212 -65.8786
5543.230957 94.133 -67.6166
5583.399414 94.037 -69.3793
5623.859375 93.919 -71.1630
5664.611816 93.782 -72.9523
5705.660156 93.628 -74.7325
5747.005859 93.453 -76.4970
5788.650879 93.257 -78.2464
5830.597656 93.035 -79.9424
5872.848633 92.781 -81.5559
5915.405762 92.501 -83.0596
5958.271484 92.203 -84.4228
6001.447266 91.884 -85.6272
6044.936523 91.543 -86.6520
6088.740234 91.186 -87.4744
6132.861816 90.814 -88.0624
6177.303223 90.437 -88.4238
6222.066406 90.064 -88.5496
6267.154297 89.699 -88.4580
6312.568359 89.343 -88.1534
6358.312012 89.007 -87.6688
6404.386719 88.701 -87.0269
6450.795898 88.424 -86.2642
6497.541016 88.179 -85.4162
6544.625000 87.964 -84.5096
6592.049805 87.781 -83.5750
6639.818359 87.628 -82.6358
6687.933594 87.505 -81.7218
6736.396973 87.407 -80.8454
6785.211426 87.332 -80.0251
6834.379883 87.277 -79.2727
6883.904785 87.245 -78.6033
6933.788574 87.230 -78.0247
6984.033691 87.228 -77.5454
7034.642578 87.240 -77.1785
7085.618652 87.268 -76.9352
7136.963867 87.307 -76.8302
7188.681152 87.353 -76.8771
7240.773438 87.404 -77.0905
7293.243164 87.460 -77.4862
7346.092773 87.513 -78.0736
7399.325684 87.558 -78.8715
7452.944336 87.588 -79.8675
7506.951172 87.596 -81.0699
7561.350098 87.574 -82.4346
7616.142578 87.512 -83.9369
7671.332031 87.411 -85.5267
7726.921875 87.268 -87.1614
7782.914551 87.082 -88.7927
7839.312500 86.848 -90.3785
7896.119629 86.567 -91.8586
7953.337891 86.236 -93.1702
8010.971191 85.866 -94.2788
8069.021973 85.463 -95.1316
8127.493164 85.030 -95.7206
8186.388672 84.576 -96.0313
8245.710938 84.099 -96.0319
8305.461914 83.594 -95.6892
8365.647461 83.080 -94.9926
8426.267578 82.571 -93.9134
8487.328125 82.070 -92.4725
8548.831055 81.580 -90.6803
8610.779297 81.111 -88.5422
8673.176758 80.670 -86.0541
8736.026367 80.271 -83.2559
8799.331055 79.927 -80.1568
8863.094727 79.650 -76.8459
8927.320312 79.457 -73.3917
8992.010742 79.340 -69.8677
9057.170898 79.299 -66.3557
9122.802734 79.328 -62.8990
9188.910156 79.424 -59.5551
9255.497070 79.579 -56.3628
9322.566406 79.789 -53.3824
9390.121094 80.041 -50.6071
9458.166016 80.315 -48.0526
9526.704102 80.620 -45.7098
9595.738281 80.962 -43.5694
9665.273438 81.333 -41.6476
9735.311523 81.729 -39.9569
9805.857422 82.150 -38.5002
9876.915039 82.590 -37.2685
9948.487305 83.056 -36.3104
10020.578125 83.557 -35.6558
10093.191406 84.075 -35.3536
10166.331055 84.598 -35.4659
10240.000000 85.117 -35.9842
10314.203125 85.621 -36.9195
10388.944336 86.103 -38.2736
10464.226562 86.558 -40.0611
10540.054688 86.973 -42.2518
10616.432617 87.331 -44.8465
10693.363281 87.628 -47.7687
10770.852539 87.859 -50.9725
10848.902344 88.018 -54.3692
10927.517578 88.097 -57.8879
11006.703125 88.098 -61.4299
11086.461914 88.022 -64.9028
11166.798828 87.870 -68.2162
11247.718750 87.642 -71.2719
11329.223633 87.350 -74.0009
11411.320312 86.999 -76.3150
11494.011719 86.601 -78.1753
11577.301758 86.163 -79.5080
11661.195312 85.709 -80.3289
11745.697266 85.256 -80.6018
11830.811523 84.824 -80.4092
11916.542969 84.435 -79.7865
12002.894531 84.102 -78.8410
12089.873047 83.846 -77.6517
12177.480469 83.669 -76.3396
12265.723633 83.584 -75.0212
12354.606445 83.575 -73.7902
12444.132812 83.637 -72.7620
12534.308594 83.752 -71.9884
12625.136719 83.910 -71.5547
12716.624023 84.091 -71.4744
12808.773438 84.277 -71.8042
12901.591797 84.454 -72.4981
12995.082031 84.600 -73.5385
13089.250000 84.717 -74.8964
13184.099609 84.809 -76.5589
13279.636719 84.854 -78.4597
13375.867188 84.830 -80.5569
13472.793945 84.744 -82.7633
13570.422852 84.601 -85.0154
13668.759766 84.388 -87.2004
13767.809570 84.090 -89.2312
13867.577148 83.716 -90.9660
13968.067383 83.267 -92.2625
14069.285156 82.754 -93.0343
14171.237305 82.185 -93.1809
14273.927734 81.571 -92.6041
14377.362305 80.908 -91.1651
14481.546875 80.251 -88.8860
14586.486328 79.638 -85.6722
14692.185547 79.131 -81.7377
14798.651367 78.799 -77.1851
14905.888672 78.658 -72.2593
15013.902344 78.749 -67.1492
15122.700195 79.065 -62.1288
15232.285156 79.635 -57.4535
15342.664062 80.382 -53.3695
15453.843750 81.258 -50.1835
15565.829102 82.202 -47.9721
15678.625000 83.141 -46.9404
15792.239258 84.054 -47.0017
15906.675781 84.895 -48.1820
16021.942383 85.662 -50.3448
16138.043945 86.343 -53.4148
16254.986328 86.928 -57.2309
16372.777344 87.399 -61.6666
16491.421875 87.761 -66.5430
16610.923828 88.009 -71.6683
16731.294922 88.156 -76.9530
16852.535156 88.216 -82.2645
16974.656250 88.185 -87.5423
17097.662109 88.065 -92.7062
17221.558594 87.859 -97.6825
17346.353516 87.571 -102.3790
17472.052734 87.212 -106.7703
17598.662109 86.798 -110.8011
17726.189453 86.333 -114.4708
17854.640625 85.822 -117.7574
17984.021484 85.272 -120.6709
18114.341797 84.693 -123.2099
18245.605469 84.088 -125.3867
18377.820312 83.467 -127.2221
18510.994141 82.827 -128.6886
18645.132812 82.167 -129.7658
18780.242188 81.500 -130.4514
18916.332031 80.840 -130.7381
19053.408203 80.182 -130.6218
19191.476562 79.520 -130.0917
19330.546875 78.870 -129.1591
19470.623047 78.241 -127.7989
19611.714844 77.655 -126.1104
19753.830078 77.142 -124.1563
19896.974609 76.694 -122.0243
