* Measurement data measured by REW V5.20.13
* Source: C:\Users\kurin\Desktop\Targets and Curves\Resolve\Img\Files\Grado Hemp_SPL.txt
* Format: Comma/Tab/Space delimited data
* Dated: Aug 14, 2023 4:19:09 PM
* REW Settings:
*  C-weighting compensation: Off
*  Target level: 75.0 dB
* Note: ; Measurement imported from C:\Users\kurin\Desktop\Targets and Curves\Resolve\Img\Files\Grado Hemp_SPL.txt Format: Comma/Tab/Space delimited data 623 values loaded, 5 Hz to 39,792 Hz log spaced 
* Measurement: Grado Hemp_SPL
* Smoothing: 1/48 octave
* Frequency Step: 1/96 octave
* Start Frequency: 5.000 Hz
*
* Freq(Hz) SPL(dB) Phase(degrees)
5.000000 62.312 103.6650
5.036232 62.346 103.6437
5.072727 62.383 103.6210
5.109486 62.426 103.5952
5.146511 62.475 103.5660
5.183805 62.534 103.5315
5.221369 62.599 103.4950
5.259205 62.666 103.4599
5.297316 62.736 103.4240
5.335702 62.810 103.3853
5.374367 62.886 103.3460
5.413311 62.961 103.3084
5.452538 63.037 103.2710
5.492050 63.112 103.2331
5.531847 63.188 103.1950
5.571934 63.263 103.1566
5.612310 63.339 103.1180
5.652979 63.414 103.0796
5.693943 63.490 103.0410
5.735204 63.565 103.0016
5.776763 63.641 102.9620
5.818624 63.716 102.9226
5.860788 63.792 102.8830
5.903258 63.867 102.8426
5.946035 63.943 102.8020
5.989123 64.019 102.7616
6.032523 64.094 102.7210
6.076237 64.169 102.6796
6.120268 64.244 102.6380
6.164618 64.319 102.5966
6.209289 64.395 102.5550
6.254284 64.470 102.5127
6.299605 64.546 102.4700
6.345255 64.621 102.4271
6.391235 64.697 102.3840
6.437549 64.772 102.3407
6.484198 64.848 102.2970
6.531185 64.923 102.2526
6.578513 64.999 102.2080
6.626183 65.074 102.1636
6.674199 65.150 102.1190
6.722563 65.225 102.0737
6.771278 65.301 102.0280
6.820345 65.376 101.9821
6.869768 65.452 101.9360
6.919549 65.528 101.8897
6.969691 65.603 101.8430
7.020196 65.678 101.7957
7.071068 65.753 101.7480
7.122308 65.828 101.7001
7.173919 65.904 101.6520
7.225904 65.979 101.6037
7.278266 66.055 101.5550
7.331007 66.130 101.5057
7.384131 66.206 101.4560
7.437639 66.281 101.4061
7.491535 66.357 101.3560
7.545822 66.432 101.3057
7.600502 66.508 101.2550
7.655579 66.583 101.2037
7.711054 66.659 101.1520
7.766932 66.734 101.1002
7.823214 66.810 101.0480
7.879904 66.885 100.9952
7.937005 66.961 100.9420
7.994520 67.037 100.8887
8.052452 67.112 100.8350
8.110803 67.187 100.7808
8.169578 67.262 100.7260
8.228777 67.337 100.6707
8.288406 67.413 100.6150
8.348468 67.488 100.5592
8.408964 67.564 100.5030
8.469899 67.639 100.4462
8.531276 67.715 100.3890
8.593097 67.790 100.3317
8.655366 67.866 100.2740
8.718086 67.941 100.2158
8.781260 68.017 100.1570
8.844893 68.092 100.0978
8.908987 68.168 100.0380
8.973545 68.243 99.9777
9.038571 68.319 99.9170
9.104069 68.394 99.8562
9.170040 68.470 99.7950
9.236490 68.546 99.7333
9.303422 68.621 99.6710
9.370838 68.696 99.6083
9.438744 68.771 99.5450
9.507140 68.846 99.4813
9.576033 68.922 99.4170
9.645425 68.997 99.3522
9.715320 69.073 99.2870
9.785721 69.148 99.2218
9.856632 69.224 99.1560
9.928058 69.299 99.0893
10.000000 69.375 99.0220
10.072464 69.450 98.9542
10.145453 69.526 98.8861
10.218971 69.601 98.8178
10.293022 69.677 98.7490
10.367610 69.753 98.6793
10.442738 69.828 98.6090
10.518411 69.903 98.5383
10.594631 69.979 98.4670
10.671404 70.055 98.3953
10.748734 70.130 98.3230
10.826623 70.205 98.2503
10.905077 70.280 98.1771
10.984100 70.355 98.1028
11.063695 70.431 98.0280
11.143867 70.506 97.9533
11.224621 70.582 97.8780
11.305959 70.657 97.8019
11.387886 70.733 97.7251
11.470407 70.808 97.6479
11.553527 70.884 97.5700
11.637249 70.959 97.4914
11.721577 71.035 97.4121
11.806517 71.110 97.3324
11.892071 71.186 97.2521
11.978246 71.261 97.1709
12.065045 71.337 97.0890
12.152473 71.413 97.0068
12.240536 71.488 96.9240
12.329235 71.563 96.8404
12.418578 71.638 96.7561
12.508568 71.713 96.6714
12.599211 71.789 96.5860
12.690510 71.864 96.4999
12.782471 71.940 96.4131
12.875097 72.015 96.3254
12.968395 72.091 96.2371
13.062370 72.166 96.1484
13.157025 72.242 96.0590
13.252366 72.317 95.9690
13.348398 72.393 95.8781
13.445127 72.468 95.7860
13.542556 72.544 95.6931
13.640691 72.619 95.5999
13.739536 72.695 95.5060
13.839099 72.770 95.4114
13.939383 72.846 95.3161
14.040393 72.922 95.2199
14.142136 72.997 95.1230
14.244616 73.072 95.0254
14.347837 73.147 94.9270
14.451808 73.222 94.8280
14.556532 73.298 94.7280
14.662014 73.373 94.6271
14.768262 73.449 94.5251
14.875278 73.524 94.4220
14.983070 73.600 94.3181
15.091644 73.675 94.2140
15.201005 73.751 94.1091
15.311157 73.826 94.0026
15.422109 73.902 93.8951
15.533863 73.977 93.7869
15.646428 74.053 93.6781
15.759809 74.128 93.5686
15.874010 74.204 93.4581
15.989040 74.279 93.3461
16.104904 74.355 93.2331
16.221605 74.430 93.1196
16.339155 74.506 93.0051
16.457554 74.581 92.8897
16.576813 74.656 92.7731
16.696936 74.731 92.6551
16.817928 74.807 92.5361
16.939798 74.882 92.4167
17.062551 74.958 92.2962
17.186193 75.033 92.1737
17.310732 75.109 92.0501
17.436172 75.184 91.9261
17.562521 75.260 91.8011
17.689787 75.335 91.6748
17.817974 75.411 91.5471
17.947090 75.486 91.4178
18.077143 75.562 91.2871
18.208138 75.637 91.1552
18.340080 75.713 91.0221
18.472980 75.788 90.8879
18.606844 75.864 90.7521
18.741676 75.940 90.6145
18.877487 76.015 90.4751
19.014280 76.090 90.3342
19.152065 76.165 90.1912
19.290850 76.240 90.0458
19.430639 76.316 89.8981
19.571442 76.391 89.7484
19.713264 76.466 89.5962
19.856115 76.541 89.4407
20.000000 76.615 89.2832
20.144928 76.689 89.1245
20.290907 76.762 88.9651
20.437943 76.834 88.8057
20.586044 76.906 88.6471
20.735220 76.977 88.4901
20.885475 77.048 88.3362
21.036821 77.118 88.1872
21.189262 77.189 88.0422
21.342808 77.260 87.9005
21.497467 77.331 87.7622
21.653246 77.403 87.6275
21.810154 77.476 87.4952
21.968201 77.550 87.3652
22.127390 77.625 87.2342
22.287735 77.702 87.0984
22.449242 77.779 86.9581
22.611917 77.856 86.8122
22.775772 77.934 86.6612
22.940815 78.012 86.5051
23.107054 78.090 86.3442
23.274498 78.167 86.1782
23.443153 78.245 86.0082
23.613033 78.323 85.8354
23.784142 78.401 85.6591
23.956491 78.479 85.4787
24.130091 78.556 85.2952
24.304947 78.633 85.1094
24.481071 78.710 84.9222
24.658470 78.787 84.7360
24.837156 78.865 84.5473
25.017136 78.944 84.3533
25.198421 79.023 84.1542
25.381020 79.102 83.9493
25.564941 79.181 83.7382
25.750195 79.261 83.5214
25.936790 79.341 83.2963
26.124741 79.421 83.0600
26.314051 79.500 82.8144
26.504732 79.578 82.5600
26.696796 79.655 82.2983
26.890253 79.731 82.0299
27.085112 79.805 81.7573
27.281382 79.878 81.4828
27.479073 79.950 81.2074
27.678198 80.021 80.9331
27.878765 80.091 80.6584
28.080786 80.161 80.3823
28.284271 80.231 80.1044
28.489231 80.300 79.8239
28.695675 80.369 79.5404
28.903616 80.437 79.2532
29.113064 80.505 78.9624
29.324028 80.571 78.6676
29.536524 80.636 78.3703
29.750557 80.699 78.0720
29.966141 80.762 77.7723
30.183289 80.824 77.4714
30.402010 80.884 77.1704
30.622314 80.942 76.8695
30.844217 80.999 76.5723
31.067726 81.054 76.2821
31.292856 81.107 75.9994
31.519617 81.160 75.7261
31.748020 81.212 75.4623
31.978081 81.263 75.2074
32.209808 81.313 74.9653
32.443211 81.362 74.7410
32.678310 81.413 74.5303
32.915108 81.467 74.3331
33.153625 81.524 74.1422
33.393871 81.584 73.9510
33.635857 81.646 73.7583
33.879597 81.708 73.5622
34.125103 81.773 73.3593
34.372387 81.841 73.1469
34.621464 81.911 72.9204
34.872345 81.982 72.6725
35.125042 82.052 72.4073
35.379574 82.120 72.1246
35.635948 82.186 71.8294
35.894180 82.250 71.5252
36.154285 82.312 71.2154
36.416275 82.371 70.9047
36.680161 82.428 70.5935
36.945961 82.485 70.2835
37.213688 82.540 69.9764
37.483353 82.592 69.6743
37.754974 82.644 69.3774
38.028561 82.695 69.0886
38.304131 82.747 68.8034
38.581699 82.800 68.5178
38.861279 82.853 68.2334
39.142883 82.903 67.9502
39.426529 82.952 67.6694
39.712231 83.002 67.3932
40.000000 83.053 67.1194
40.289856 83.103 66.8461
40.581814 83.152 66.5744
40.875885 83.200 66.3055
41.172089 83.249 66.0374
41.470440 83.299 65.7691
41.770950 83.349 65.4995
42.073643 83.397 65.2259
42.378525 83.444 64.9524
42.685616 83.489 64.6820
42.994934 83.534 64.4144
43.306492 83.578 64.1493
43.620308 83.621 63.8894
43.936401 83.661 63.6353
44.254780 83.699 63.3934
44.575470 83.735 63.1702
44.898483 83.771 62.9653
45.223835 83.808 62.7807
45.551544 83.845 62.6162
45.881630 83.884 62.4720
46.214108 83.924 62.3492
46.548996 83.966 62.2508
46.886307 84.012 62.1711
47.226067 84.064 62.1088
47.568283 84.122 62.0541
47.912983 84.186 61.9988
48.260181 84.257 61.9361
48.609894 84.334 61.8574
48.962143 84.416 61.7592
49.316940 84.501 61.6363
49.674313 84.591 61.4843
50.034271 84.685 61.2976
50.396843 84.781 61.0744
50.762039 84.877 60.8095
51.129883 84.973 60.5075
51.500389 85.067 60.1702
51.873581 85.159 59.8007
52.249481 85.249 59.4017
52.628101 85.336 58.9757
53.009464 85.419 58.5241
53.393593 85.499 58.0528
53.780506 85.574 57.5669
54.170223 85.646 57.0698
54.562763 85.714 56.5660
54.958145 85.778 56.0578
55.356396 85.839 55.5492
55.757530 85.898 55.0398
56.161572 85.955 54.5308
56.568542 86.011 54.0218
56.978462 86.064 53.5135
57.391350 86.115 53.0039
57.807232 86.166 52.4916
58.226128 86.215 51.9769
58.648056 86.262 51.4588
59.073048 86.306 50.9399
59.501114 86.348 50.4223
59.932281 86.388 49.9059
60.366577 86.426 49.3906
60.804020 86.462 48.8789
61.244629 86.496 48.3732
61.688435 86.528 47.8739
62.135452 86.559 47.3829
62.585712 86.590 46.8978
63.039234 86.620 46.4168
63.496040 86.649 45.9398
63.956161 86.677 45.4673
64.419617 86.705 44.9968
64.886421 86.733 44.5256
65.356621 86.761 44.0548
65.830215 86.787 43.5848
66.307251 86.811 43.1159
66.787743 86.835 42.6496
67.271713 86.858 42.1839
67.759193 86.881 41.7167
68.250206 86.902 41.2499
68.744774 86.921 40.7838
69.242928 86.938 40.3209
69.744690 86.954 39.8633
70.250084 86.968 39.4119
70.759148 86.981 38.9679
71.271896 86.993 38.5318
71.788361 87.004 38.1047
72.308571 87.015 37.6858
72.832550 87.025 37.2746
73.360321 87.034 36.8717
73.891922 87.043 36.4785
74.427376 87.053 36.0917
74.966705 87.064 35.7096
75.509949 87.076 35.3297
76.057121 87.088 34.9477
76.608261 87.099 34.5668
77.163399 87.109 34.1880
77.722557 87.118 33.8128
78.285767 87.127 33.4434
78.853058 87.137 33.0777
79.424461 87.147 32.7144
80.000000 87.157 32.3537
80.579712 87.167 31.9957
81.163628 87.176 31.6407
81.751770 87.185 31.2899
82.344177 87.195 30.9407
82.940880 87.206 30.5922
83.541901 87.218 30.2407
84.147285 87.231 29.8815
84.757050 87.244 29.5167
85.371231 87.255 29.1475
85.989868 87.265 28.7728
86.612984 87.276 28.3919
87.240616 87.287 28.0048
87.872803 87.295 27.6089
88.509560 87.301 27.2108
89.150940 87.304 26.8166
89.796967 87.305 26.4258
90.447670 87.306 26.0401
91.103088 87.305 25.6598
91.763260 87.302 25.2850
92.428215 87.298 24.9177
93.097992 87.293 24.5613
93.772614 87.288 24.2127
94.452133 87.283 23.8703
95.136566 87.278 23.5337
95.825966 87.272 23.2018
96.520363 87.266 22.8757
97.219788 87.260 22.5560
97.924286 87.253 22.2427
98.633881 87.246 21.9361
99.348625 87.240 21.6356
100.068542 87.234 21.3408
100.793686 87.228 21.0507
101.524078 87.223 20.7651
102.259766 87.219 20.4817
103.000778 87.216 20.1992
103.747162 87.213 19.9146
104.498962 87.211 19.6243
105.256203 87.210 19.3286
106.018929 87.208 19.0257
106.787186 87.206 18.7176
107.561012 87.202 18.4048
108.340446 87.197 18.0895
109.125526 87.190 17.7735
109.916290 87.182 17.4586
110.712791 87.172 17.1459
111.515060 87.160 16.8386
112.323143 87.146 16.5407
113.137085 87.132 16.2506
113.956924 87.119 15.9687
114.782700 87.105 15.6927
115.614464 87.091 15.4202
116.452255 87.076 15.1515
117.296112 87.062 14.8869
118.146095 87.048 14.6246
119.002228 87.034 14.3621
119.864563 87.019 14.1007
120.733154 87.003 13.8397
121.608040 86.985 13.5816
122.489258 86.967 13.3281
123.376869 86.947 13.0806
124.270905 86.926 12.8395
125.171425 86.903 12.6084
126.078468 86.879 12.3914
126.992081 86.854 12.1874
127.912323 86.830 11.9968
128.839233 86.806 11.8194
129.772842 86.781 11.6552
130.713242 86.756 11.5043
131.660431 86.733 11.3677
132.614502 86.712 11.2423
133.575485 86.692 11.1257
134.543427 86.674 11.0172
135.518387 86.657 10.9157
136.500412 86.642 10.8202
137.489548 86.628 10.7298
138.485855 86.616 10.6422
139.489380 86.607 10.5549
140.500168 86.599 10.4672
141.518295 86.593 10.3783
142.543793 86.588 10.2862
143.576721 86.585 10.1887
144.617142 86.584 10.0852
145.665100 86.583 9.9743
146.720642 86.582 9.8573
147.783844 86.582 9.7350
148.854752 86.582 9.6083
149.933411 86.583 9.4783
151.019897 86.584 9.3453
152.114243 86.585 9.2110
153.216522 86.587 9.0724
154.326797 86.592 8.9286
155.445114 86.599 8.7754
156.571533 86.607 8.6093
157.706116 86.616 8.4274
158.848923 86.627 8.2269
160.000000 86.638 8.0036
161.159424 86.649 7.7516
162.327255 86.659 7.4737
163.503540 86.665 7.1683
164.688354 86.667 6.8427
165.881760 86.664 6.5017
167.083801 86.656 6.1509
168.294571 86.643 5.7954
169.514099 86.624 5.4419
170.742462 86.600 5.0969
171.979736 86.570 4.7659
173.225967 86.536 4.4559
174.481232 86.499 4.1676
175.745605 86.459 3.9045
177.019119 86.418 3.6656
178.301880 86.376 3.4517
179.593933 86.334 3.2605
180.895340 86.292 3.0900
182.206177 86.250 2.9393
183.526520 86.209 2.8079
184.856430 86.168 2.6922
186.195984 86.130 2.5893
187.545227 86.093 2.4972
188.904266 86.057 2.4139
190.273132 86.022 2.3372
191.651932 85.989 2.2642
193.040726 85.957 2.1942
194.439575 85.925 2.1243
195.848572 85.893 2.0582
197.267761 85.860 1.9993
198.697250 85.827 1.9451
200.137085 85.797 1.8936
201.587372 85.766 1.8461
203.048157 85.733 1.8021
204.519531 85.699 1.7661
206.001556 85.665 1.7442
207.494324 85.632 1.7310
208.997925 85.602 1.7226
210.512405 85.572 1.7200
212.037857 85.541 1.7229
213.574371 85.510 1.7320
215.122025 85.481 1.7493
216.680893 85.453 1.7709
218.251053 85.426 1.7927
219.832581 85.399 1.8179
221.425583 85.372 1.8493
223.030121 85.345 1.8849
224.646286 85.321 1.9246
226.274170 85.297 1.9659
227.913849 85.274 2.0063
229.565399 85.251 2.0459
231.228928 85.230 2.0852
232.904510 85.209 2.1209
234.592224 85.189 2.1494
236.292191 85.169 2.1719
238.004456 85.148 2.1876
239.729126 85.125 2.1990
241.466309 85.101 2.2080
243.216080 85.075 2.2160
244.978516 85.047 2.2237
246.753738 85.017 2.2340
248.541809 84.985 2.2489
250.342850 84.949 2.2719
252.156937 84.910 2.3056
253.984161 84.868 2.3538
255.824646 84.823 2.4196
257.678467 84.774 2.5087
259.545685 84.722 2.6256
261.426483 84.666 2.7786
263.320862 84.606 2.9748
265.229004 84.544 3.2222
267.150970 84.481 3.5297
269.086853 84.417 3.9008
271.036774 84.355 4.3420
273.000824 84.296 4.8544
274.979095 84.243 5.4425
276.971710 84.199 6.1019
278.978760 84.166 6.8334
281.000336 84.146 7.6248
283.036591 84.144 8.4714
285.087585 84.161 9.3503
287.153442 84.202 10.2463
289.234283 84.267 11.1316
291.330200 84.356 11.9833
293.441284 84.469 12.7720
295.567688 84.606 13.4696
297.709503 84.762 14.0496
299.866821 84.934 14.4776
302.039795 85.114 14.7494
304.228485 85.297 14.8461
306.433044 85.477 14.7774
308.653595 85.651 14.5406
310.890228 85.813 14.1553
313.143066 85.958 13.6298
315.412231 86.086 12.9959
317.697845 86.191 12.2793
320.000000 86.275 11.5064
322.318848 86.338 10.7069
324.654510 86.383 9.8966
327.007080 86.410 9.0971
329.376709 86.422 8.3194
331.763519 86.419 7.5796
334.167603 86.403 6.8831
336.589142 86.378 6.2403
339.028198 86.344 5.6516
341.484924 86.304 5.1221
343.959473 86.258 4.6492
346.451935 86.210 4.2342
348.962463 86.160 3.8709
351.491211 86.110 3.5550
354.038239 86.059 3.2827
356.603760 86.009 3.0505
359.187866 85.960 2.8545
361.790680 85.913 2.6917
364.412354 85.867 2.5564
367.053040 85.825 2.4420
369.712860 85.785 2.3473
372.391968 85.744 2.2682
375.090454 85.705 2.2062
377.808533 85.668 2.1627
380.546265 85.633 2.1331
383.303864 85.600 2.1132
386.081451 85.569 2.1030
388.879150 85.538 2.1015
391.697144 85.509 2.1080
394.535522 85.482 2.1226
397.394501 85.457 2.1419
400.274170 85.433 2.1616
403.174744 85.410 2.1839
406.096313 85.387 2.2100
409.039062 85.365 2.2389
412.003113 85.345 2.2708
414.988647 85.326 2.3039
417.995850 85.307 2.3355
421.024811 85.288 2.3679
424.075714 85.269 2.4022
427.148743 85.250 2.4399
430.244049 85.231 2.4825
433.361786 85.211 2.5308
436.502106 85.192 2.5868
439.665161 85.173 2.6478
442.851166 85.157 2.7117
446.060242 85.141 2.7788
449.292572 85.125 2.8485
452.548340 85.109 2.9208
455.827698 85.095 2.9952
459.130798 85.081 3.0717
462.457855 85.067 3.1493
465.809021 85.052 3.2307
469.184448 85.038 3.3185
472.584381 85.024 3.4127
476.008911 85.011 3.5143
479.458252 84.998 3.6226
482.932617 84.987 3.7382
486.432159 84.977 3.8586
489.957031 84.970 3.9828
493.507477 84.964 4.1066
497.083618 84.961 4.2256
500.685699 84.959 4.3396
504.313873 84.958 4.4470
507.968323 84.958 4.5487
511.649292 84.958 4.6450
515.356934 84.958 4.7367
519.091370 84.958 4.8244
522.852966 84.958 4.9087
526.641724 84.958 4.9902
530.458008 84.958 5.0697
534.301941 84.958 5.1484
538.173706 84.958 5.2257
542.073547 84.958 5.3017
546.001648 84.958 5.3767
549.958191 84.958 5.4510
553.943420 84.958 5.5248
557.957520 84.958 5.5984
562.000671 84.958 5.6718
566.073181 84.958 5.7447
570.175171 84.958 5.8178
574.306885 84.958 5.8914
578.468567 84.958 5.9657
582.660400 84.958 6.0408
586.882568 84.958 6.1167
591.135376 84.958 6.1934
595.419006 84.958 6.2717
599.733643 84.958 6.3529
604.079590 84.958 6.4367
608.456970 84.958 6.5234
612.866089 84.959 6.6127
617.307190 84.960 6.7052
621.780457 84.963 6.7987
626.286133 84.967 6.8921
630.824463 84.973 6.9827
635.395691 84.979 7.0675
640.000000 84.986 7.1467
644.637695 84.993 7.2198
649.309021 85.000 7.2868
654.014160 85.007 7.3473
658.753418 85.013 7.4028
663.527039 85.019 7.4535
668.335205 85.023 7.5028
673.178284 85.025 7.5536
678.056396 85.027 7.6078
682.969849 85.029 7.6686
687.918945 85.030 7.7348
692.903870 85.031 7.8068
697.924927 85.033 7.8827
702.982422 85.037 7.9619
708.076477 85.042 8.0407
713.207520 85.048 8.1153
718.375732 85.055 8.1858
723.581360 85.061 8.2509
728.824707 85.068 8.3108
734.106079 85.075 8.3649
739.425720 85.082 8.4138
744.783936 85.088 8.4571
750.180908 85.092 8.4979
755.617065 85.095 8.5386
761.092529 85.097 8.5808
766.607727 85.098 8.6271
772.162903 85.099 8.6768
777.758301 85.099 8.7305
783.394287 85.099 8.7878
789.071045 85.099 8.8486
794.789001 85.099 8.9128
800.548340 85.099 8.9804
806.349487 85.099 9.0507
812.192627 85.099 9.1230
818.078125 85.099 9.1977
824.006226 85.099 9.2750
829.977295 85.099 9.3547
835.991699 85.099 9.4371
842.049622 85.099 9.5217
848.151428 85.099 9.6081
854.297485 85.099 9.6967
860.488098 85.099 9.7880
866.723572 85.099 9.8816
873.004211 85.099 9.9774
879.330322 85.099 10.0756
885.702332 85.099 10.1768
892.120483 85.099 10.2806
898.585144 85.099 10.3872
905.096680 85.099 10.4966
911.655396 85.099 10.6091
918.261597 85.099 10.7246
924.915710 85.099 10.8429
931.618042 85.099 10.9646
938.368896 85.099 11.0897
945.168762 85.099 11.2185
952.017822 85.099 11.3515
958.916504 85.099 11.4885
965.865234 85.099 11.6288
972.864319 85.099 11.7735
979.914062 85.099 11.9234
987.014954 85.099 12.0784
994.167236 85.099 12.2385
1001.371399 85.099 12.4044
1008.627747 85.099 12.5764
1015.936646 85.099 12.7552
1023.298584 85.099 12.9411
1030.713867 85.099 13.1354
1038.182739 85.099 13.3388
1045.705933 85.099 13.5531
1053.283447 85.099 13.7800
1060.916016 85.100 14.0199
1068.603882 85.102 14.2736
1076.347412 85.106 14.5409
1084.147095 85.111 14.8233
1092.003296 85.119 15.1170
1099.916382 85.130 15.4191
1107.886841 85.143 15.7287
1115.915039 85.158 16.0438
1124.001343 85.177 16.3638
1132.146362 85.199 16.6889
1140.350342 85.224 17.0148
1148.613770 85.253 17.3379
1156.937134 85.285 17.6567
1165.320801 85.319 17.9683
1173.765137 85.356 18.2727
1182.270752 85.396 18.5701
1190.838013 85.438 18.8569
1199.467285 85.483 19.1296
1208.159180 85.530 19.3880
1216.913940 85.577 19.6303
1225.732178 85.626 19.8582
1234.614380 85.675 20.0724
1243.560913 85.724 20.2743
1252.572266 85.773 20.4641
1261.648926 85.821 20.6453
1270.791382 85.868 20.8206
1280.000000 85.915 20.9923
1289.275391 85.962 21.1639
1298.618042 86.009 21.3343
1308.028320 86.056 21.5037
1317.506836 86.105 21.6713
1327.054077 86.154 21.8368
1336.670410 86.205 21.9994
1346.356567 86.256 22.1580
1356.112793 86.309 22.3124
1365.939697 86.362 22.4627
1375.837891 86.416 22.6074
1385.807739 86.471 22.7449
1395.849854 86.527 22.8765
1405.964844 86.583 23.0027
1416.152954 86.639 23.1236
1426.415039 86.696 23.2401
1436.751465 86.754 23.3506
1447.162720 86.813 23.4537
1457.649414 86.873 23.5496
1468.212158 86.933 23.6383
1478.851440 86.993 23.7187
1489.567871 87.054 23.7900
1500.361816 87.115 23.8518
1511.234131 87.175 23.9024
1522.185059 87.235 23.9448
1533.215454 87.293 23.9805
1544.325806 87.350 24.0129
1555.516602 87.405 24.0450
1566.788574 87.459 24.0788
1578.142090 87.512 24.1168
1589.578003 87.565 24.1608
1601.096680 87.616 24.2118
1612.698975 87.666 24.2747
1624.385254 87.715 24.3553
1636.156250 87.765 24.4525
1648.012451 87.817 24.5690
1659.954590 87.872 24.6995
1671.983398 87.930 24.8391
1684.099243 87.991 24.9894
1696.302856 88.053 25.1500
1708.594971 88.118 25.3212
1720.976196 88.187 25.5042
1733.447144 88.261 25.6961
1746.008423 88.339 25.8945
1758.660645 88.422 26.0991
1771.404663 88.509 26.3106
1784.240967 88.603 26.5251
1797.170288 88.705 26.7423
1810.193359 88.817 26.9522
1823.310791 88.938 27.1487
1836.523193 89.068 27.3194
1849.831421 89.211 27.4545
1863.236084 89.362 27.5398
1876.737793 89.524 27.5596
1890.337524 89.692 27.5074
1904.035645 89.865 27.3727
1917.833008 90.041 27.1521
1931.730469 90.220 26.8393
1945.728638 90.398 26.4320
1959.828125 90.574 25.9231
1974.029907 90.743 25.3197
1988.334473 90.905 24.6223
2002.742798 91.056 23.8433
2017.255493 91.196 22.9905
2031.873291 91.323 22.0787
2046.597168 91.434 21.1205
2061.427734 91.531 20.1304
2076.365479 91.613 19.1231
2091.411865 91.682 18.1112
2106.566895 91.735 17.1091
2121.832031 91.776 16.1270
2137.207764 91.806 15.1792
2152.694824 91.826 14.2685
2168.294189 91.838 13.4029
2184.006592 91.844 12.5816
2199.832764 91.844 11.8066
2215.773682 91.840 11.0789
2231.830078 91.831 10.4002
2248.002686 91.820 9.7705
2264.292725 91.808 9.1909
2280.700684 91.795 8.6592
2297.227539 91.783 8.1743
2313.874268 91.772 7.7337
2330.641602 91.763 7.3358
2347.530273 91.758 6.9765
2364.541504 91.757 6.6532
2381.676025 91.761 6.3593
2398.934570 91.772 6.0905
2416.318359 91.789 5.8371
2433.827881 91.813 5.5906
2451.464355 91.845 5.3430
2469.228760 91.884 5.0864
2487.121826 91.930 4.8122
2505.144531 91.982 4.5110
2523.297852 92.039 4.1776
2541.582764 92.099 3.8033
2560.000000 92.162 3.3889
2578.550781 92.225 2.9310
2597.236084 92.287 2.4344
2616.056641 92.347 1.9021
2635.013672 92.405 1.3365
2654.108154 92.461 0.7407
2673.340820 92.515 0.1158
2692.713135 92.565 -0.5367
2712.225586 92.613 -1.2158
2731.879395 92.658 -1.9186
2751.675781 92.701 -2.6486
2771.615479 92.741 -3.4078
2791.699707 92.778 -4.1974
2811.929688 92.809 -5.0213
2832.305908 92.834 -5.8739
2852.830078 92.851 -6.7532
2873.502930 92.859 -7.6520
2894.325439 92.858 -8.5658
2915.298828 92.848 -9.4848
2936.424316 92.826 -10.4019
2957.702881 92.794 -11.3051
2979.135742 92.751 -12.1827
3000.723633 92.697 -13.0274
3022.468262 92.636 -13.8292
3044.370117 92.566 -14.5846
3066.430908 92.490 -15.2874
3088.651611 92.409 -15.9372
3111.033203 92.324 -16.5296
3133.577148 92.236 -17.0705
3156.284180 92.149 -17.5636
3179.156006 92.059 -18.0110
3202.193359 91.968 -18.4166
3225.397949 91.874 -18.7784
3248.770508 91.779 -19.0951
3272.312500 91.681 -19.3679
3296.024902 91.584 -19.5988
3319.909180 91.483 -19.7843
3343.966797 91.380 -19.9245
3368.198486 91.272 -20.0097
3392.605713 91.159 -20.0342
3417.189941 91.042 -19.9854
3441.952393 90.920 -19.8537
3466.894287 90.795 -19.6243
3492.016846 90.665 -19.2869
3517.321289 90.534 -18.8185
3542.809326 90.398 -18.1984
3568.481934 90.265 -17.4091
3594.340576 90.138 -16.4236
3620.386719 90.026 -15.2490
3646.621582 89.938 -13.8745
3673.046387 89.880 -12.3268
3699.662842 89.861 -10.6141
3726.472168 89.888 -8.7817
3753.475586 89.969 -6.8565
3780.675049 90.108 -4.9018
3808.071289 90.312 -2.9708
3835.666016 90.575 -1.1215
3863.460938 90.896 0.5846
3891.457275 91.268 2.1053
3919.656250 91.686 3.3922
3948.059814 92.142 4.4030
3976.668945 92.634 5.0830
4005.485596 93.146 5.4212
4034.510986 93.663 5.3825
4063.746582 94.179 4.9857
4093.194336 94.686 4.2380
4122.855469 95.184 3.1412
4152.730957 95.670 1.6918
4182.823730 96.134 -0.0878
4213.133789 96.566 -2.1889
4243.664062 96.965 -4.5741
4274.415527 97.329 -7.2106
4305.389648 97.656 -10.0745
4336.588379 97.941 -13.1431
4368.013184 98.182 -16.3803
4399.665527 98.375 -19.7549
4431.547363 98.521 -23.2288
4463.660156 98.620 -26.7672
4496.005371 98.669 -30.3281
4528.585449 98.667 -33.8711
4561.401367 98.617 -37.3566
4594.455078 98.522 -40.7423
4627.748535 98.383 -43.9975
4661.283203 98.202 -47.0850
4695.060547 97.983 -49.9813
4729.083008 97.731 -52.6568
4763.352051 97.449 -55.0930
4797.869141 97.140 -57.2690
4832.636719 96.809 -59.1642
4867.655762 96.456 -60.7485
4902.928711 96.096 -62.0285
4938.457520 95.739 -62.9924
4974.243652 95.389 -63.6665
5010.289062 95.051 -64.0630
5046.595703 94.735 -64.2128
5083.165527 94.446 -64.1343
5120.000000 94.192 -63.8766
5157.101562 93.982 -63.4796
5194.472168 93.813 -62.9905
5232.113281 93.685 -62.4586
5270.027344 93.598 -61.9187
5308.216309 93.552 -61.4138
5346.681641 93.540 -60.9680
5385.426270 93.557 -60.6163
5424.451172 93.599 -60.3679
5463.758789 93.661 -60.2416
5503.351562 93.741 -60.2437
5543.230957 93.833 -60.3865
5583.399414 93.935 -60.6703
5623.859375 94.043 -61.1022
5664.611816 94.152 -61.6739
5705.660156 94.259 -62.3822
5747.005859 94.361 -63.2174
5788.650879 94.459 -64.1719
5830.597656 94.549 -65.2352
5872.848633 94.629 -66.3976
5915.405762 94.700 -67.6493
5958.271484 94.760 -68.9783
6001.447266 94.810 -70.3816
6044.936523 94.849 -71.8528
6088.740234 94.878 -73.3901
6132.861816 94.895 -74.9912
6177.303223 94.898 -76.6515
6222.066406 94.887 -78.3681
6267.154297 94.859 -80.1330
6312.568359 94.814 -81.9441
6358.312012 94.748 -83.7817
6404.386719 94.659 -85.6341
6450.795898 94.545 -87.4756
6497.541016 94.405 -89.2854
6544.625000 94.241 -91.0364
6592.049805 94.051 -92.7057
6639.818359 93.835 -94.2593
6687.933594 93.593 -95.6630
6736.396973 93.331 -96.8951
6785.211426 93.053 -97.9260
6834.379883 92.764 -98.7454
6883.904785 92.464 -99.3349
6933.788574 92.164 -99.6898
6984.033691 91.865 -99.7903
7034.642578 91.580 -99.6632
7085.618652 91.322 -99.3180
7136.963867 91.090 -98.7881
7188.681152 90.888 -98.0988
7240.773438 90.723 -97.2844
7293.243164 90.601 -96.3723
7346.092773 90.523 -95.4079
7399.325684 90.492 -94.4354
7452.944336 90.505 -93.4857
7506.951172 90.559 -92.5928
7561.350098 90.654 -91.7908
7616.142578 90.794 -91.1134
7671.332031 90.972 -90.5962
7726.921875 91.183 -90.2776
7782.914551 91.422 -90.1829
7839.312500 91.685 -90.3437
7896.119629 91.965 -90.7779
7953.337891 92.255 -91.5132
8010.971191 92.547 -92.5517
8069.021973 92.835 -93.9069
8127.493164 93.112 -95.5724
8186.388672 93.373 -97.5529
8245.710938 93.612 -99.8282
8305.461914 93.819 -102.3895
8365.647461 93.992 -105.2075
8426.267578 94.128 -108.2577
8487.328125 94.223 -111.5163
8548.831055 94.273 -114.9636
8610.779297 94.274 -118.5607
8673.176758 94.220 -122.2808
8736.026367 94.107 -126.0674
8799.331055 93.932 -129.8805
8863.094727 93.693 -133.6434
8927.320312 93.386 -137.3002
8992.010742 93.009 -140.7475
9057.170898 92.558 -143.9009
9122.802734 92.037 -146.6468
9188.910156 91.445 -148.8654
9255.497070 90.798 -150.4900
9322.566406 90.103 -151.4040
9390.121094 89.389 -151.6366
9458.166016 88.672 -151.1434
9526.704102 87.986 -150.0304
9595.738281 87.359 -148.3324
9665.273438 86.822 -146.2210
9735.311523 86.417 -143.8171
9805.857422 86.138 -141.3096
9876.915039 86.006 -138.8944
9948.487305 85.985 -136.6723
10020.578125 86.054 -134.8077
10093.191406 86.185 -133.3031
10166.331055 86.349 -132.2328
10240.000000 86.529 -131.5437
10314.203125 86.702 -131.2350
10388.944336 86.863 -131.2225
10464.226562 86.999 -131.4421
10540.054688 87.117 -131.8293
10616.432617 87.218 -132.3020
10693.363281 87.310 -132.8496
10770.852539 87.403 -133.4251
10848.902344 87.501 -134.0564
10927.517578 87.613 -134.7419
11006.703125 87.739 -135.5244
11086.461914 87.883 -136.4324
11166.798828 88.041 -137.5085
11247.718750 88.213 -138.7966
11329.223633 88.388 -140.3215
11411.320312 88.561 -142.1241
11494.011719 88.723 -144.1980
11577.301758 88.864 -146.5597
11661.195312 88.977 -149.1808
11745.697266 89.056 -152.0543
11830.811523 89.093 -155.1318
11916.542969 89.082 -158.3818
12002.894531 89.020 -161.7451
12089.873047 88.906 -165.1679
12177.480469 88.739 -168.6025
12265.723633 88.520 -171.9977
12354.606445 88.251 -175.3114
12444.132812 87.931 -178.4908
12534.308594 87.567 178.4839
12625.136719 87.165 175.6458
12716.624023 86.726 173.0084
12808.773438 86.252 170.5933
12901.591797 85.748 168.4088
12995.082031 85.219 166.4725
13089.250000 84.668 164.7779
13184.099609 84.101 163.3082
13279.636719 83.511 162.1104
13375.867188 82.888 161.2078
13472.793945 82.242 160.6570
13570.422852 81.578 160.5097
13668.759766 80.899 160.8048
13767.809570 80.207 161.5782
13867.577148 79.507 162.8907
13968.067383 78.791 164.8235
14069.285156 78.101 167.3529
14171.237305 77.465 170.5178
14273.927734 76.912 174.2092
14377.362305 76.464 178.3854
14481.546875 76.159 -177.1198
14586.486328 76.045 -172.4133
14692.185547 76.117 -167.7159
14798.651367 76.401 -163.2242
14905.888672 76.854 -159.1233
15013.902344 77.459 -155.6279
15122.700195 78.169 -152.8455
15232.285156 78.941 -150.9501
15342.664062 79.741 -149.9542
15453.843750 80.528 -149.9485
15565.829102 81.287 -150.8735
15678.625000 81.995 -152.7329
15792.239258 82.641 -155.4213
15906.675781 83.203 -158.8763
16021.942383 83.682 -162.9713
16138.043945 84.067 -167.5912
16254.986328 84.362 -172.6376
16372.777344 84.564 -178.0053
16491.421875 84.673 176.3995
16610.923828 84.684 170.6769
16731.294922 84.601 164.9135
16852.535156 84.426 159.2032
16974.656250 84.161 153.6252
17097.662109 83.806 148.2746
17221.558594 83.372 143.1989
17346.353516 82.865 138.4747
17472.052734 82.295 134.1094
17598.662109 81.669 130.1326
17726.189453 80.993 126.5516
17854.640625 80.270 123.3829
17984.021484 79.512 120.6271
18114.341797 78.731 118.2900
18245.605469 77.931 116.3717
18377.820312 77.118 114.8675
18510.994141 76.291 113.7969
18645.132812 75.447 113.1688
18780.242188 74.598 113.0115
18916.332031 73.746 113.3705
19053.408203 72.908 114.2039
19191.476562 72.095 115.5204
19330.546875 71.327 117.2139
19470.623047 70.626 119.2084
19611.714844 69.993 121.4200
19753.830078 69.433 123.7698
19896.974609 68.955 126.1675
