* Measurement data measured by REW V5.20.13
* Source: C:\Users\kurin\Desktop\Targets and Curves\Resolve\Img\Lecram\DT 700 Pro X_SPL.txt
* Format: Comma/Tab/Space delimited data
* Dated: Aug 15, 2023 3:29:46 PM
* REW Settings:
*  C-weighting compensation: Off
*  Target level: 75.0 dB
* Note: ; Measurement imported from C:\Users\kurin\Desktop\Targets and Curves\Resolve\Img\Lecram\DT 700 Pro X_SPL.txt Format: Comma/Tab/Space delimited data 623 values loaded, 5 Hz to 39,792 Hz log spaced 
* Measurement: DT 700 Pro X_SPL
* Smoothing: 1/48 octave
* Frequency Step: 1/96 octave
* Start Frequency: 5.000 Hz
*
* Freq(Hz) SPL(dB) Phase(degrees)
5.000000 92.875 -11.9190
5.036232 92.871 -11.9190
5.072727 92.867 -11.9190
5.109486 92.862 -11.9189
5.146511 92.857 -11.9190
5.183805 92.851 -11.9199
5.221369 92.844 -11.9210
5.259205 92.837 -11.9219
5.297316 92.829 -11.9230
5.335702 92.821 -11.9244
5.374367 92.813 -11.9260
5.413311 92.805 -11.9275
5.452538 92.797 -11.9290
5.492050 92.789 -11.9305
5.531847 92.781 -11.9320
5.571934 92.772 -11.9334
5.612310 92.764 -11.9350
5.652979 92.756 -11.9370
5.693943 92.748 -11.9390
5.735204 92.740 -11.9406
5.776763 92.732 -11.9420
5.818624 92.724 -11.9434
5.860788 92.715 -11.9450
5.903258 92.707 -11.9469
5.946035 92.699 -11.9490
5.989123 92.691 -11.9511
6.032523 92.683 -11.9530
6.076237 92.675 -11.9545
6.120268 92.667 -11.9560
6.164618 92.659 -11.9579
6.209289 92.650 -11.9600
6.254284 92.642 -11.9620
6.299605 92.634 -11.9640
6.345255 92.626 -11.9661
6.391235 92.618 -11.9680
6.437549 92.610 -11.9695
6.484198 92.602 -11.9710
6.531185 92.593 -11.9729
6.578513 92.585 -11.9750
6.626183 92.577 -11.9770
6.674199 92.569 -11.9790
6.722563 92.561 -11.9810
6.771278 92.553 -11.9830
6.820345 92.545 -11.9849
6.869768 92.537 -11.9870
6.919549 92.529 -11.9895
6.969691 92.520 -11.9920
7.020196 92.512 -11.9941
7.071068 92.504 -11.9960
7.122308 92.496 -11.9980
7.173919 92.488 -12.0000
7.225904 92.479 -12.0019
7.278266 92.471 -12.0040
7.331007 92.463 -12.0065
7.384131 92.455 -12.0090
7.437639 92.447 -12.0110
7.491535 92.439 -12.0130
7.545822 92.431 -12.0155
7.600502 92.423 -12.0180
7.655579 92.414 -12.0200
7.711054 92.406 -12.0220
7.766932 92.398 -12.0245
7.823214 92.390 -12.0270
7.879904 92.382 -12.0290
7.937005 92.374 -12.0310
7.994520 92.366 -12.0334
8.052452 92.358 -12.0360
8.110803 92.350 -12.0385
8.169578 92.341 -12.0410
8.228777 92.333 -12.0436
8.288406 92.325 -12.0460
8.348468 92.317 -12.0480
8.408964 92.309 -12.0500
8.469899 92.300 -12.0524
8.531276 92.292 -12.0550
8.593097 92.284 -12.0575
8.655366 92.276 -12.0600
8.718086 92.268 -12.0625
8.781260 92.260 -12.0650
8.844893 92.252 -12.0675
8.908987 92.244 -12.0700
8.973545 92.236 -12.0725
9.038571 92.227 -12.0750
9.104069 92.219 -12.0775
9.170040 92.211 -12.0800
9.236490 92.203 -12.0825
9.303422 92.195 -12.0850
9.370838 92.187 -12.0874
9.438744 92.179 -12.0900
9.507140 92.171 -12.0930
9.576033 92.162 -12.0960
9.645425 92.154 -12.0986
9.715320 92.146 -12.1010
9.785721 92.138 -12.1035
9.856632 92.130 -12.1060
9.928058 92.122 -12.1084
10.000000 92.114 -12.1110
10.072464 92.106 -12.1140
10.145453 92.097 -12.1170
10.218971 92.089 -12.1196
10.293022 92.081 -12.1220
10.367610 92.073 -12.1245
10.442738 92.065 -12.1270
10.518411 92.057 -12.1294
10.594631 92.048 -12.1320
10.671404 92.040 -12.1350
10.748734 92.032 -12.1380
10.826623 92.024 -12.1406
10.905077 92.016 -12.1430
10.984100 92.008 -12.1455
11.063695 92.000 -12.1480
11.143867 91.992 -12.1504
11.224621 91.983 -12.1530
11.305959 91.975 -12.1560
11.387886 91.967 -12.1590
11.470407 91.959 -12.1616
11.553527 91.951 -12.1640
11.637249 91.943 -12.1665
11.721577 91.935 -12.1690
11.806517 91.927 -12.1715
11.892071 91.918 -12.1740
11.978246 91.910 -12.1765
12.065045 91.902 -12.1790
12.152473 91.894 -12.1815
12.240536 91.886 -12.1840
12.329235 91.878 -12.1865
12.418578 91.870 -12.1890
12.508568 91.862 -12.1916
12.599211 91.853 -12.1940
12.690510 91.845 -12.1960
12.782471 91.837 -12.1980
12.875097 91.829 -12.2005
12.968395 91.821 -12.2030
13.062370 91.813 -12.2051
13.157025 91.804 -12.2070
13.252366 91.796 -12.2090
13.348398 91.788 -12.2110
13.445127 91.780 -12.2130
13.542556 91.772 -12.2150
13.640691 91.764 -12.2171
13.739536 91.756 -12.2190
13.839099 91.748 -12.2206
13.939383 91.739 -12.2220
14.040393 91.731 -12.2235
14.142136 91.723 -12.2250
14.244616 91.715 -12.2265
14.347837 91.707 -12.2280
14.451808 91.699 -12.2296
14.556532 91.691 -12.2310
14.662014 91.683 -12.2321
14.768262 91.674 -12.2330
14.875278 91.666 -12.2341
14.983070 91.658 -12.2350
15.091644 91.650 -12.2356
15.201005 91.642 -12.2360
15.311157 91.634 -12.2366
15.422109 91.625 -12.2370
15.533863 91.617 -12.2371
15.646428 91.609 -12.2370
15.759809 91.601 -12.2366
15.874010 91.593 -12.2360
15.989040 91.585 -12.2356
16.104904 91.577 -12.2350
16.221605 91.569 -12.2337
16.339155 91.560 -12.2320
16.457554 91.552 -12.2301
16.576813 91.544 -12.2280
16.696936 91.536 -12.2257
16.817928 91.528 -12.2230
16.939798 91.520 -12.2198
17.062551 91.512 -12.2160
17.186193 91.504 -12.2118
17.310732 91.495 -12.2070
17.436172 91.487 -12.2018
17.562521 91.479 -12.1960
17.689787 91.471 -12.1894
17.817974 91.463 -12.1820
17.947090 91.455 -12.1740
18.077143 91.447 -12.1650
18.208138 91.439 -12.1547
18.340080 91.430 -12.1430
18.472980 91.422 -12.1299
18.606844 91.414 -12.1150
18.741676 91.406 -12.0983
18.877487 91.398 -12.0790
19.014280 91.390 -12.0568
19.152065 91.382 -12.0310
19.290850 91.374 -12.0013
19.430639 91.367 -11.9670
19.571442 91.360 -11.9273
19.713264 91.354 -11.8831
19.856115 91.350 -11.8344
20.000000 91.347 -11.7831
20.144928 91.346 -11.7291
20.290907 91.347 -11.6770
20.437943 91.352 -11.6297
20.586044 91.359 -11.5930
20.735220 91.368 -11.5736
20.885475 91.379 -11.5720
21.036821 91.390 -11.5915
21.189262 91.401 -11.6309
21.342808 91.411 -11.6908
21.497467 91.420 -11.7699
21.653246 91.426 -11.8689
21.810154 91.429 -11.9818
21.968201 91.428 -12.1050
22.127390 91.422 -12.2329
22.287735 91.412 -12.3596
22.449242 91.398 -12.4819
22.611917 91.381 -12.5970
22.775772 91.360 -12.6969
22.940815 91.333 -12.7806
23.107054 91.300 -12.8240
23.274498 91.257 -12.7981
23.443153 91.216 -12.7162
23.613033 91.190 -12.5706
23.784142 91.173 -12.3952
23.956491 91.166 -12.2227
24.130091 91.165 -12.0482
24.304947 91.166 -11.8715
24.481071 91.175 -11.7112
24.658470 91.200 -11.5803
24.837156 91.231 -11.4961
25.017136 91.263 -11.4907
25.198421 91.291 -11.5329
25.381020 91.307 -11.6064
25.564941 91.317 -11.6979
25.750195 91.327 -11.7890
25.936790 91.333 -11.8789
26.124741 91.334 -11.9609
26.314051 91.333 -12.0339
26.504732 91.334 -12.0926
26.696796 91.335 -12.1429
26.890253 91.337 -12.1884
27.085112 91.340 -12.2319
27.281382 91.346 -12.2758
27.479073 91.353 -12.3249
27.678198 91.362 -12.3850
27.878765 91.372 -12.4569
28.080786 91.383 -12.5422
28.284271 91.394 -12.6438
28.489231 91.406 -12.7656
28.695675 91.418 -12.9068
28.903616 91.427 -13.0691
29.113064 91.433 -13.2487
29.324028 91.437 -13.4457
29.536524 91.436 -13.6498
29.750557 91.427 -13.8554
29.966141 91.413 -14.0488
30.183289 91.395 -14.2118
30.402010 91.375 -14.3518
30.622314 91.359 -14.4664
30.844217 91.344 -14.5669
31.067726 91.332 -14.6624
31.292856 91.322 -14.7569
31.519617 91.315 -14.8550
31.748020 91.309 -14.9639
31.978081 91.305 -15.0922
32.209808 91.301 -15.2388
32.443211 91.294 -15.4099
32.678310 91.283 -15.5918
32.915108 91.264 -15.7786
33.153625 91.240 -15.9528
33.393871 91.208 -16.0921
33.635857 91.175 -16.2039
33.879597 91.147 -16.2846
34.125103 91.121 -16.3439
34.372387 91.095 -16.3894
34.621464 91.072 -16.4240
34.872345 91.054 -16.4501
35.125042 91.038 -16.4770
35.379574 91.026 -16.5174
35.635948 91.013 -16.5629
35.894180 90.996 -16.6109
36.154285 90.979 -16.6569
36.416275 90.964 -16.6948
36.680161 90.951 -16.7280
36.945961 90.938 -16.7570
37.213688 90.927 -16.7850
37.483353 90.919 -16.8110
37.754974 90.915 -16.8469
38.028561 90.916 -16.9048
38.304131 90.919 -16.9839
38.581699 90.919 -17.0889
38.861279 90.917 -17.2148
39.142883 90.915 -17.3587
39.426529 90.911 -17.5188
39.712231 90.904 -17.6951
40.000000 90.893 -17.8787
40.289856 90.877 -18.0595
40.581814 90.860 -18.2417
40.875885 90.844 -18.4264
41.172089 90.827 -18.6137
41.470440 90.804 -18.8059
41.770950 90.779 -18.9987
42.073643 90.754 -19.1890
42.378525 90.726 -19.3757
42.685616 90.694 -19.5588
42.994934 90.659 -19.7328
43.306492 90.621 -19.8899
43.620308 90.583 -20.0368
43.936401 90.547 -20.1773
44.254780 90.510 -20.3118
44.575470 90.469 -20.4434
44.898483 90.425 -20.5668
45.223835 90.381 -20.6776
45.551544 90.335 -20.7769
45.881630 90.288 -20.8669
46.214108 90.238 -20.9399
46.548996 90.183 -20.9899
46.886307 90.127 -21.0130
47.226067 90.072 -21.0005
47.568283 90.018 -20.9611
47.912983 89.968 -20.8973
48.260181 89.921 -20.8191
48.609894 89.879 -20.7369
48.962143 89.840 -20.6521
49.316940 89.801 -20.5706
49.674313 89.762 -20.4891
50.034271 89.724 -20.4084
50.396843 89.686 -20.3221
50.762039 89.644 -20.2274
51.129883 89.601 -20.1152
51.500389 89.556 -19.9743
51.873581 89.513 -19.8093
52.249481 89.474 -19.6213
52.628101 89.438 -19.4094
53.009464 89.402 -19.1715
53.393593 89.371 -18.9125
53.780506 89.348 -18.6302
54.170223 89.334 -18.3425
54.562763 89.330 -18.0651
54.958145 89.332 -17.8014
55.356396 89.338 -17.5574
55.757530 89.350 -17.3413
56.161572 89.372 -17.1603
56.568542 89.399 -17.0232
56.978462 89.428 -16.9429
57.391350 89.457 -16.9140
57.807232 89.485 -16.9357
58.226128 89.512 -17.0068
58.648056 89.537 -17.1279
59.073048 89.557 -17.2937
59.501114 89.570 -17.5029
59.932281 89.577 -17.7445
60.366577 89.576 -18.0085
60.804020 89.567 -18.2915
61.244629 89.553 -18.5897
61.688435 89.530 -18.8955
62.135452 89.497 -19.2008
62.585712 89.456 -19.5025
63.039234 89.410 -19.7989
63.496040 89.354 -20.0765
63.956161 89.284 -20.3257
64.419617 89.205 -20.5327
64.886421 89.120 -20.6805
65.356621 89.029 -20.7699
65.830215 88.934 -20.7979
66.307251 88.834 -20.7582
66.787743 88.731 -20.6420
67.271713 88.627 -20.4524
67.759193 88.528 -20.1852
68.250206 88.433 -19.8527
68.744774 88.346 -19.4638
69.242928 88.264 -19.0249
69.744690 88.188 -18.5446
70.250084 88.119 -18.0240
70.759148 88.057 -17.4658
71.271896 88.002 -16.8731
71.788361 87.955 -16.2491
72.308571 87.916 -15.5973
72.832550 87.885 -14.9215
73.360321 87.863 -14.2233
73.891922 87.849 -13.5024
74.427376 87.847 -12.7684
74.966705 87.859 -12.0261
75.509949 87.883 -11.2893
76.057121 87.920 -10.5700
76.608261 87.970 -9.8783
77.163399 88.032 -9.2250
77.722557 88.105 -8.6202
78.285767 88.189 -8.0752
78.853058 88.281 -7.5979
79.424461 88.380 -7.1986
80.000000 88.484 -6.8805
80.579712 88.590 -6.6554
81.163628 88.694 -6.5082
81.751770 88.790 -6.4320
82.344177 88.882 -6.4150
82.940880 88.970 -6.4443
83.541901 89.054 -6.5158
84.147285 89.132 -6.6233
84.757050 89.205 -6.7597
85.371231 89.274 -6.9158
85.989868 89.339 -7.0916
86.612984 89.402 -7.2817
87.240616 89.463 -7.4936
87.872803 89.524 -7.7334
88.509560 89.583 -7.9994
89.150940 89.635 -8.2946
89.796967 89.682 -8.6103
90.447670 89.724 -8.9382
91.103088 89.763 -9.2803
91.763260 89.799 -9.6367
92.428215 89.831 -10.0052
93.097992 89.857 -10.3856
93.772614 89.877 -10.7712
94.452133 89.893 -11.1553
95.136566 89.904 -11.5382
95.825966 89.912 -11.9189
96.520363 89.915 -12.2952
97.219788 89.913 -12.6651
97.924286 89.908 -13.0272
98.633881 89.901 -13.3799
99.348625 89.890 -13.7223
100.068542 89.875 -14.0571
100.793686 89.854 -14.3722
101.524078 89.827 -14.6573
102.259766 89.796 -14.9094
103.000778 89.766 -15.1200
103.747162 89.736 -15.2957
104.498962 89.708 -15.4399
105.256203 89.682 -15.5548
106.018929 89.658 -15.6417
106.787186 89.639 -15.7059
107.561012 89.625 -15.7464
108.340446 89.618 -15.7829
109.125526 89.623 -15.8337
109.916290 89.633 -15.9029
110.712791 89.643 -16.0023
111.515060 89.654 -16.1267
112.323143 89.668 -16.2710
113.137085 89.684 -16.4456
113.956924 89.705 -16.6614
114.782700 89.724 -16.9123
115.614464 89.736 -17.1981
116.452255 89.744 -17.5124
117.296112 89.752 -17.8473
118.146095 89.757 -18.2062
119.002228 89.756 -18.5963
119.864563 89.748 -18.9979
120.733154 89.727 -19.3965
121.608040 89.699 -19.7832
122.489258 89.669 -20.1451
123.376869 89.635 -20.4802
124.270905 89.594 -20.7833
125.171425 89.550 -21.0515
126.078468 89.508 -21.2761
126.992081 89.469 -21.4706
127.912323 89.434 -21.6439
128.839233 89.403 -21.8007
129.772842 89.374 -21.9455
130.713242 89.349 -22.0877
131.660431 89.333 -22.2344
132.614502 89.321 -22.3975
133.575485 89.312 -22.5927
134.543427 89.305 -22.8165
135.518387 89.296 -23.0735
136.500412 89.286 -23.3554
137.489548 89.273 -23.6553
138.485855 89.257 -23.9742
139.489380 89.241 -24.3107
140.500168 89.222 -24.6652
141.518295 89.200 -25.0395
142.543793 89.174 -25.4270
143.576721 89.143 -25.8220
144.617142 89.108 -26.2241
145.665100 89.072 -26.6301
146.720642 89.032 -27.0428
147.783844 88.988 -27.4671
148.854752 88.939 -27.8939
149.933411 88.883 -28.3173
151.019897 88.822 -28.7320
152.114243 88.757 -29.1295
153.216522 88.689 -29.5129
154.326797 88.618 -29.8824
155.445114 88.544 -30.2382
156.571533 88.467 -30.5811
157.706116 88.388 -30.9093
158.848923 88.306 -31.2193
160.000000 88.222 -31.5173
161.159424 88.140 -31.8103
162.327255 88.054 -32.0914
163.503540 87.960 -32.3594
164.688354 87.862 -32.6035
165.881760 87.762 -32.8069
167.083801 87.661 -32.9856
168.294571 87.566 -33.1491
169.514099 87.471 -33.3006
170.742462 87.372 -33.4502
171.979736 87.270 -33.5867
173.225967 87.166 -33.6989
174.481232 87.061 -33.7968
175.745605 86.961 -33.8884
177.019119 86.858 -33.9678
178.301880 86.748 -34.0358
179.593933 86.633 -34.0809
180.895340 86.518 -34.0888
182.206177 86.402 -34.0691
183.526520 86.289 -34.0259
184.856430 86.175 -33.9622
186.195984 86.061 -33.8808
187.545227 85.948 -33.7862
188.904266 85.838 -33.6831
190.273132 85.728 -33.5733
191.651932 85.616 -33.4642
193.040726 85.499 -33.3434
194.439575 85.377 -33.2022
195.848572 85.251 -33.0355
197.267761 85.123 -32.8380
198.697250 84.991 -32.6006
200.137085 84.854 -32.3144
201.587372 84.714 -31.9749
203.048157 84.576 -31.5703
204.519531 84.441 -31.1134
206.001556 84.312 -30.6112
207.494324 84.188 -30.0694
208.997925 84.068 -29.4924
210.512405 83.953 -28.8905
212.037857 83.848 -28.2728
213.574371 83.749 -27.6465
215.122025 83.653 -27.0240
216.680893 83.558 -26.3987
218.251053 83.465 -25.7715
219.832581 83.372 -25.1319
221.425583 83.276 -24.4735
223.030121 83.178 -23.7848
224.646286 83.080 -23.0493
226.274170 82.984 -22.2760
227.913849 82.896 -21.4697
229.565399 82.812 -20.6272
231.228928 82.727 -19.7451
232.904510 82.648 -18.8278
234.592224 82.582 -17.8701
236.292191 82.526 -16.8966
238.004456 82.482 -15.9334
239.729126 82.445 -14.9716
241.466309 82.407 -14.0103
243.216080 82.374 -13.0506
244.978516 82.354 -12.0904
246.753738 82.340 -11.1378
248.541809 82.329 -10.2044
250.342850 82.321 -9.2776
252.156937 82.314 -8.3453
253.984161 82.313 -7.4175
255.824646 82.323 -6.4999
257.678467 82.338 -5.5943
259.545685 82.352 -4.7056
261.426483 82.371 -3.8292
263.320862 82.397 -2.9581
265.229004 82.428 -2.1043
267.150970 82.465 -1.2805
269.086853 82.504 -0.4783
271.036774 82.541 0.3072
273.000824 82.581 1.0747
274.979095 82.628 1.8253
276.971710 82.678 2.5578
278.978760 82.726 3.2687
281.000336 82.775 3.9671
283.036591 82.825 4.6645
285.087585 82.880 5.3499
287.153442 82.942 6.0155
289.234283 83.007 6.6633
291.330200 83.069 7.2920
293.441284 83.133 7.9044
295.567688 83.203 8.5072
297.709503 83.279 9.0865
299.866821 83.359 9.6306
302.039795 83.442 10.1385
304.228485 83.525 10.6048
306.433044 83.608 11.0318
308.653595 83.691 11.4175
310.890228 83.771 11.7701
313.143066 83.845 12.0933
315.412231 83.916 12.3982
317.697845 83.982 12.6946
320.000000 84.046 12.9891
322.318848 84.106 13.2911
324.654510 84.166 13.6010
327.007080 84.227 13.9275
329.376709 84.292 14.2550
331.763519 84.364 14.5730
334.167603 84.440 14.8741
336.589142 84.516 15.1476
339.028198 84.593 15.3933
341.484924 84.672 15.6080
343.959473 84.751 15.7905
346.451935 84.827 15.9341
348.962463 84.900 16.0527
351.491211 84.964 16.1554
354.038239 85.025 16.2507
356.603760 85.084 16.3524
359.187866 85.141 16.4537
361.790680 85.198 16.5513
364.412354 85.254 16.6487
367.053040 85.306 16.7481
369.712860 85.357 16.8507
372.391968 85.409 16.9604
375.090454 85.462 17.0707
377.808533 85.516 17.1760
380.546265 85.570 17.2767
383.303864 85.623 17.3703
386.081451 85.677 17.4597
388.879150 85.729 17.5492
391.697144 85.783 17.6328
394.535522 85.840 17.7077
397.394501 85.897 17.7688
400.274170 85.953 17.8068
403.174744 86.008 17.8309
406.096313 86.058 17.8460
409.039062 86.105 17.8570
412.003113 86.151 17.8722
414.988647 86.197 17.8870
417.995850 86.243 17.8978
421.024811 86.288 17.9090
424.075714 86.329 17.9230
427.148743 86.370 17.9409
430.244049 86.412 17.9670
433.361786 86.455 17.9949
436.502106 86.499 18.0198
439.665161 86.544 18.0409
442.851166 86.589 18.0570
446.060242 86.635 18.0650
449.292572 86.683 18.0603
452.548340 86.730 18.0461
455.827698 86.773 18.0236
459.130798 86.816 17.9941
462.457855 86.860 17.9613
465.809021 86.905 17.9182
469.184448 86.950 17.8562
472.584381 86.992 17.7832
476.008911 87.029 17.7018
479.458252 87.062 17.6203
482.932617 87.092 17.5485
486.432159 87.121 17.4852
489.957031 87.150 17.4334
493.507477 87.179 17.3891
497.083618 87.209 17.3502
500.685699 87.240 17.3141
504.313873 87.271 17.2780
507.968323 87.303 17.2401
511.649292 87.335 17.1990
515.356934 87.367 17.1512
519.091370 87.400 17.0913
522.852966 87.433 17.0232
526.641724 87.462 16.9461
530.458008 87.488 16.8683
534.301941 87.511 16.7981
538.173706 87.533 16.7352
542.073547 87.555 16.6833
546.001648 87.578 16.6381
549.958191 87.601 16.5983
553.943420 87.624 16.5591
557.957520 87.649 16.5166
562.000671 87.675 16.4682
566.073181 87.700 16.4063
570.175171 87.723 16.3422
574.306885 87.739 16.2823
578.468567 87.753 16.2341
582.660400 87.766 16.2090
586.882568 87.779 16.2020
591.135376 87.794 16.2113
595.419006 87.809 16.2389
599.733643 87.824 16.2889
604.079590 87.842 16.3528
608.456970 87.869 16.4282
612.866089 87.902 16.5008
617.307190 87.939 16.5553
621.780457 87.979 16.5909
626.286133 88.021 16.6013
630.824463 88.064 16.5871
635.395691 88.108 16.5459
640.000000 88.151 16.4803
644.637695 88.192 16.3901
649.309021 88.231 16.2804
654.014160 88.267 16.1553
658.753418 88.300 16.0175
663.527039 88.330 15.8694
668.335205 88.357 15.7165
673.178284 88.378 15.5623
678.056396 88.395 15.4155
682.969849 88.408 15.2853
687.918945 88.419 15.1743
692.903870 88.429 15.0896
697.924927 88.440 15.0262
702.982422 88.453 14.9849
708.076477 88.468 14.9561
713.207520 88.488 14.9314
718.375732 88.512 14.9081
723.581360 88.537 14.8829
728.824707 88.565 14.8491
734.106079 88.599 14.8035
739.425720 88.636 14.7323
744.783936 88.677 14.6177
750.180908 88.718 14.4696
755.617065 88.750 14.2901
761.092529 88.779 14.0858
766.607727 88.807 13.8658
772.162903 88.833 13.6249
777.758301 88.855 13.3566
783.394287 88.871 13.0730
789.071045 88.877 12.7840
794.789001 88.878 12.4901
800.548340 88.878 12.1917
806.349487 88.870 11.8980
812.192627 88.849 11.6121
818.078125 88.818 11.3529
824.006226 88.780 11.1423
829.977295 88.737 10.9755
835.991699 88.694 10.8492
842.049622 88.644 10.7801
848.151428 88.582 10.7804
854.297485 88.517 10.8615
860.488098 88.456 11.0488
866.723572 88.403 11.3139
873.004211 88.365 11.6416
879.330322 88.338 12.0166
885.702332 88.319 12.4226
892.120483 88.312 12.8475
898.585144 88.321 13.2808
905.096680 88.343 13.7015
911.655396 88.377 14.0873
918.261597 88.420 14.4308
924.915710 88.469 14.7127
931.618042 88.521 14.9472
938.368896 88.567 15.1371
945.168762 88.611 15.2974
952.017822 88.654 15.4461
958.916504 88.697 15.5785
965.865234 88.742 15.6962
972.864319 88.788 15.7986
979.914062 88.833 15.8848
987.014954 88.877 15.9577
994.167236 88.920 16.0230
1001.371399 88.965 16.0729
1008.627747 89.013 16.0996
1015.936646 89.060 16.1090
1023.298584 89.100 16.1011
1030.713867 89.137 16.0861
1038.182739 89.172 16.0757
1045.705933 89.207 16.0650
1053.283447 89.242 16.0529
1060.916016 89.277 16.0401
1068.603882 89.309 16.0265
1076.347412 89.341 16.0140
1084.147095 89.372 16.0058
1092.003296 89.403 15.9980
1099.916382 89.435 15.9853
1107.886841 89.465 15.9750
1115.915039 89.490 15.9712
1124.001343 89.514 15.9789
1132.146362 89.539 16.0054
1140.350342 89.565 16.0478
1148.613770 89.591 16.1075
1156.937134 89.620 16.1787
1165.320801 89.654 16.2576
1173.765137 89.691 16.3386
1182.270752 89.730 16.4158
1190.838013 89.772 16.4857
1199.467285 89.817 16.5422
1208.159180 89.863 16.5878
1216.913940 89.908 16.6201
1225.732178 89.952 16.6479
1234.614380 89.994 16.6812
1243.560913 90.037 16.7149
1252.572266 90.085 16.7469
1261.648926 90.135 16.7779
1270.791382 90.181 16.8083
1280.000000 90.229 16.8359
1289.275391 90.283 16.8619
1298.618042 90.340 16.8770
1308.028320 90.398 16.8684
1317.506836 90.455 16.8481
1327.054077 90.507 16.8237
1336.670410 90.559 16.7951
1346.356567 90.615 16.7651
1356.112793 90.672 16.7321
1365.939697 90.725 16.6929
1375.837891 90.778 16.6561
1385.807739 90.831 16.6326
1395.849854 90.887 16.6131
1405.964844 90.948 16.5928
1416.152954 91.011 16.5691
1426.415039 91.074 16.5364
1436.751465 91.138 16.4991
1447.162720 91.204 16.4608
1457.649414 91.274 16.4182
1468.212158 91.346 16.3716
1478.851440 91.423 16.3133
1489.567871 91.505 16.2381
1500.361816 91.591 16.1374
1511.234131 91.680 15.9995
1522.185059 91.771 15.8278
1533.215454 91.858 15.6205
1544.325806 91.944 15.3821
1555.516602 92.029 15.1140
1566.788574 92.111 14.8243
1578.142090 92.186 14.5178
1589.578003 92.259 14.2053
1601.096680 92.328 13.9008
1612.698975 92.398 13.6002
1624.385254 92.469 13.3071
1636.156250 92.543 13.0133
1648.012451 92.619 12.7134
1659.954590 92.698 12.4022
1671.983398 92.778 12.0745
1684.099243 92.861 11.7255
1696.302856 92.946 11.3485
1708.594971 93.032 10.9439
1720.976196 93.116 10.5096
1733.447144 93.201 10.0471
1746.008423 93.284 9.5572
1758.660645 93.367 9.0392
1771.404663 93.448 8.4927
1784.240967 93.528 7.9174
1797.170288 93.605 7.3122
1810.193359 93.680 6.6786
1823.310791 93.751 6.0166
1836.523193 93.818 5.3288
1849.831421 93.880 4.6168
1863.236084 93.939 3.8823
1876.737793 93.992 3.1272
1890.337524 94.041 2.3534
1904.035645 94.084 1.5617
1917.833008 94.121 0.7582
1931.730469 94.148 -0.0552
1945.728638 94.168 -0.8655
1959.828125 94.179 -1.6604
1974.029907 94.184 -2.4358
1988.334473 94.184 -3.1842
2002.742798 94.179 -3.9032
2017.255493 94.170 -4.5855
2031.873291 94.159 -5.2375
2046.597168 94.151 -5.8578
2061.427734 94.145 -6.4623
2076.365479 94.142 -7.0673
2091.411865 94.139 -7.6705
2106.566895 94.131 -8.2774
2121.832031 94.120 -8.8815
2137.207764 94.107 -9.4818
2152.694824 94.090 -10.0667
2168.294189 94.064 -10.6312
2184.006592 94.032 -11.1547
2199.832764 93.994 -11.6136
2215.773682 93.956 -12.0125
2231.830078 93.925 -12.3423
2248.002686 93.901 -12.6209
2264.292725 93.885 -12.8582
2280.700684 93.880 -13.0691
2297.227539 93.888 -13.2641
2313.874268 93.908 -13.4671
2330.641602 93.943 -13.7019
2347.530273 93.989 -13.9797
2364.541504 94.040 -14.3197
2381.676025 94.096 -14.7210
2398.934570 94.156 -15.1909
2416.318359 94.216 -15.7235
2433.827881 94.271 -16.3172
2451.464355 94.325 -16.9672
2469.228760 94.377 -17.6673
2487.121826 94.426 -18.4197
2505.144531 94.471 -19.2271
2523.297852 94.510 -20.0810
2541.582764 94.540 -20.9744
2560.000000 94.564 -21.9048
2578.550781 94.583 -22.8657
2597.236084 94.596 -23.8623
2616.056641 94.601 -24.9016
2635.013672 94.596 -25.9724
2654.108154 94.578 -27.0685
2673.340820 94.548 -28.1811
2692.713135 94.507 -29.3032
2712.225586 94.452 -30.4238
2731.879395 94.381 -31.5367
2751.675781 94.294 -32.6201
2771.615479 94.191 -33.6547
2791.699707 94.073 -34.6259
2811.929688 93.941 -35.5216
2832.305908 93.795 -36.3155
2852.830078 93.631 -36.9809
2873.502930 93.459 -37.5060
2894.325439 93.286 -37.8640
2915.298828 93.117 -38.0744
2936.424316 92.957 -38.1441
2957.702881 92.809 -38.0845
2979.135742 92.673 -37.8998
3000.723633 92.557 -37.6184
3022.468262 92.471 -37.2549
3044.370117 92.413 -36.8549
3066.430908 92.386 -36.4601
3088.651611 92.387 -36.0965
3111.033203 92.412 -35.7958
3133.577148 92.460 -35.5818
3156.284180 92.531 -35.4835
3179.156006 92.620 -35.5165
3202.193359 92.717 -35.7029
3225.397949 92.822 -36.0509
3248.770508 92.935 -36.5774
3272.312500 93.046 -37.2794
3296.024902 93.147 -38.1640
3319.909180 93.238 -39.2187
3343.966797 93.316 -40.4345
3368.198486 93.378 -41.8091
3392.605713 93.422 -43.3416
3417.189941 93.443 -45.0199
3441.952393 93.436 -46.8398
3466.894287 93.398 -48.7761
3492.016846 93.323 -50.8008
3517.321289 93.215 -52.9170
3542.809326 93.078 -55.1308
3568.481934 92.897 -57.4064
3594.340576 92.654 -59.7369
3620.386719 92.352 -62.0412
3646.621582 91.990 -64.2731
3673.046387 91.560 -66.3189
3699.662842 91.058 -68.1313
3726.472168 90.468 -69.4633
3753.475586 89.765 -70.1287
3780.675049 88.972 -69.8944
3808.071289 88.090 -68.4801
3835.666016 87.163 -65.8407
3863.460938 86.208 -61.7724
3891.457275 85.306 -56.4710
3919.656250 84.508 -49.9209
3948.059814 83.934 -42.5564
3976.668945 83.739 -34.6652
4005.485596 83.871 -26.6796
4034.510986 84.362 -19.0282
4063.746582 85.105 -12.0123
4093.194336 86.029 -6.0514
4122.855469 87.047 -1.2176
4152.730957 88.054 2.2119
4182.823730 89.037 4.4342
4213.133789 89.950 5.4790
4243.664062 90.799 5.5805
4274.415527 91.576 4.9340
4305.389648 92.289 3.6883
4336.588379 92.940 2.0383
4368.013184 93.537 0.0392
4399.665527 94.090 -2.1898
4431.547363 94.596 -4.6475
4463.660156 95.056 -7.3008
4496.005371 95.469 -10.1284
4528.585449 95.831 -13.1090
4561.401367 96.143 -16.2100
4594.455078 96.406 -19.4075
4627.748535 96.619 -22.6541
4661.283203 96.777 -25.9083
4695.060547 96.889 -29.1274
4729.083008 96.957 -32.2606
4763.352051 96.988 -35.2909
4797.869141 96.984 -38.1870
4832.636719 96.951 -40.9416
4867.655762 96.893 -43.5325
4902.928711 96.817 -45.9724
4938.457520 96.732 -48.2628
4974.243652 96.634 -50.4161
5010.289062 96.527 -52.4444
5046.595703 96.411 -54.3507
5083.165527 96.290 -56.1408
5120.000000 96.164 -57.8181
5157.101562 96.033 -59.3900
5194.472168 95.898 -60.8501
5232.113281 95.759 -62.1909
5270.027344 95.621 -63.4221
5308.216309 95.490 -64.5460
5346.681641 95.365 -65.5782
5385.426270 95.246 -66.5309
5424.451172 95.136 -67.4158
5463.758789 95.036 -68.2435
5503.351562 94.947 -69.0292
5543.230957 94.871 -69.7880
5583.399414 94.804 -70.5314
5623.859375 94.749 -71.2752
5664.611816 94.701 -72.0223
5705.660156 94.659 -72.7814
5747.005859 94.622 -73.5500
5788.650879 94.590 -74.3248
5830.597656 94.565 -75.1169
5872.848633 94.549 -75.9335
5915.405762 94.539 -76.7835
5958.271484 94.532 -77.6804
6001.447266 94.527 -78.6171
6044.936523 94.522 -79.5903
6088.740234 94.517 -80.6018
6132.861816 94.515 -81.6525
6177.303223 94.512 -82.7424
6222.066406 94.507 -83.8758
6267.154297 94.498 -85.0411
6312.568359 94.484 -86.2282
6358.312012 94.468 -87.4359
6404.386719 94.453 -88.6569
6450.795898 94.438 -89.8985
6497.541016 94.423 -91.1624
6544.625000 94.410 -92.4584
6592.049805 94.401 -93.7937
6639.818359 94.394 -95.1777
6687.933594 94.387 -96.6208
6736.396973 94.379 -98.1281
6785.211426 94.371 -99.7053
6834.379883 94.362 -101.3603
6883.904785 94.350 -103.1019
6933.788574 94.333 -104.9323
6984.033691 94.308 -106.8565
7034.642578 94.274 -108.8746
7085.618652 94.230 -110.9880
7136.963867 94.173 -113.1976
7188.681152 94.103 -115.5045
7240.773438 94.016 -117.9107
7293.243164 93.913 -120.4193
7346.092773 93.789 -123.0286
7399.325684 93.642 -125.7429
7452.944336 93.466 -128.5467
7506.951172 93.256 -131.4366
7561.350098 93.008 -134.3807
7616.142578 92.718 -137.3557
7671.332031 92.383 -140.3317
7726.921875 92.002 -143.2836
7782.914551 91.572 -146.1733
7839.312500 91.094 -148.9941
7896.119629 90.553 -151.6297
7953.337891 89.935 -154.0247
8010.971191 89.242 -155.9890
8069.021973 88.468 -157.3627
8127.493164 87.625 -157.9979
8186.388672 86.717 -157.7067
8245.710938 85.761 -156.4493
8305.461914 84.753 -154.0935
8365.647461 83.754 -150.7304
8426.267578 82.798 -146.3136
8487.328125 81.972 -141.1280
8548.831055 81.366 -135.3167
8610.779297 81.002 -129.2660
8673.176758 80.962 -123.3259
8736.026367 81.162 -117.7537
8799.331055 81.571 -112.8911
8863.094727 82.114 -108.8340
8927.320312 82.722 -105.8110
8992.010742 83.349 -103.7612
9057.170898 83.931 -102.7691
9122.802734 84.456 -102.6238
9188.910156 84.886 -103.2091
9255.497070 85.233 -104.3209
9322.566406 85.495 -105.7583
9390.121094 85.679 -107.3941
9458.166016 85.792 -109.0653
9526.704102 85.842 -110.6788
9595.738281 85.830 -112.0966
9665.273438 85.779 -113.2914
9735.311523 85.708 -114.1705
9805.857422 85.634 -114.7933
9876.915039 85.583 -115.1704
9948.487305 85.553 -115.3574
10020.578125 85.550 -115.3943
10093.191406 85.587 -115.3385
10166.331055 85.676 -115.2193
10240.000000 85.823 -115.1610
10314.203125 86.043 -115.2686
10388.944336 86.311 -115.6305
10464.226562 86.610 -116.3656
10540.054688 86.924 -117.4861
10616.432617 87.236 -119.0493
10693.363281 87.531 -121.0389
10770.852539 87.796 -123.4880
10848.902344 88.014 -126.3058
10927.517578 88.162 -129.4555
11006.703125 88.245 -132.8065
11086.461914 88.255 -136.2352
11166.798828 88.208 -139.6829
11247.718750 88.114 -143.0513
11329.223633 87.978 -146.3373
11411.320312 87.806 -149.4928
11494.011719 87.613 -152.5576
11577.301758 87.413 -155.5248
11661.195312 87.210 -158.4874
11745.697266 87.018 -161.5201
11830.811523 86.820 -164.6735
11916.542969 86.612 -168.0316
12002.894531 86.375 -171.5689
12089.873047 86.098 -175.3358
12177.480469 85.759 -179.1871
12265.723633 85.331 176.9615
12354.606445 84.825 173.2465
12444.132812 84.243 169.8072
12534.308594 83.580 166.7216
12625.136719 82.832 164.0790
12716.624023 82.002 161.9835
12808.773438 81.072 160.5872
12901.591797 80.095 159.8354
12995.082031 79.108 159.7691
13089.250000 78.128 160.2523
13184.099609 77.181 161.1985
13279.636719 76.270 162.4956
13375.867188 75.405 164.0110
13472.793945 74.585 165.7208
13570.422852 73.824 167.5046
13668.759766 73.078 169.5211
13767.809570 72.297 171.8388
13867.577148 71.505 174.6143
13968.067383 70.720 177.9580
14069.285156 69.906 -177.9220
14171.237305 68.999 -172.7971
14273.927734 68.100 -166.6157
14377.362305 67.251 -159.1349
14481.546875 66.571 -150.7026
14586.486328 66.179 -141.4538
14692.185547 66.111 -131.7947
14798.651367 66.466 -122.0527
14905.888672 67.177 -112.6103
15013.902344 68.250 -103.8579
15122.700195 69.558 -96.0996
15232.285156 70.989 -89.7292
15342.664062 72.498 -84.8666
15453.843750 74.026 -81.7962
15565.829102 75.506 -80.4179
15678.625000 76.846 -80.7962
15792.239258 78.055 -82.7078
15906.675781 79.116 -86.0319
16021.942383 80.011 -90.5219
16138.043945 80.710 -96.0012
16254.986328 81.227 -102.1370
16372.777344 81.555 -108.6208
16491.421875 81.722 -115.2017
16610.923828 81.755 -121.5727
16731.294922 81.654 -127.5944
16852.535156 81.413 -133.0365
16974.656250 81.075 -137.8658
17097.662109 80.667 -141.9193
17221.558594 80.229 -145.3548
17346.353516 79.818 -148.2482
17472.052734 79.411 -150.6884
17598.662109 78.996 -152.7832
17726.189453 78.593 -154.5516
17854.640625 78.224 -156.0244
17984.021484 77.878 -157.2726
18114.341797 77.554 -158.3762
18245.605469 77.244 -159.3409
18377.820312 76.932 -160.1934
18510.994141 76.633 -160.9489
18645.132812 76.358 -161.6185
18780.242188 76.100 -162.2407
18916.332031 75.859 -162.8648
19053.408203 75.625 -163.4706
19191.476562 75.387 -164.0631
19330.546875 75.147 -164.6152
19470.623047 74.905 -165.1051
19611.714844 74.658 -165.5209
19753.830078 74.404 -165.8431
19896.974609 74.152 -166.0719
