* Measurement data measured by REW V5.20.13
* Source: C:\Users\kurin\Desktop\Targets and Curves\Resolve\Img\Lecram\Drop Panda BT_SPL.txt
* Format: Comma/Tab/Space delimited data
* Dated: Aug 15, 2023 3:28:58 PM
* REW Settings:
*  C-weighting compensation: Off
*  Target level: 75.0 dB
* Note: ; Measurement imported from C:\Users\kurin\Desktop\Targets and Curves\Resolve\Img\Lecram\Drop Panda BT_SPL.txt Format: Comma/Tab/Space delimited data 623 values loaded, 5 Hz to 39,792 Hz log spaced 
* Measurement: Drop Panda BT_SPL
* Smoothing: 1/48 octave
* Frequency Step: 1/96 octave
* Start Frequency: 5.000 Hz
*
* Freq(Hz) SPL(dB) Phase(degrees)
5.000000 90.319 -14.3260
5.036232 90.315 -14.3241
5.072727 90.310 -14.3220
5.109486 90.304 -14.3197
5.146511 90.297 -14.3170
5.183805 90.289 -14.3136
5.221369 90.281 -14.3100
5.259205 90.272 -14.3069
5.297316 90.262 -14.3040
5.335702 90.252 -14.3011
5.374367 90.242 -14.2980
5.413311 90.231 -14.2945
5.452538 90.221 -14.2910
5.492050 90.211 -14.2879
5.531847 90.201 -14.2850
5.571934 90.190 -14.2820
5.612310 90.180 -14.2790
5.652979 90.170 -14.2761
5.693943 90.160 -14.2730
5.735204 90.150 -14.2695
5.776763 90.139 -14.2660
5.818624 90.129 -14.2630
5.860788 90.119 -14.2600
5.903258 90.109 -14.2565
5.946035 90.098 -14.2530
5.989123 90.088 -14.2500
6.032523 90.078 -14.2470
6.076237 90.068 -14.2435
6.120268 90.057 -14.2400
6.164618 90.047 -14.2370
6.209289 90.037 -14.2340
6.254284 90.027 -14.2306
6.299605 90.017 -14.2270
6.345255 90.007 -14.2235
6.391235 89.996 -14.2200
6.437549 89.986 -14.2165
6.484198 89.976 -14.2130
6.531185 89.965 -14.2095
6.578513 89.955 -14.2060
6.626183 89.945 -14.2026
6.674199 89.935 -14.1990
6.722563 89.924 -14.1950
6.771278 89.914 -14.1910
6.820345 89.904 -14.1875
6.869768 89.894 -14.1840
6.919549 89.883 -14.1800
6.969691 89.873 -14.1760
7.020196 89.863 -14.1725
7.071068 89.853 -14.1690
7.122308 89.842 -14.1651
7.173919 89.832 -14.1610
7.225904 89.822 -14.1569
7.278266 89.812 -14.1530
7.331007 89.801 -14.1495
7.384131 89.791 -14.1460
7.437639 89.781 -14.1421
7.491535 89.771 -14.1380
7.545822 89.761 -14.1335
7.600502 89.750 -14.1290
7.655579 89.740 -14.1249
7.711054 89.730 -14.1210
7.766932 89.720 -14.1170
7.823214 89.710 -14.1130
7.879904 89.700 -14.1091
7.937005 89.689 -14.1050
7.994520 89.679 -14.1006
8.052452 89.669 -14.0960
8.110803 89.659 -14.0915
8.169578 89.648 -14.0870
8.228777 89.638 -14.0825
8.288406 89.628 -14.0780
8.348468 89.618 -14.0735
8.408964 89.607 -14.0690
8.469899 89.597 -14.0645
8.531276 89.587 -14.0600
8.593097 89.577 -14.0555
8.655366 89.566 -14.0510
8.718086 89.556 -14.0466
8.781260 89.546 -14.0420
8.844893 89.536 -14.0370
8.908987 89.525 -14.0320
8.973545 89.515 -14.0275
9.038571 89.505 -14.0230
9.104069 89.495 -14.0181
9.170040 89.484 -14.0130
9.236490 89.474 -14.0080
9.303422 89.464 -14.0030
9.370838 89.454 -13.9981
9.438744 89.444 -13.9930
9.507140 89.434 -13.9875
9.576033 89.423 -13.9820
9.645425 89.413 -13.9770
9.715320 89.403 -13.9720
9.785721 89.393 -13.9665
9.856632 89.382 -13.9610
9.928058 89.372 -13.9560
10.000000 89.362 -13.9510
10.072464 89.352 -13.9456
10.145453 89.341 -13.9400
10.218971 89.331 -13.9346
10.293022 89.321 -13.9290
10.367610 89.311 -13.9230
10.442738 89.300 -13.9170
10.518411 89.290 -13.9115
10.594631 89.280 -13.9060
10.671404 89.270 -13.9001
10.748734 89.259 -13.8940
10.826623 89.249 -13.8880
10.905077 89.239 -13.8820
10.984100 89.229 -13.8760
11.063695 89.218 -13.8700
11.143867 89.208 -13.8640
11.224621 89.198 -13.8580
11.305959 89.188 -13.8521
11.387886 89.177 -13.8460
11.470407 89.167 -13.8396
11.553527 89.157 -13.8330
11.637249 89.147 -13.8265
11.721577 89.137 -13.8200
11.806517 89.127 -13.8135
11.892071 89.116 -13.8070
11.978246 89.106 -13.8006
12.065045 89.096 -13.7940
12.152473 89.086 -13.7871
12.240536 89.075 -13.7800
12.329235 89.065 -13.7730
12.418578 89.055 -13.7660
12.508568 89.045 -13.7590
12.599211 89.034 -13.7520
12.690510 89.024 -13.7451
12.782471 89.014 -13.7380
12.875097 89.004 -13.7306
12.968395 88.993 -13.7230
13.062370 88.983 -13.7155
13.157025 88.973 -13.7080
13.252366 88.963 -13.7006
13.348398 88.952 -13.6930
13.445127 88.942 -13.6851
13.542556 88.932 -13.6770
13.640691 88.922 -13.6690
13.739536 88.911 -13.6610
13.839099 88.901 -13.6531
13.939383 88.891 -13.6450
14.040393 88.881 -13.6366
14.142136 88.870 -13.6280
14.244616 88.860 -13.6196
14.347837 88.850 -13.6110
14.451808 88.840 -13.6020
14.556532 88.830 -13.5930
14.662014 88.820 -13.5846
14.768262 88.809 -13.5760
14.875278 88.799 -13.5666
14.983070 88.789 -13.5570
15.091644 88.779 -13.5475
15.201005 88.768 -13.5380
15.311157 88.758 -13.5286
15.422109 88.748 -13.5190
15.533863 88.738 -13.5091
15.646428 88.727 -13.4990
15.759809 88.717 -13.4891
15.874010 88.707 -13.4790
15.989040 88.697 -13.4686
16.104904 88.686 -13.4580
16.221605 88.676 -13.4471
16.339155 88.666 -13.4360
16.457554 88.656 -13.4246
16.576813 88.645 -13.4130
16.696936 88.635 -13.4012
16.817928 88.625 -13.3890
16.939798 88.615 -13.3761
17.062551 88.604 -13.3630
17.186193 88.594 -13.3502
17.310732 88.584 -13.3370
17.436172 88.574 -13.3228
17.562521 88.564 -13.3080
17.689787 88.554 -13.2932
17.817974 88.543 -13.2780
17.947090 88.533 -13.2624
18.077143 88.523 -13.2460
18.208138 88.513 -13.2285
18.340080 88.502 -13.2100
18.472980 88.492 -13.1911
18.606844 88.482 -13.1710
18.741676 88.472 -13.1493
18.877487 88.461 -13.1260
19.014280 88.451 -13.1012
19.152065 88.441 -13.0740
19.290850 88.431 -13.0437
19.430639 88.421 -13.0100
19.571442 88.411 -12.9729
19.713264 88.402 -12.9321
19.856115 88.394 -12.8867
20.000000 88.386 -12.8380
20.144928 88.380 -12.7866
20.290907 88.375 -12.7341
20.437943 88.372 -12.6809
20.586044 88.371 -12.6310
20.735220 88.373 -12.5867
20.885475 88.377 -12.5530
21.036821 88.383 -12.5360
21.189262 88.390 -12.5350
21.342808 88.397 -12.5512
21.497467 88.404 -12.5849
21.653246 88.410 -12.6377
21.810154 88.415 -12.7079
21.968201 88.418 -12.7961
22.127390 88.419 -12.8969
22.287735 88.416 -13.0057
22.449242 88.409 -13.1199
22.611917 88.400 -13.2357
22.775772 88.389 -13.3519
22.940815 88.375 -13.4673
23.107054 88.358 -13.5779
23.274498 88.338 -13.6797
23.443153 88.315 -13.7709
23.613033 88.290 -13.8487
23.784142 88.264 -13.9120
23.956491 88.236 -13.9582
24.130091 88.208 -13.9880
24.304947 88.179 -14.0007
24.481071 88.150 -13.9970
24.658470 88.122 -13.9764
24.837156 88.095 -13.9411
25.017136 88.069 -13.8920
25.198421 88.045 -13.8321
25.381020 88.023 -13.7644
25.564941 88.003 -13.6891
25.750195 87.984 -13.6067
25.936790 87.966 -13.5191
26.124741 87.951 -13.4273
26.314051 87.938 -13.3341
26.504732 87.928 -13.2424
26.696796 87.919 -13.1531
26.890253 87.912 -13.0670
27.085112 87.907 -12.9871
27.281382 87.904 -12.9162
27.479073 87.903 -12.8551
27.678198 87.902 -12.8057
27.878765 87.901 -12.7670
28.080786 87.901 -12.7388
28.284271 87.901 -12.7210
28.489231 87.900 -12.7142
28.695675 87.899 -12.7170
28.903616 87.898 -12.7287
29.113064 87.895 -12.7480
29.324028 87.890 -12.7742
29.536524 87.884 -12.8040
29.750557 87.877 -12.8335
29.966141 87.868 -12.8630
30.183289 87.859 -12.8921
30.402010 87.849 -12.9190
30.622314 87.837 -12.9423
30.844217 87.825 -12.9600
31.067726 87.812 -12.9678
31.292856 87.800 -12.9710
31.519617 87.790 -12.9727
31.748020 87.781 -12.9750
31.978081 87.772 -12.9804
32.209808 87.763 -12.9900
32.443211 87.755 -13.0049
32.678310 87.748 -13.0270
32.915108 87.740 -13.0596
33.153625 87.732 -13.0999
33.393871 87.722 -13.1466
33.635857 87.710 -13.1979
33.879597 87.697 -13.2535
34.125103 87.681 -13.3079
34.372387 87.661 -13.3561
34.621464 87.639 -13.3959
34.872345 87.618 -13.4228
35.125042 87.596 -13.4390
35.379574 87.573 -13.4454
35.635948 87.550 -13.4410
35.894180 87.527 -13.4245
36.154285 87.505 -13.3980
36.416275 87.485 -13.3623
36.680161 87.466 -13.3201
36.945961 87.448 -13.2738
37.213688 87.431 -13.2251
37.483353 87.416 -13.1748
37.754974 87.403 -13.1271
38.028561 87.392 -13.0864
38.304131 87.382 -13.0530
38.581699 87.372 -13.0286
38.861279 87.363 -13.0130
39.142883 87.354 -13.0078
39.426529 87.343 -13.0100
39.712231 87.330 -13.0185
40.000000 87.316 -13.0300
40.289856 87.301 -13.0402
40.581814 87.285 -13.0500
40.875885 87.268 -13.0592
41.172089 87.251 -13.0670
41.470440 87.232 -13.0725
41.770950 87.213 -13.0750
42.073643 87.193 -13.0729
42.378525 87.172 -13.0680
42.685616 87.152 -13.0614
42.994934 87.132 -13.0530
43.306492 87.110 -13.0446
43.620308 87.086 -13.0310
43.936401 87.061 -13.0070
44.254780 87.035 -12.9741
44.575470 87.011 -12.9311
44.898483 86.987 -12.8811
45.223835 86.963 -12.8270
45.551544 86.940 -12.7671
45.881630 86.917 -12.7002
46.214108 86.894 -12.6281
46.548996 86.873 -12.5517
46.886307 86.852 -12.4731
47.226067 86.832 -12.3954
47.568283 86.812 -12.3171
47.912983 86.792 -12.2376
48.260181 86.773 -12.1571
48.609894 86.754 -12.0759
48.962143 86.736 -11.9941
49.316940 86.718 -11.9122
49.674313 86.700 -11.8301
50.034271 86.682 -11.7473
50.396843 86.665 -11.6661
50.762039 86.649 -11.5889
51.129883 86.633 -11.5161
51.500389 86.616 -11.4499
51.873581 86.598 -11.3871
52.249481 86.579 -11.3260
52.628101 86.558 -11.2651
53.009464 86.537 -11.2027
53.393593 86.514 -11.1371
53.780506 86.489 -11.0666
54.170223 86.462 -10.9891
54.562763 86.435 -10.9028
54.958145 86.407 -10.8062
55.356396 86.377 -10.6971
55.757530 86.346 -10.5752
56.161572 86.316 -10.4392
56.568542 86.285 -10.2893
56.978462 86.254 -10.1254
57.391350 86.224 -9.9463
57.807232 86.193 -9.7501
58.226128 86.164 -9.5384
58.648056 86.137 -9.3118
59.073048 86.112 -9.0724
59.501114 86.089 -8.8215
59.932281 86.068 -8.5625
60.366577 86.050 -8.2980
60.804020 86.035 -8.0315
61.244629 86.021 -7.7677
61.688435 86.009 -7.5045
62.135452 85.997 -7.2420
62.585712 85.985 -6.9775
63.039234 85.975 -6.7078
63.496040 85.965 -6.4335
63.956161 85.956 -6.1546
64.419617 85.948 -5.8695
64.886421 85.940 -5.5772
65.356621 85.933 -5.2765
65.830215 85.928 -4.9653
66.307251 85.925 -4.6456
66.787743 85.924 -4.3185
67.271713 85.926 -3.9856
67.759193 85.930 -3.6489
68.250206 85.937 -3.3086
68.744774 85.946 -2.9659
69.242928 85.958 -2.6206
69.744690 85.972 -2.2719
70.250084 85.989 -1.9227
70.759148 86.010 -1.5747
71.271896 86.035 -1.2306
71.788361 86.062 -0.8932
72.308571 86.093 -0.5636
72.832550 86.127 -0.2429
73.360321 86.165 0.0654
73.891922 86.206 0.3578
74.427376 86.250 0.6335
74.966705 86.295 0.8905
75.509949 86.341 1.1296
76.057121 86.389 1.3510
76.608261 86.439 1.5546
77.163399 86.489 1.7399
77.722557 86.540 1.9077
78.285767 86.591 2.0575
78.853058 86.642 2.1917
79.424461 86.692 2.3124
80.000000 86.743 2.4208
80.579712 86.794 2.5194
81.163628 86.846 2.6068
81.751770 86.897 2.6820
82.344177 86.949 2.7459
82.940880 87.001 2.7995
83.541901 87.053 2.8419
84.147285 87.107 2.8733
84.757050 87.161 2.8910
85.371231 87.216 2.8926
85.989868 87.271 2.8780
86.612984 87.326 2.8463
87.240616 87.380 2.7981
87.872803 87.434 2.7329
88.509560 87.487 2.6532
89.150940 87.538 2.5601
89.796967 87.587 2.4572
90.447670 87.635 2.3489
91.103088 87.682 2.2333
91.763260 87.729 2.1100
92.428215 87.777 1.9783
93.097992 87.824 1.8379
93.772614 87.871 1.6873
94.452133 87.918 1.5257
95.136566 87.965 1.3504
95.825966 88.012 1.1574
96.520363 88.057 0.9505
97.219788 88.099 0.7312
97.924286 88.140 0.5015
98.633881 88.180 0.2637
99.348625 88.219 0.0185
100.068542 88.255 -0.2336
100.793686 88.290 -0.4904
101.524078 88.324 -0.7477
102.259766 88.357 -1.0103
103.000778 88.392 -1.2815
103.747162 88.426 -1.5625
104.498962 88.458 -1.8559
105.256203 88.488 -2.1604
106.018929 88.519 -2.4749
106.787186 88.548 -2.8004
107.561012 88.575 -3.1383
108.340446 88.599 -3.4854
109.125526 88.621 -3.8390
109.916290 88.642 -4.1993
110.712791 88.661 -4.5664
111.515060 88.678 -4.9392
112.323143 88.692 -5.3174
113.137085 88.704 -5.6992
113.956924 88.714 -6.0822
114.782700 88.723 -6.4680
115.614464 88.730 -6.8579
116.452255 88.735 -7.2502
117.296112 88.737 -7.6434
118.146095 88.737 -8.0382
119.002228 88.737 -8.4348
119.864563 88.735 -8.8339
120.733154 88.730 -9.2371
121.608040 88.722 -9.6421
122.489258 88.713 -10.0472
123.376869 88.702 -10.4530
124.270905 88.688 -10.8609
125.171425 88.672 -11.2673
126.078468 88.652 -11.6690
126.992081 88.629 -12.0651
127.912323 88.605 -12.4529
128.839233 88.579 -12.8342
129.772842 88.551 -13.2111
130.713242 88.520 -13.5803
131.660431 88.487 -13.9385
132.614502 88.452 -14.2880
133.575485 88.417 -14.6307
134.543427 88.379 -14.9634
135.518387 88.338 -15.2841
136.500412 88.295 -15.5904
137.489548 88.252 -15.8773
138.485855 88.208 -16.1513
139.489380 88.166 -16.4184
140.500168 88.123 -16.6754
141.518295 88.077 -16.9214
142.543793 88.030 -17.1564
143.576721 87.986 -17.3782
144.617142 87.942 -17.5935
145.665100 87.899 -17.8096
146.720642 87.855 -18.0224
147.783844 87.809 -18.2305
148.854752 87.762 -18.4335
149.933411 87.716 -18.6293
151.019897 87.670 -18.8215
152.114243 87.623 -19.0144
153.216522 87.574 -19.2035
154.326797 87.523 -19.3855
155.445114 87.471 -19.5606
156.571533 87.419 -19.7275
157.706116 87.366 -19.8866
158.848923 87.311 -20.0391
160.000000 87.255 -20.1817
161.159424 87.197 -20.3112
162.327255 87.138 -20.4278
163.503540 87.078 -20.5303
164.688354 87.018 -20.6188
165.881760 86.957 -20.6931
167.083801 86.896 -20.7529
168.294571 86.835 -20.7975
169.514099 86.774 -20.8279
170.742462 86.714 -20.8452
171.979736 86.654 -20.8490
173.225967 86.594 -20.8389
174.481232 86.535 -20.8171
175.745605 86.478 -20.7850
177.019119 86.422 -20.7441
178.301880 86.366 -20.6966
179.593933 86.311 -20.6412
180.895340 86.257 -20.5764
182.206177 86.203 -20.5042
183.526520 86.150 -20.4260
184.856430 86.098 -20.3412
186.195984 86.046 -20.2503
187.545227 85.994 -20.1512
188.904266 85.943 -20.0408
190.273132 85.892 -19.9223
191.651932 85.844 -19.7981
193.040726 85.796 -19.6684
194.439575 85.748 -19.5348
195.848572 85.701 -19.3954
197.267761 85.655 -19.2487
198.697250 85.609 -19.0954
200.137085 85.564 -18.9362
201.587372 85.520 -18.7694
203.048157 85.475 -18.5932
204.519531 85.431 -18.4086
206.001556 85.389 -18.2154
207.494324 85.349 -18.0155
208.997925 85.310 -17.8113
210.512405 85.271 -17.6005
212.037857 85.233 -17.3811
213.574371 85.196 -17.1545
215.122025 85.162 -16.9200
216.680893 85.130 -16.6826
218.251053 85.101 -16.4484
219.832581 85.073 -16.2147
221.425583 85.045 -15.9820
223.030121 85.017 -15.7476
224.646286 84.990 -15.5073
226.274170 84.965 -15.2656
227.913849 84.943 -15.0260
229.565399 84.922 -14.7876
231.228928 84.900 -14.5519
232.904510 84.879 -14.3147
234.592224 84.857 -14.0712
236.292191 84.837 -13.8247
238.004456 84.820 -13.5766
239.729126 84.804 -13.3277
241.466309 84.788 -13.0797
243.216080 84.773 -12.8307
244.978516 84.759 -12.5781
246.753738 84.746 -12.3247
248.541809 84.736 -12.0726
250.342850 84.727 -11.8217
252.156937 84.718 -11.5731
253.984161 84.711 -11.3257
255.824646 84.705 -11.0774
257.678467 84.701 -10.8316
259.545685 84.698 -10.5913
261.426483 84.696 -10.3556
263.320862 84.695 -10.1251
265.229004 84.695 -9.8986
267.150970 84.695 -9.6756
269.086853 84.695 -9.4546
271.036774 84.695 -9.2348
273.000824 84.696 -9.0147
274.979095 84.698 -8.7920
276.971710 84.701 -8.5687
278.978760 84.706 -8.3447
281.000336 84.713 -8.1236
283.036591 84.722 -7.9087
285.087585 84.732 -7.7006
287.153442 84.744 -7.4999
289.234283 84.757 -7.3095
291.330200 84.771 -7.1332
293.441284 84.786 -6.9684
295.567688 84.799 -6.8153
297.709503 84.812 -6.6694
299.866821 84.824 -6.5264
302.039795 84.835 -6.3864
304.228485 84.848 -6.2483
306.433044 84.860 -6.1114
308.653595 84.871 -5.9741
310.890228 84.882 -5.8374
313.143066 84.895 -5.7004
315.412231 84.910 -5.5664
317.697845 84.926 -5.4381
320.000000 84.942 -5.3154
322.318848 84.958 -5.1993
324.654510 84.975 -5.0893
327.007080 84.992 -4.9845
329.376709 85.010 -4.8863
331.763519 85.028 -4.7961
334.167603 85.047 -4.7133
336.589142 85.065 -4.6381
339.028198 85.082 -4.5682
341.484924 85.099 -4.5009
343.959473 85.116 -4.4372
346.451935 85.133 -4.3767
348.962463 85.151 -4.3202
351.491211 85.168 -4.2685
354.038239 85.185 -4.2201
356.603760 85.202 -4.1728
359.187866 85.220 -4.1301
361.790680 85.240 -4.0950
364.412354 85.261 -4.0681
367.053040 85.280 -4.0526
369.712860 85.298 -4.0440
372.391968 85.315 -4.0378
375.090454 85.332 -4.0370
377.808533 85.350 -4.0441
380.546265 85.368 -4.0570
383.303864 85.383 -4.0754
386.081451 85.397 -4.0959
388.879150 85.411 -4.1134
391.697144 85.425 -4.1319
394.535522 85.440 -4.1532
397.394501 85.455 -4.1789
400.274170 85.470 -4.2130
403.174744 85.484 -4.2509
406.096313 85.496 -4.2887
409.039062 85.508 -4.3279
412.003113 85.521 -4.3676
414.988647 85.534 -4.4109
417.995850 85.548 -4.4617
421.024811 85.561 -4.5168
424.075714 85.572 -4.5734
427.148743 85.584 -4.6338
430.244049 85.597 -4.6987
433.361786 85.611 -4.7708
436.502106 85.624 -4.8538
439.665161 85.636 -4.9447
442.851166 85.645 -5.0420
446.060242 85.654 -5.1447
449.292572 85.663 -5.2510
452.548340 85.671 -5.3616
455.827698 85.677 -5.4776
459.130798 85.681 -5.5956
462.457855 85.683 -5.7128
465.809021 85.685 -5.8296
469.184448 85.686 -5.9453
472.584381 85.687 -6.0606
476.008911 85.686 -6.1763
479.458252 85.685 -6.2926
482.932617 85.684 -6.4104
486.432159 85.681 -6.5286
489.957031 85.677 -6.6471
493.507477 85.671 -6.7636
497.083618 85.664 -6.8755
500.685699 85.656 -6.9836
504.313873 85.648 -7.0878
507.968323 85.640 -7.1887
511.649292 85.631 -7.2869
515.356934 85.621 -7.3817
519.091370 85.611 -7.4723
522.852966 85.600 -7.5597
526.641724 85.590 -7.6440
530.458008 85.580 -7.7267
534.301941 85.570 -7.8101
538.173706 85.559 -7.8927
542.073547 85.547 -7.9748
546.001648 85.534 -8.0537
549.958191 85.521 -8.1253
553.943420 85.508 -8.1938
557.957520 85.497 -8.2621
562.000671 85.485 -8.3298
566.073181 85.472 -8.3981
570.175171 85.458 -8.4648
574.306885 85.444 -8.5264
578.468567 85.430 -8.5868
582.660400 85.418 -8.6493
586.882568 85.406 -8.7128
591.135376 85.392 -8.7774
595.419006 85.377 -8.8418
599.733643 85.362 -8.9040
604.079590 85.347 -8.9658
608.456970 85.332 -9.0290
612.866089 85.317 -9.0918
617.307190 85.300 -9.1527
621.780457 85.283 -9.2118
626.286133 85.265 -9.2689
630.824463 85.247 -9.3238
635.395691 85.229 -9.3766
640.000000 85.210 -9.4268
644.637695 85.191 -9.4737
649.309021 85.172 -9.5188
654.014160 85.153 -9.5635
658.753418 85.134 -9.6079
663.527039 85.115 -9.6525
668.335205 85.095 -9.6978
673.178284 85.076 -9.7443
678.056396 85.056 -9.7928
682.969849 85.036 -9.8452
687.918945 85.014 -9.8998
692.903870 84.991 -9.9562
697.924927 84.967 -10.0128
702.982422 84.942 -10.0674
708.076477 84.915 -10.1208
713.207520 84.887 -10.1746
718.375732 84.857 -10.2238
723.581360 84.823 -10.2640
728.824707 84.788 -10.2949
734.106079 84.754 -10.3141
739.425720 84.719 -10.3240
744.783936 84.682 -10.3270
750.180908 84.644 -10.3200
755.617065 84.605 -10.3003
761.092529 84.565 -10.2691
766.607727 84.525 -10.2271
772.162903 84.485 -10.1742
777.758301 84.444 -10.1115
783.394287 84.403 -10.0363
789.071045 84.361 -9.9462
794.789001 84.318 -9.8414
800.548340 84.276 -9.7210
806.349487 84.234 -9.5865
812.192627 84.193 -9.4386
818.078125 84.152 -9.2786
824.006226 84.113 -9.1077
829.977295 84.074 -8.9267
835.991699 84.037 -8.7371
842.049622 83.999 -8.5378
848.151428 83.961 -8.3284
854.297485 83.923 -8.1068
860.488098 83.885 -7.8727
866.723572 83.847 -7.6210
873.004211 83.807 -7.3471
879.330322 83.768 -7.0491
885.702332 83.731 -6.7221
892.120483 83.697 -6.3703
898.585144 83.666 -5.9957
905.096680 83.639 -5.5995
911.655396 83.616 -5.1807
918.261597 83.598 -4.7486
924.915710 83.588 -4.3109
931.618042 83.584 -3.8716
938.368896 83.583 -3.4378
945.168762 83.587 -3.0076
952.017822 83.594 -2.5788
958.916504 83.607 -2.1586
965.865234 83.626 -1.7532
972.864319 83.650 -1.3634
979.914062 83.675 -0.9919
987.014954 83.703 -0.6383
994.167236 83.736 -0.3016
1001.371399 83.772 0.0129
1008.627747 83.810 0.3005
1015.936646 83.851 0.5600
1023.298584 83.894 0.7878
1030.713867 83.937 0.9854
1038.182739 83.978 1.1513
1045.705933 84.019 1.2914
1053.283447 84.058 1.4115
1060.916016 84.096 1.5106
1068.603882 84.133 1.5896
1076.347412 84.168 1.6498
1084.147095 84.200 1.6917
1092.003296 84.230 1.7179
1099.916382 84.258 1.7305
1107.886841 84.283 1.7320
1115.915039 84.305 1.7249
1124.001343 84.323 1.7121
1132.146362 84.337 1.6970
1140.350342 84.349 1.6811
1148.613770 84.359 1.6647
1156.937134 84.365 1.6540
1165.320801 84.366 1.6543
1173.765137 84.363 1.6689
1182.270752 84.359 1.7040
1190.838013 84.354 1.7567
1199.467285 84.349 1.8262
1208.159180 84.344 1.9126
1216.913940 84.338 2.0160
1225.732178 84.331 2.1365
1234.614380 84.325 2.2754
1243.560913 84.321 2.4304
1252.572266 84.318 2.6002
1261.648926 84.317 2.7832
1270.791382 84.317 2.9780
1280.000000 84.319 3.1832
1289.275391 84.323 3.3982
1298.618042 84.330 3.6201
1308.028320 84.340 3.8463
1317.506836 84.353 4.0740
1327.054077 84.367 4.2988
1336.670410 84.383 4.5231
1346.356567 84.400 4.7485
1356.112793 84.419 4.9742
1365.939697 84.440 5.2001
1375.837891 84.463 5.4251
1385.807739 84.488 5.6477
1395.849854 84.515 5.8681
1405.964844 84.544 6.0879
1416.152954 84.576 6.3022
1426.415039 84.612 6.5091
1436.751465 84.651 6.7023
1447.162720 84.692 6.8747
1457.649414 84.736 7.0264
1468.212158 84.780 7.1555
1478.851440 84.825 7.2616
1489.567871 84.869 7.3433
1500.361816 84.913 7.4018
1511.234131 84.955 7.4371
1522.185059 84.995 7.4520
1533.215454 85.032 7.4481
1544.325806 85.067 7.4281
1555.516602 85.097 7.3928
1566.788574 85.123 7.3492
1578.142090 85.143 7.3019
1589.578003 85.157 7.2592
1601.096680 85.166 7.2286
1612.698975 85.170 7.2170
1624.385254 85.169 7.2309
1636.156250 85.163 7.2787
1648.012451 85.154 7.3707
1659.954590 85.143 7.5074
1671.983398 85.133 7.6950
1684.099243 85.126 7.9269
1696.302856 85.123 8.2012
1708.594971 85.126 8.5105
1720.976196 85.135 8.8503
1733.447144 85.150 9.2114
1746.008423 85.173 9.5854
1758.660645 85.203 9.9654
1771.404663 85.239 10.3434
1784.240967 85.282 10.7155
1797.170288 85.330 11.0760
1810.193359 85.383 11.4227
1823.310791 85.439 11.7507
1836.523193 85.499 12.0618
1849.831421 85.561 12.3553
1863.236084 85.625 12.6338
1876.737793 85.690 12.8988
1890.337524 85.757 13.1529
1904.035645 85.824 13.3994
1917.833008 85.894 13.6371
1931.730469 85.966 13.8664
1945.728638 86.041 14.0861
1959.828125 86.117 14.2934
1974.029907 86.194 14.4932
1988.334473 86.271 14.6898
2002.742798 86.350 14.8812
2017.255493 86.434 15.0680
2031.873291 86.521 15.2463
2046.597168 86.609 15.4120
2061.427734 86.701 15.5673
2076.365479 86.794 15.7141
2091.411865 86.891 15.8495
2106.566895 86.991 15.9728
2121.832031 87.095 16.0796
2137.207764 87.202 16.1660
2152.694824 87.313 16.2298
2168.294189 87.425 16.2678
2184.006592 87.540 16.2790
2199.832764 87.658 16.2608
2215.773682 87.778 16.2142
2231.830078 87.897 16.1388
2248.002686 88.017 16.0365
2264.292725 88.137 15.9103
2280.700684 88.257 15.7567
2297.227539 88.380 15.5725
2313.874268 88.503 15.3589
2330.641602 88.625 15.1141
2347.530273 88.744 14.8442
2364.541504 88.862 14.5557
2381.676025 88.978 14.2455
2398.934570 89.097 13.9129
2416.318359 89.215 13.5567
2433.827881 89.331 13.1734
2451.464355 89.446 12.7687
2469.228760 89.558 12.3486
2487.121826 89.670 11.9089
2505.144531 89.782 11.4480
2523.297852 89.892 10.9653
2541.582764 90.000 10.4571
2560.000000 90.106 9.9304
2578.550781 90.207 9.3896
2597.236084 90.307 8.8376
2616.056641 90.405 8.2789
2635.013672 90.502 7.7134
2654.108154 90.597 7.1431
2673.340820 90.693 6.5655
2692.713135 90.789 5.9814
2712.225586 90.888 5.3828
2731.879395 90.987 4.7626
2751.675781 91.088 4.1200
2771.615479 91.187 3.4526
2791.699707 91.286 2.7581
2811.929688 91.385 2.0346
2832.305908 91.484 1.2796
2852.830078 91.580 0.4880
2873.502930 91.673 -0.3344
2894.325439 91.761 -1.1830
2915.298828 91.847 -2.0580
2936.424316 91.929 -2.9580
2957.702881 92.008 -3.8819
2979.135742 92.081 -4.8294
3000.723633 92.149 -5.7967
3022.468262 92.213 -6.7812
3044.370117 92.272 -7.7794
3066.430908 92.324 -8.7884
3088.651611 92.371 -9.8044
3111.033203 92.414 -10.8204
3133.577148 92.453 -11.8421
3156.284180 92.489 -12.8742
3179.156006 92.521 -13.9140
3202.193359 92.546 -14.9621
3225.397949 92.565 -16.0130
3248.770508 92.578 -17.0624
3272.312500 92.586 -18.1073
3296.024902 92.587 -19.1462
3319.909180 92.582 -20.1713
3343.966797 92.570 -21.1753
3368.198486 92.552 -22.1554
3392.605713 92.530 -23.1073
3417.189941 92.504 -24.0278
3441.952393 92.473 -24.9123
3466.894287 92.439 -25.7603
3492.016846 92.406 -26.5694
3517.321289 92.371 -27.3415
3542.809326 92.336 -28.0788
3568.481934 92.300 -28.7779
3594.340576 92.265 -29.4340
3620.386719 92.232 -30.0531
3646.621582 92.206 -30.6360
3673.046387 92.185 -31.1934
3699.662842 92.171 -31.7336
3726.472168 92.163 -32.2646
3753.475586 92.163 -32.7939
3780.675049 92.170 -33.3316
3808.071289 92.184 -33.8884
3835.666016 92.203 -34.4692
3863.460938 92.226 -35.0817
3891.457275 92.252 -35.7268
3919.656250 92.280 -36.4087
3948.059814 92.310 -37.1246
3976.668945 92.338 -37.8730
4005.485596 92.367 -38.6541
4034.510986 92.396 -39.4675
4063.746582 92.425 -40.3139
4093.194336 92.452 -41.1945
4122.855469 92.477 -42.1075
4152.730957 92.500 -43.0502
4182.823730 92.522 -44.0263
4213.133789 92.543 -45.0393
4243.664062 92.560 -46.0879
4274.415527 92.571 -47.1729
4305.389648 92.577 -48.2905
4336.588379 92.579 -49.4373
4368.013184 92.575 -50.6123
4399.665527 92.564 -51.8160
4431.547363 92.545 -53.0410
4463.660156 92.518 -54.2809
4496.005371 92.482 -55.5337
4528.585449 92.440 -56.7974
4561.401367 92.388 -58.0650
4594.455078 92.326 -59.3313
4627.748535 92.253 -60.5889
4661.283203 92.172 -61.8291
4695.060547 92.082 -63.0501
4729.083008 91.985 -64.2514
4763.352051 91.878 -65.4205
4797.869141 91.757 -66.5470
4832.636719 91.629 -67.6237
4867.655762 91.494 -68.6396
4902.928711 91.354 -69.5965
4938.457520 91.209 -70.4939
4974.243652 91.061 -71.3282
5010.289062 90.908 -72.0942
5046.595703 90.754 -72.7956
5083.165527 90.601 -73.4335
5120.000000 90.449 -74.0113
5157.101562 90.297 -74.5330
5194.472168 90.146 -74.9979
5232.113281 89.998 -75.4068
5270.027344 89.852 -75.7594
5308.216309 89.708 -76.0556
5346.681641 89.567 -76.2950
5385.426270 89.430 -76.4762
5424.451172 89.298 -76.6015
5463.758789 89.172 -76.6718
5503.351562 89.053 -76.6900
5543.230957 88.942 -76.6577
5583.399414 88.839 -76.5805
5623.859375 88.748 -76.4626
5664.611816 88.666 -76.3108
5705.660156 88.597 -76.1321
5747.005859 88.539 -75.9301
5788.650879 88.493 -75.7086
5830.597656 88.459 -75.4742
5872.848633 88.440 -75.2318
5915.405762 88.436 -74.9912
5958.271484 88.447 -74.7599
6001.447266 88.474 -74.5510
6044.936523 88.518 -74.3757
6088.740234 88.579 -74.2475
6132.861816 88.655 -74.1791
6177.303223 88.747 -74.1848
6222.066406 88.853 -74.2789
6267.154297 88.972 -74.4737
6312.568359 89.102 -74.7851
6358.312012 89.239 -75.2165
6404.386719 89.381 -75.7766
6450.795898 89.524 -76.4661
6497.541016 89.668 -77.2898
6544.625000 89.810 -78.2439
6592.049805 89.947 -79.3297
6639.818359 90.076 -80.5365
6687.933594 90.195 -81.8566
6736.396973 90.303 -83.2824
6785.211426 90.403 -84.8062
6834.379883 90.491 -86.4205
6883.904785 90.563 -88.1181
6933.788574 90.622 -89.8897
6984.033691 90.667 -91.7251
7034.642578 90.699 -93.6193
7085.618652 90.715 -95.5665
7136.963867 90.716 -97.5599
7188.681152 90.702 -99.5936
7240.773438 90.671 -101.6596
7293.243164 90.623 -103.7518
7346.092773 90.557 -105.8574
7399.325684 90.473 -107.9654
7452.944336 90.370 -110.0635
7506.951172 90.248 -112.1401
7561.350098 90.110 -114.1826
7616.142578 89.954 -116.1765
7671.332031 89.782 -118.1152
7726.921875 89.596 -119.9886
7782.914551 89.398 -121.7929
7839.312500 89.189 -123.5228
7896.119629 88.971 -125.1745
7953.337891 88.743 -126.7406
8010.971191 88.509 -128.2263
8069.021973 88.275 -129.6311
8127.493164 88.038 -130.9651
8186.388672 87.800 -132.2379
8245.710938 87.560 -133.4517
8305.461914 87.320 -134.6097
8365.647461 87.081 -135.7183
8426.267578 86.844 -136.7830
8487.328125 86.608 -137.8087
8548.831055 86.373 -138.8036
8610.779297 86.136 -139.7630
8673.176758 85.897 -140.6860
8736.026367 85.657 -141.5683
8799.331055 85.417 -142.4040
8863.094727 85.178 -143.1979
8927.320312 84.942 -143.9505
8992.010742 84.709 -144.6693
9057.170898 84.479 -145.3573
9122.802734 84.255 -146.0285
9188.910156 84.039 -146.6924
9255.497070 83.830 -147.3653
9322.566406 83.627 -148.0647
9390.121094 83.427 -148.7960
9458.166016 83.228 -149.5699
9526.704102 83.029 -150.3885
9595.738281 82.828 -151.2616
9665.273438 82.620 -152.1771
9735.311523 82.400 -153.1328
9805.857422 82.168 -154.1087
9876.915039 81.923 -155.0878
9948.487305 81.663 -156.0578
10020.578125 81.389 -157.0048
10093.191406 81.101 -157.9172
10166.331055 80.796 -158.7793
10240.000000 80.479 -159.5889
10314.203125 80.152 -160.3402
10388.944336 79.814 -161.0289
10464.226562 79.462 -161.6543
10540.054688 79.097 -162.2000
10616.432617 78.719 -162.6577
10693.363281 78.325 -163.0013
10770.852539 77.916 -163.2170
10848.902344 77.488 -163.2613
10927.517578 77.039 -163.0996
11006.703125 76.575 -162.6919
11086.461914 76.098 -161.9904
11166.798828 75.619 -160.9835
11247.718750 75.142 -159.6351
11329.223633 74.683 -157.9714
11411.320312 74.255 -155.9855
11494.011719 73.872 -153.7418
11577.301758 73.550 -151.2710
11661.195312 73.297 -148.6677
11745.697266 73.129 -146.0043
11830.811523 73.040 -143.3780
11916.542969 73.036 -140.8866
12002.894531 73.102 -138.6010
12089.873047 73.231 -136.6121
12177.480469 73.405 -134.9564
12265.723633 73.611 -133.7022
12354.606445 73.832 -132.8436
12444.132812 74.051 -132.4106
12534.308594 74.258 -132.3613
12625.136719 74.439 -132.6818
12716.624023 74.589 -133.3169
12808.773438 74.700 -134.2287
12901.591797 74.768 -135.3501
12995.082031 74.785 -136.6230
13089.250000 74.755 -137.9831
13184.099609 74.676 -139.3635
13279.636719 74.551 -140.7132
13375.867188 74.380 -141.9727
13472.793945 74.169 -143.1001
13570.422852 73.920 -144.0404
13668.759766 73.642 -144.7733
13767.809570 73.340 -145.2607
13867.577148 73.023 -145.5013
13968.067383 72.696 -145.4774
14069.285156 72.369 -145.2013
14171.237305 72.048 -144.6702
14273.927734 71.743 -143.9116
14377.362305 71.459 -142.9398
14481.546875 71.204 -141.7913
14586.486328 70.984 -140.4929
14692.185547 70.803 -139.0884
14798.651367 70.666 -137.6132
14905.888672 70.573 -136.1206
15013.902344 70.531 -134.6569
15122.700195 70.533 -133.2785
15232.285156 70.581 -132.0443
15342.664062 70.663 -130.9937
15453.843750 70.775 -130.1814
15565.829102 70.903 -129.6213
15678.625000 71.039 -129.3526
15792.239258 71.170 -129.3523
15906.675781 71.283 -129.6336
16021.942383 71.370 -130.1268
16138.043945 71.416 -130.7940
16254.986328 71.425 -131.5515
16372.777344 71.392 -132.3242
16491.421875 71.324 -133.0482
16610.923828 71.222 -133.6398
16731.294922 71.100 -134.0829
16852.535156 70.970 -134.3167
16974.656250 70.847 -134.3930
17097.662109 70.749 -134.3148
17221.558594 70.679 -134.1690
17346.353516 70.651 -134.0178
17472.052734 70.657 -133.9391
17598.662109 70.699 -134.0167
17726.189453 70.763 -134.2957
17854.640625 70.838 -134.8535
17984.021484 70.910 -135.6757
18114.341797 70.960 -136.7994
18245.605469 70.978 -138.1458
18377.820312 70.947 -139.6820
18510.994141 70.866 -141.3055
18645.132812 70.726 -142.9336
18780.242188 70.533 -144.4721
18916.332031 70.284 -145.8119
19053.408203 69.994 -146.9145
19191.476562 69.673 -147.6946
19330.546875 69.337 -148.1841
19470.623047 69.002 -148.3714
19611.714844 68.675 -148.3050
19753.830078 68.366 -148.0073
19896.974609 68.087 -147.5462
