* Measurement data measured by REW V5.20.13
* Source: C:\Users\kurin\Desktop\Targets and Curves\Resolve\Img\Files\Meze Liric_SPL.txt
* Format: Comma/Tab/Space delimited data
* Dated: Aug 15, 2023 12:12:02 AM
* REW Settings:
*  C-weighting compensation: Off
*  Target level: 75.0 dB
* Note: ; Measurement imported from C:\Users\kurin\Desktop\Targets and Curves\Resolve\Img\Files\Meze Liric_SPL.txt Format: Comma/Tab/Space delimited data 623 values loaded, 5 Hz to 39,792 Hz log spaced 
* Measurement: Meze Liric_SPL
* Smoothing: 1/48 octave
* Frequency Step: 1/96 octave
* Start Frequency: 5.000 Hz
*
* Freq(Hz) SPL(dB) Phase(degrees)
5.000000 86.851 21.2130
5.036232 86.858 21.2033
5.072727 86.866 21.1930
5.109486 86.875 21.1814
5.146511 86.886 21.1680
5.183805 86.899 21.1516
5.221369 86.913 21.1340
5.259205 86.928 21.1169
5.297316 86.943 21.0990
5.335702 86.959 21.0793
5.374367 86.976 21.0590
5.413311 86.993 21.0395
5.452538 87.009 21.0200
5.492050 87.025 21.0001
5.531847 87.042 20.9800
5.571934 87.058 20.9601
5.612310 87.075 20.9400
5.652979 87.091 20.9196
5.693943 87.108 20.8990
5.735204 87.124 20.8781
5.776763 87.141 20.8570
5.818624 87.158 20.8360
5.860788 87.174 20.8150
5.903258 87.190 20.7941
5.946035 87.207 20.7730
5.989123 87.223 20.7516
6.032523 87.240 20.7300
6.076237 87.257 20.7081
6.120268 87.273 20.6860
6.164618 87.289 20.6636
6.209289 87.306 20.6410
6.254284 87.322 20.6185
6.299605 87.339 20.5960
6.345255 87.355 20.5736
6.391235 87.372 20.5510
6.437549 87.388 20.5276
6.484198 87.405 20.5040
6.531185 87.422 20.4806
6.578513 87.438 20.4570
6.626183 87.454 20.4331
6.674199 87.471 20.4090
6.722563 87.487 20.3851
6.771278 87.504 20.3610
6.820345 87.520 20.3366
6.869768 87.537 20.3120
6.919549 87.553 20.2871
6.969691 87.570 20.2620
7.020196 87.586 20.2366
7.071068 87.603 20.2110
7.122308 87.620 20.1856
7.173919 87.637 20.1600
7.225904 87.654 20.1341
7.278266 87.670 20.1080
7.331007 87.686 20.0816
7.384131 87.703 20.0550
7.437639 87.719 20.0281
7.491535 87.736 20.0010
7.545822 87.752 19.9741
7.600502 87.769 19.9470
7.655579 87.785 19.9196
7.711054 87.802 19.8920
7.766932 87.818 19.8641
7.823214 87.835 19.8360
7.879904 87.851 19.8076
7.937005 87.868 19.7790
7.994520 87.884 19.7501
8.052452 87.901 19.7210
8.110803 87.917 19.6916
8.169578 87.934 19.6620
8.228777 87.950 19.6326
8.288406 87.967 19.6030
8.348468 87.983 19.5726
8.408964 88.000 19.5420
8.469899 88.016 19.5116
8.531276 88.033 19.4810
8.593097 88.049 19.4502
8.655366 88.066 19.4190
8.718086 88.082 19.3871
8.781260 88.099 19.3550
8.844893 88.115 19.3231
8.908987 88.132 19.2910
8.973545 88.148 19.2586
9.038571 88.165 19.2260
9.104069 88.181 19.1932
9.170040 88.198 19.1600
9.236490 88.214 19.1261
9.303422 88.231 19.0920
9.370838 88.247 19.0581
9.438744 88.264 19.0240
9.507140 88.280 18.9896
9.576033 88.297 18.9550
9.645425 88.313 18.9202
9.715320 88.330 18.8850
9.785721 88.346 18.8491
9.856632 88.363 18.8130
9.928058 88.379 18.7771
10.000000 88.396 18.7410
10.072464 88.412 18.7042
10.145453 88.429 18.6670
10.218971 88.445 18.6297
10.293022 88.462 18.5920
10.367610 88.479 18.5541
10.442738 88.495 18.5160
10.518411 88.511 18.4777
10.594631 88.528 18.4390
10.671404 88.544 18.3996
10.748734 88.561 18.3600
10.826623 88.577 18.3206
10.905077 88.594 18.2810
10.984100 88.610 18.2407
11.063695 88.627 18.2000
11.143867 88.643 18.1592
11.224621 88.660 18.1180
11.305959 88.676 18.0762
11.387886 88.693 18.0340
11.470407 88.709 17.9916
11.553527 88.726 17.9490
11.637249 88.742 17.9062
11.721577 88.759 17.8630
11.806517 88.775 17.8192
11.892071 88.792 17.7750
11.978246 88.808 17.7306
12.065045 88.825 17.6860
12.152473 88.841 17.6412
12.240536 88.858 17.5960
12.329235 88.874 17.5503
12.418578 88.891 17.5040
12.508568 88.907 17.4572
12.599211 88.924 17.4100
12.690510 88.940 17.3627
12.782471 88.957 17.3150
12.875097 88.973 17.2672
12.968395 88.990 17.2190
13.062370 89.007 17.1703
13.157025 89.024 17.1210
13.252366 89.041 17.0713
13.348398 89.057 17.0210
13.445127 89.073 16.9702
13.542556 89.090 16.9191
13.640691 89.106 16.8677
13.739536 89.123 16.8160
13.839099 89.139 16.7637
13.939383 89.156 16.7110
14.040393 89.172 16.6583
14.142136 89.189 16.6050
14.244616 89.205 16.5508
14.347837 89.222 16.4960
14.451808 89.238 16.4413
14.556532 89.255 16.3860
14.662014 89.271 16.3298
14.768262 89.288 16.2731
14.875278 89.304 16.2163
14.983070 89.321 16.1591
15.091644 89.337 16.1008
15.201005 89.354 16.0420
15.311157 89.370 15.9833
15.422109 89.387 15.9240
15.533863 89.403 15.8638
15.646428 89.420 15.8030
15.759809 89.436 15.7423
15.874010 89.453 15.6810
15.989040 89.469 15.6189
16.104904 89.486 15.5561
16.221605 89.502 15.4923
16.339155 89.519 15.4281
16.457554 89.535 15.3638
16.576813 89.552 15.2990
16.696936 89.568 15.2334
16.817928 89.585 15.1670
16.939798 89.601 15.1003
17.062551 89.618 15.0331
17.186193 89.634 14.9654
17.310732 89.651 14.8970
17.436172 89.667 14.8279
17.562521 89.684 14.7581
17.689787 89.700 14.6879
17.817974 89.717 14.6171
17.947090 89.733 14.5454
18.077143 89.750 14.4730
18.208138 89.766 14.4003
18.340080 89.783 14.3271
18.472980 89.799 14.2532
18.606844 89.816 14.1790
18.741676 89.832 14.1046
18.877487 89.849 14.0301
19.014280 89.865 13.9556
19.152065 89.882 13.8811
19.290850 89.899 13.8062
19.430639 89.916 13.7310
19.571442 89.933 13.6561
19.713264 89.951 13.5801
19.856115 89.970 13.5022
20.000000 89.989 13.4211
20.144928 90.008 13.3348
20.290907 90.027 13.2441
20.437943 90.046 13.1490
20.586044 90.065 13.0491
20.735220 90.084 12.9432
20.885475 90.102 12.8331
21.036821 90.119 12.7184
21.189262 90.134 12.6041
21.342808 90.148 12.4959
21.497467 90.161 12.3921
21.653246 90.175 12.2932
21.810154 90.190 12.1981
21.968201 90.204 12.1064
22.127390 90.219 12.0171
22.287735 90.236 11.9310
22.449242 90.254 11.8431
22.611917 90.274 11.7492
22.775772 90.295 11.6471
22.940815 90.316 11.5327
23.107054 90.337 11.4082
23.274498 90.357 11.2734
23.443153 90.376 11.1312
23.613033 90.394 10.9830
23.784142 90.410 10.8331
23.956491 90.423 10.6863
24.130091 90.436 10.5422
24.304947 90.449 10.4023
24.481071 90.463 10.2652
24.658470 90.476 10.1304
24.837156 90.489 9.9962
25.017136 90.504 9.8621
25.198421 90.520 9.7231
25.381020 90.537 9.5737
25.564941 90.554 9.4152
25.750195 90.569 9.2456
25.936790 90.582 9.0692
26.124741 90.594 8.8886
26.314051 90.604 8.7063
26.504732 90.612 8.5246
26.696796 90.618 8.3472
26.890253 90.622 8.1788
27.085112 90.625 8.0192
27.281382 90.628 7.8713
27.479073 90.632 7.7312
27.678198 90.637 7.5973
27.878765 90.644 7.4652
28.080786 90.652 7.3299
28.284271 90.661 7.1912
28.489231 90.669 7.0473
28.695675 90.678 6.8982
28.903616 90.687 6.7428
29.113064 90.695 6.5822
29.324028 90.702 6.4157
29.536524 90.707 6.2482
29.750557 90.710 6.0840
29.966141 90.712 5.9242
30.183289 90.714 5.7719
30.402010 90.716 5.6252
30.622314 90.718 5.4844
30.844217 90.721 5.3462
31.067726 90.726 5.2088
31.292856 90.733 5.0672
31.519617 90.740 4.9152
31.748020 90.747 4.7542
31.978081 90.753 4.5828
32.209808 90.758 4.4042
32.443211 90.761 4.2204
32.678310 90.762 4.0342
32.915108 90.761 3.8480
33.153625 90.757 3.6662
33.393871 90.752 3.4939
33.635857 90.745 3.3312
33.879597 90.738 3.1808
34.125103 90.731 3.0402
34.372387 90.725 2.9095
34.621464 90.720 2.7842
34.872345 90.717 2.6607
35.125042 90.716 2.5362
35.379574 90.715 2.4061
35.635948 90.714 2.2712
35.894180 90.713 2.1303
36.154285 90.712 1.9842
36.416275 90.710 1.8322
36.680161 90.707 1.6772
36.945961 90.702 1.5209
37.213688 90.695 1.3662
37.483353 90.687 1.2168
37.754974 90.678 1.0722
38.028561 90.669 0.9329
38.304131 90.659 0.7992
38.581699 90.648 0.6707
38.861279 90.637 0.5492
39.142883 90.625 0.4366
39.426529 90.613 0.3321
39.712231 90.602 0.2364
40.000000 90.591 0.1471
40.289856 90.581 0.0622
40.581814 90.572 -0.0179
40.875885 90.563 -0.0929
41.172089 90.555 -0.1639
41.470440 90.548 -0.2305
41.770950 90.543 -0.2969
42.073643 90.540 -0.3664
42.378525 90.538 -0.4409
42.685616 90.537 -0.5234
42.994934 90.536 -0.6139
43.306492 90.535 -0.7132
43.620308 90.534 -0.8208
43.936401 90.532 -0.9377
44.254780 90.529 -1.0608
44.575470 90.524 -1.1888
44.898483 90.517 -1.3178
45.223835 90.508 -1.4432
45.551544 90.498 -1.5658
45.881630 90.488 -1.6855
46.214108 90.476 -1.7998
46.548996 90.462 -1.9070
46.886307 90.447 -2.0049
47.226067 90.432 -2.0889
47.568283 90.418 -2.1649
47.912983 90.406 -2.2360
48.260181 90.395 -2.3049
48.609894 90.383 -2.3755
48.962143 90.372 -2.4469
49.316940 90.362 -2.5191
49.674313 90.351 -2.5929
50.034271 90.340 -2.6701
50.396843 90.327 -2.7479
50.762039 90.313 -2.8251
51.129883 90.297 -2.8979
51.500389 90.280 -2.9620
51.873581 90.262 -3.0179
52.249481 90.244 -3.0654
52.628101 90.225 -3.1029
53.009464 90.205 -3.1293
53.393593 90.185 -3.1440
53.780506 90.165 -3.1451
54.170223 90.146 -3.1350
54.562763 90.128 -3.1167
54.958145 90.110 -3.0871
55.356396 90.091 -3.0437
55.757530 90.073 -2.9871
56.161572 90.057 -2.9158
56.568542 90.043 -2.8331
56.978462 90.031 -2.7422
57.391350 90.021 -2.6432
57.807232 90.013 -2.5368
58.226128 90.007 -2.4252
58.648056 90.004 -2.3111
59.073048 90.003 -2.1942
59.501114 90.003 -2.0756
59.932281 90.004 -1.9532
60.366577 90.007 -1.8243
60.804020 90.012 -1.6912
61.244629 90.020 -1.5549
61.688435 90.032 -1.4172
62.135452 90.047 -1.2792
62.585712 90.065 -1.1452
63.039234 90.087 -1.0193
63.496040 90.112 -0.9042
63.956161 90.140 -0.8038
64.419617 90.171 -0.7181
64.886421 90.203 -0.6484
65.356621 90.237 -0.5951
65.830215 90.272 -0.5598
66.307251 90.309 -0.5410
66.787743 90.346 -0.5382
67.271713 90.383 -0.5500
67.759193 90.421 -0.5740
68.250206 90.461 -0.6129
68.744774 90.502 -0.6681
69.242928 90.544 -0.7408
69.744690 90.586 -0.8330
70.250084 90.628 -0.9448
70.759148 90.671 -1.0765
71.271896 90.714 -1.2297
71.788361 90.756 -1.4066
72.308571 90.798 -1.6046
72.832550 90.837 -1.8224
73.360321 90.875 -2.0585
73.891922 90.911 -2.3106
74.427376 90.945 -2.5805
74.966705 90.979 -2.8694
75.509949 91.010 -3.1764
76.057121 91.037 -3.5026
76.608261 91.061 -3.8433
77.163399 91.081 -4.1951
77.722557 91.097 -4.5553
78.285767 91.108 -4.9219
78.853058 91.115 -5.2883
79.424461 91.115 -5.6487
80.000000 91.111 -5.9973
80.579712 91.104 -6.3274
81.163628 91.093 -6.6364
81.751770 91.079 -6.9199
82.344177 91.064 -7.1775
82.940880 91.049 -7.4054
83.541901 91.035 -7.6096
84.147285 91.024 -7.7937
84.757050 91.015 -7.9607
85.371231 91.007 -8.1135
85.989868 91.003 -8.2567
86.612984 91.004 -8.3938
87.240616 91.008 -8.5317
87.872803 91.016 -8.6778
88.509560 91.027 -8.8337
89.150940 91.040 -9.0023
89.796967 91.055 -9.1876
90.447670 91.073 -9.3947
91.103088 91.092 -9.6225
91.763260 91.111 -9.8721
92.428215 91.129 -10.1424
93.097992 91.147 -10.4325
93.772614 91.164 -10.7433
94.452133 91.180 -11.0765
95.136566 91.195 -11.4292
95.825966 91.207 -11.7997
96.520363 91.217 -12.1871
97.219788 91.225 -12.5903
97.924286 91.230 -13.0091
98.633881 91.232 -13.4455
99.348625 91.229 -13.8921
100.068542 91.221 -14.3437
100.793686 91.208 -14.7959
101.524078 91.191 -15.2429
102.259766 91.171 -15.6829
103.000778 91.147 -16.1134
103.747162 91.120 -16.5302
104.498962 91.089 -16.9277
105.256203 91.056 -17.3073
106.018929 91.025 -17.6669
106.787186 90.994 -18.0123
107.561012 90.963 -18.3477
108.340446 90.933 -18.6755
109.125526 90.904 -18.9981
109.916290 90.877 -19.3204
110.712791 90.852 -19.6471
111.515060 90.828 -19.9813
112.323143 90.804 -20.3273
113.137085 90.780 -20.6862
113.956924 90.756 -21.0609
114.782700 90.730 -21.4500
115.614464 90.701 -21.8541
116.452255 90.670 -22.2702
117.296112 90.636 -22.6961
118.146095 90.598 -23.1291
119.002228 90.557 -23.5674
119.864563 90.511 -24.0058
120.733154 90.460 -24.4390
121.608040 90.405 -24.8661
122.489258 90.349 -25.2847
123.376869 90.289 -25.6940
124.270905 90.225 -26.0932
125.171425 90.157 -26.4793
126.078468 90.088 -26.8481
126.992081 90.016 -27.2032
127.912323 89.944 -27.5475
128.839233 89.869 -27.8783
129.772842 89.791 -28.1944
130.713242 89.710 -28.4944
131.660431 89.628 -28.7760
132.614502 89.545 -29.0413
133.575485 89.461 -29.2920
134.543427 89.375 -29.5266
135.518387 89.288 -29.7435
136.500412 89.199 -29.9436
137.489548 89.110 -30.1272
138.485855 89.019 -30.2946
139.489380 88.928 -30.4465
140.500168 88.835 -30.5817
141.518295 88.742 -30.6992
142.543793 88.648 -30.7988
143.576721 88.553 -30.8800
144.617142 88.457 -30.9419
145.665100 88.360 -30.9836
146.720642 88.262 -31.0040
147.783844 88.164 -31.0016
148.854752 88.066 -30.9761
149.933411 87.969 -30.9267
151.019897 87.871 -30.8532
152.114243 87.774 -30.7547
153.216522 87.678 -30.6324
154.326797 87.585 -30.4863
155.445114 87.493 -30.3194
156.571533 87.403 -30.1336
157.706116 87.316 -29.9315
158.848923 87.233 -29.7150
160.000000 87.152 -29.4876
161.159424 87.075 -29.2521
162.327255 87.000 -29.0115
163.503540 86.928 -28.7696
164.688354 86.858 -28.5265
165.881760 86.790 -28.2841
167.083801 86.722 -28.0416
168.294571 86.655 -27.7996
169.514099 86.589 -27.5556
170.742462 86.523 -27.3078
171.979736 86.457 -27.0547
173.225967 86.391 -26.7942
174.481232 86.325 -26.5256
175.745605 86.260 -26.2478
177.019119 86.195 -25.9597
178.301880 86.131 -25.6593
179.593933 86.068 -25.3478
180.895340 86.007 -25.0251
182.206177 85.948 -24.6938
183.526520 85.891 -24.3564
184.856430 85.836 -24.0138
186.195984 85.782 -23.6670
187.545227 85.730 -23.3178
188.904266 85.680 -22.9678
190.273132 85.632 -22.6179
191.651932 85.585 -22.2695
193.040726 85.538 -21.9220
194.439575 85.492 -21.5756
195.848572 85.446 -21.2290
197.267761 85.400 -20.8820
198.697250 85.353 -20.5319
200.137085 85.306 -20.1776
201.587372 85.257 -19.8139
203.048157 85.206 -19.4369
204.519531 85.153 -19.0412
206.001556 85.100 -18.6223
207.494324 85.046 -18.1731
208.997925 84.990 -17.6866
210.512405 84.936 -17.1593
212.037857 84.886 -16.5824
213.574371 84.842 -15.9655
215.122025 84.807 -15.3106
216.680893 84.781 -14.6319
218.251053 84.767 -13.9380
219.832581 84.766 -13.2480
221.425583 84.778 -12.5787
223.030121 84.802 -11.9446
224.646286 84.836 -11.3640
226.274170 84.876 -10.8413
227.913849 84.920 -10.3882
229.565399 84.966 -9.9999
231.228928 85.010 -9.6805
232.904510 85.050 -9.4147
234.592224 85.083 -9.1927
236.292191 85.111 -9.0025
238.004456 85.133 -8.8309
239.729126 85.150 -8.6724
241.466309 85.162 -8.5184
243.216080 85.170 -8.3644
244.978516 85.174 -8.2026
246.753738 85.176 -8.0345
248.541809 85.178 -7.8586
250.342850 85.179 -7.6765
252.156937 85.179 -7.4890
253.984161 85.179 -7.2975
255.824646 85.179 -7.1032
257.678467 85.179 -6.9075
259.545685 85.179 -6.7120
261.426483 85.179 -6.5175
263.320862 85.179 -6.3254
265.229004 85.179 -6.1355
267.150970 85.178 -5.9482
269.086853 85.176 -5.7635
271.036774 85.175 -5.5825
273.000824 85.172 -5.4025
274.979095 85.167 -5.2228
276.971710 85.160 -5.0396
278.978760 85.152 -4.8486
281.000336 85.143 -4.6505
283.036591 85.133 -4.4450
285.087585 85.123 -4.2317
287.153442 85.113 -4.0107
289.234283 85.102 -3.7796
291.330200 85.090 -3.5361
293.441284 85.077 -3.2797
295.567688 85.066 -3.0087
297.709503 85.055 -2.7248
299.866821 85.046 -2.4295
302.039795 85.038 -2.1219
304.228485 85.031 -1.8010
306.433044 85.026 -1.4690
308.653595 85.024 -1.1254
310.890228 85.026 -0.7770
313.143066 85.032 -0.4300
315.412231 85.041 -0.0850
317.697845 85.051 0.2558
320.000000 85.063 0.5910
322.318848 85.078 0.9191
324.654510 85.096 1.2380
327.007080 85.115 1.5437
329.376709 85.134 1.8401
331.763519 85.153 2.1297
334.167603 85.173 2.4131
336.589142 85.194 2.6918
339.028198 85.216 2.9652
341.484924 85.238 3.2337
343.959473 85.261 3.4963
346.451935 85.286 3.7517
348.962463 85.311 4.0003
351.491211 85.336 4.2415
354.038239 85.362 4.4763
356.603760 85.389 4.7076
359.187866 85.417 4.9303
361.790680 85.447 5.1403
364.412354 85.478 5.3385
367.053040 85.507 5.5230
369.712860 85.536 5.6975
372.391968 85.564 5.8663
375.090454 85.593 6.0256
377.808533 85.622 6.1717
380.546265 85.650 6.3076
383.303864 85.675 6.4341
386.081451 85.699 6.5547
388.879150 85.721 6.6725
391.697144 85.742 6.7896
394.535522 85.761 6.9089
397.394501 85.778 7.0316
400.274170 85.795 7.1603
403.174744 85.811 7.2946
406.096313 85.827 7.4349
409.039062 85.842 7.5815
412.003113 85.858 7.7360
414.988647 85.874 7.8955
417.995850 85.892 8.0578
421.024811 85.910 8.2225
424.075714 85.928 8.3877
427.148743 85.946 8.5555
430.244049 85.965 8.7284
433.361786 85.985 8.9024
436.502106 86.008 9.0743
439.665161 86.031 9.2445
442.851166 86.053 9.4122
446.060242 86.076 9.5775
449.292572 86.101 9.7413
452.548340 86.127 9.9005
455.827698 86.153 10.0510
459.130798 86.178 10.1965
462.457855 86.202 10.3389
465.809021 86.226 10.4805
469.184448 86.249 10.6247
472.584381 86.272 10.7715
476.008911 86.295 10.9221
479.458252 86.318 11.0775
482.932617 86.341 11.2395
486.432159 86.364 11.4075
489.957031 86.389 11.5817
493.507477 86.415 11.7604
497.083618 86.443 11.9430
500.685699 86.473 12.1264
504.313873 86.506 12.3080
507.968323 86.541 12.4854
511.649292 86.578 12.6560
515.356934 86.617 12.8175
519.091370 86.658 12.9677
522.852966 86.700 13.1046
526.641724 86.743 13.2248
530.458008 86.787 13.3297
534.301941 86.830 13.4191
538.173706 86.873 13.4938
542.073547 86.915 13.5531
546.001648 86.956 13.6009
549.958191 86.994 13.6398
553.943420 87.030 13.6729
557.957520 87.064 13.7032
562.000671 87.097 13.7329
566.073181 87.128 13.7644
570.175171 87.157 13.8009
574.306885 87.184 13.8466
578.468567 87.210 13.9008
582.660400 87.238 13.9643
586.882568 87.266 14.0357
591.135376 87.293 14.1137
595.419006 87.321 14.1997
599.733643 87.349 14.2964
604.079590 87.379 14.3996
608.456970 87.412 14.5064
612.866089 87.447 14.6156
617.307190 87.482 14.7252
621.780457 87.518 14.8356
626.286133 87.556 14.9478
630.824463 87.597 15.0586
635.395691 87.640 15.1651
640.000000 87.684 15.2677
644.637695 87.728 15.3652
649.309021 87.774 15.4587
654.014160 87.821 15.5493
658.753418 87.871 15.6357
663.527039 87.922 15.7174
668.335205 87.975 15.7938
673.178284 88.029 15.8654
678.056396 88.087 15.9288
682.969849 88.148 15.9827
687.918945 88.212 16.0209
692.903870 88.279 16.0381
697.924927 88.349 16.0311
702.982422 88.419 15.9949
708.076477 88.491 15.9293
713.207520 88.563 15.8326
718.375732 88.635 15.7045
723.581360 88.705 15.5423
728.824707 88.772 15.3517
734.106079 88.835 15.1358
739.425720 88.894 14.8999
744.783936 88.949 14.6492
750.180908 89.000 14.3870
755.617065 89.048 14.1164
761.092529 89.092 13.8420
766.607727 89.131 13.5689
772.162903 89.168 13.2980
777.758301 89.202 13.0314
783.394287 89.234 12.7699
789.071045 89.263 12.5135
794.789001 89.289 12.2669
800.548340 89.312 12.0347
806.349487 89.333 11.8177
812.192627 89.355 11.6197
818.078125 89.377 11.4366
824.006226 89.400 11.2657
829.977295 89.425 11.1075
835.991699 89.449 10.9637
842.049622 89.476 10.8285
848.151428 89.507 10.7001
854.297485 89.543 10.5685
860.488098 89.583 10.4236
866.723572 89.626 10.2636
873.004211 89.669 10.0838
879.330322 89.714 9.8838
885.702332 89.760 9.6626
892.120483 89.806 9.4169
898.585144 89.853 9.1412
905.096680 89.898 8.8402
911.655396 89.939 8.5155
918.261597 89.978 8.1713
924.915710 90.013 7.8117
931.618042 90.046 7.4384
938.368896 90.075 7.0526
945.168762 90.100 6.6595
952.017822 90.120 6.2632
958.916504 90.137 5.8675
965.865234 90.150 5.4770
972.864319 90.160 5.0934
979.914062 90.168 4.7195
987.014954 90.173 4.3563
994.167236 90.176 4.0066
1001.371399 90.179 3.6682
1008.627747 90.182 3.3415
1015.936646 90.186 3.0213
1023.298584 90.191 2.7048
1030.713867 90.198 2.3850
1038.182739 90.206 2.0554
1045.705933 90.215 1.7125
1053.283447 90.223 1.3516
1060.916016 90.230 0.9707
1068.603882 90.236 0.5658
1076.347412 90.239 0.1388
1084.147095 90.237 -0.3145
1092.003296 90.228 -0.7804
1099.916382 90.209 -1.2513
1107.886841 90.181 -1.7131
1115.915039 90.145 -2.1516
1124.001343 90.101 -2.5586
1132.146362 90.051 -2.9219
1140.350342 89.997 -3.2389
1148.613770 89.940 -3.5008
1156.937134 89.883 -3.7132
1165.320801 89.828 -3.8747
1173.765137 89.775 -3.9975
1182.270752 89.729 -4.0912
1190.838013 89.687 -4.1627
1199.467285 89.648 -4.2208
1208.159180 89.613 -4.2708
1216.913940 89.582 -4.3207
1225.732178 89.553 -4.3708
1234.614380 89.524 -4.4272
1243.560913 89.494 -4.4808
1252.572266 89.461 -4.5258
1261.648926 89.427 -4.5579
1270.791382 89.393 -4.5722
1280.000000 89.359 -4.5651
1289.275391 89.324 -4.5321
1298.618042 89.289 -4.4703
1308.028320 89.256 -4.3741
1317.506836 89.227 -4.2476
1327.054077 89.204 -4.0891
1336.670410 89.187 -3.9107
1346.356567 89.180 -3.7184
1356.112793 89.182 -3.5287
1365.939697 89.195 -3.3557
1375.837891 89.217 -3.2125
1385.807739 89.245 -3.1148
1395.849854 89.279 -3.0691
1405.964844 89.316 -3.0880
1416.152954 89.354 -3.1686
1426.415039 89.388 -3.3167
1436.751465 89.416 -3.5181
1447.162720 89.435 -3.7658
1457.649414 89.445 -4.0438
1468.212158 89.445 -4.3391
1478.851440 89.434 -4.6359
1489.567871 89.412 -4.9164
1500.361816 89.382 -5.1731
1511.234131 89.346 -5.3925
1522.185059 89.305 -5.5753
1533.215454 89.260 -5.7166
1544.325806 89.212 -5.8186
1555.516602 89.164 -5.8799
1566.788574 89.115 -5.9060
1578.142090 89.068 -5.9011
1589.578003 89.020 -5.8672
1601.096680 88.972 -5.8084
1612.698975 88.923 -5.7214
1624.385254 88.874 -5.6057
1636.156250 88.824 -5.4567
1648.012451 88.773 -5.2718
1659.954590 88.720 -5.0449
1671.983398 88.667 -4.7702
1684.099243 88.615 -4.4445
1696.302856 88.565 -4.0627
1708.594971 88.518 -3.6251
1720.976196 88.477 -3.1282
1733.447144 88.442 -2.5785
1746.008423 88.418 -1.9780
1758.660645 88.403 -1.3367
1771.404663 88.399 -0.6622
1784.240967 88.407 0.0361
1797.170288 88.428 0.7499
1810.193359 88.462 1.4682
1823.310791 88.509 2.1794
1836.523193 88.569 2.8763
1849.831421 88.638 3.5480
1863.236084 88.718 4.1932
1876.737793 88.807 4.8083
1890.337524 88.905 5.3886
1904.035645 89.012 5.9277
1917.833008 89.127 6.4261
1931.730469 89.246 6.8833
1945.728638 89.372 7.2963
1959.828125 89.508 7.6657
1974.029907 89.651 7.9798
1988.334473 89.802 8.2277
2002.742798 89.956 8.4084
2017.255493 90.113 8.5174
2031.873291 90.272 8.5550
2046.597168 90.433 8.5194
2061.427734 90.592 8.4126
2076.365479 90.748 8.2325
2091.411865 90.899 7.9901
2106.566895 91.046 7.6939
2121.832031 91.187 7.3495
2137.207764 91.325 6.9640
2152.694824 91.458 6.5417
2168.294189 91.587 6.0891
2184.006592 91.710 5.6073
2199.832764 91.831 5.0998
2215.773682 91.949 4.5652
2231.830078 92.063 4.0029
2248.002686 92.174 3.4145
2264.292725 92.279 2.7997
2280.700684 92.381 2.1638
2297.227539 92.476 1.5103
2313.874268 92.567 0.8437
2330.641602 92.653 0.1688
2347.530273 92.735 -0.5111
2364.541504 92.812 -1.1912
2381.676025 92.887 -1.8709
2398.934570 92.960 -2.5464
2416.318359 93.033 -3.2230
2433.827881 93.106 -3.9021
2451.464355 93.180 -4.5911
2469.228760 93.254 -5.2956
2487.121826 93.330 -6.0228
2505.144531 93.406 -6.7803
2523.297852 93.482 -7.5733
2541.582764 93.555 -8.4113
2560.000000 93.625 -9.2890
2578.550781 93.686 -10.2086
2597.236084 93.740 -11.1576
2616.056641 93.783 -12.1291
2635.013672 93.816 -13.1079
2654.108154 93.837 -14.0811
2673.340820 93.849 -15.0339
2692.713135 93.850 -15.9485
2712.225586 93.845 -16.8200
2731.879395 93.836 -17.6364
2751.675781 93.826 -18.4016
2771.615479 93.817 -19.1108
2791.699707 93.811 -19.7781
2811.929688 93.813 -20.4087
2832.305908 93.823 -21.0241
2852.830078 93.844 -21.6432
2873.502930 93.872 -22.2802
2894.325439 93.906 -22.9535
2915.298828 93.945 -23.6696
2936.424316 93.986 -24.4417
2957.702881 94.027 -25.2683
2979.135742 94.065 -26.1548
3000.723633 94.098 -27.0928
3022.468262 94.124 -28.0786
3044.370117 94.143 -29.1022
3066.430908 94.152 -30.1561
3088.651611 94.153 -31.2301
3111.033203 94.144 -32.3122
3133.577148 94.126 -33.3998
3156.284180 94.102 -34.4872
3179.156006 94.069 -35.5719
3202.193359 94.027 -36.6512
3225.397949 93.977 -37.7190
3248.770508 93.919 -38.7690
3272.312500 93.853 -39.7984
3296.024902 93.780 -40.8047
3319.909180 93.698 -41.7806
3343.966797 93.608 -42.7206
3368.198486 93.509 -43.6169
3392.605713 93.404 -44.4607
3417.189941 93.292 -45.2495
3441.952393 93.175 -45.9791
3466.894287 93.054 -46.6461
3492.016846 92.927 -47.2492
3517.321289 92.797 -47.7787
3542.809326 92.663 -48.2276
3568.481934 92.527 -48.5876
3594.340576 92.390 -48.8488
3620.386719 92.255 -49.0085
3646.621582 92.125 -49.0587
3673.046387 92.003 -49.0045
3699.662842 91.891 -48.8419
3726.472168 91.795 -48.5903
3753.475586 91.722 -48.2576
3780.675049 91.671 -47.8758
3808.071289 91.648 -47.4697
3835.666016 91.651 -47.0698
3863.460938 91.681 -46.7079
3891.457275 91.734 -46.4053
3919.656250 91.808 -46.1886
3948.059814 91.901 -46.0733
3976.668945 92.009 -46.0827
4005.485596 92.128 -46.2190
4034.510986 92.252 -46.4934
4063.746582 92.379 -46.9017
4093.194336 92.508 -47.4442
4122.855469 92.634 -48.1194
4152.730957 92.756 -48.9298
4182.823730 92.870 -49.8633
4213.133789 92.973 -50.9136
4243.664062 93.063 -52.0653
4274.415527 93.138 -53.3067
4305.389648 93.198 -54.6204
4336.588379 93.239 -55.9920
4368.013184 93.263 -57.4012
4399.665527 93.270 -58.8266
4431.547363 93.261 -60.2580
4463.660156 93.238 -61.6801
4496.005371 93.201 -63.0870
4528.585449 93.152 -64.4686
4561.401367 93.092 -65.8226
4594.455078 93.024 -67.1440
4627.748535 92.948 -68.4318
4661.283203 92.864 -69.6848
4695.060547 92.773 -70.8982
4729.083008 92.676 -72.0657
4763.352051 92.574 -73.1898
4797.869141 92.471 -74.2680
4832.636719 92.367 -75.3089
4867.655762 92.263 -76.3150
4902.928711 92.160 -77.3012
4938.457520 92.063 -78.2782
4974.243652 91.968 -79.2613
5010.289062 91.877 -80.2685
5046.595703 91.784 -81.3027
5083.165527 91.689 -82.3778
5120.000000 91.588 -83.4796
5157.101562 91.475 -84.6058
5194.472168 91.351 -85.7335
5232.113281 91.212 -86.8434
5270.027344 91.062 -87.9217
5308.216309 90.901 -88.9472
5346.681641 90.734 -89.9233
5385.426270 90.563 -90.8418
5424.451172 90.390 -91.7178
5463.758789 90.218 -92.5596
5503.351562 90.047 -93.3810
5543.230957 89.877 -94.1989
5583.399414 89.706 -95.0130
5623.859375 89.530 -95.8343
5664.611816 89.346 -96.6451
5705.660156 89.151 -97.4379
5747.005859 88.945 -98.1932
5788.650879 88.727 -98.8908
5830.597656 88.499 -99.5239
5872.848633 88.264 -100.0783
5915.405762 88.024 -100.5567
5958.271484 87.781 -100.9540
6001.447266 87.536 -101.2795
6044.936523 87.295 -101.5375
6088.740234 87.054 -101.7381
6132.861816 86.816 -101.8976
6177.303223 86.576 -102.0026
6222.066406 86.330 -102.0528
6267.154297 86.078 -102.0254
6312.568359 85.820 -101.9003
6358.312012 85.558 -101.6684
6404.386719 85.297 -101.3146
6450.795898 85.037 -100.8378
6497.541016 84.780 -100.2293
6544.625000 84.532 -99.4980
6592.049805 84.298 -98.6412
6639.818359 84.082 -97.6852
6687.933594 83.888 -96.6468
6736.396973 83.717 -95.5517
6785.211426 83.569 -94.4259
6834.379883 83.443 -93.2849
6883.904785 83.337 -92.1505
6933.788574 83.250 -91.0307
6984.033691 83.179 -89.9416
7034.642578 83.121 -88.8803
7085.618652 83.073 -87.8519
7136.963867 83.034 -86.8480
7188.681152 83.003 -85.8666
7240.773438 82.978 -84.8929
7293.243164 82.958 -83.9147
7346.092773 82.945 -82.9220
7399.325684 82.942 -81.9000
7452.944336 82.954 -80.8513
7506.951172 82.982 -79.7651
7561.350098 83.035 -78.6677
7616.142578 83.120 -77.5649
7671.332031 83.239 -76.5073
7726.921875 83.397 -75.5293
7782.914551 83.591 -74.6859
7839.312500 83.821 -74.0253
7896.119629 84.080 -73.6015
7953.337891 84.363 -73.4777
8010.971191 84.655 -73.6750
8069.021973 84.942 -74.2430
8127.493164 85.213 -75.1592
8186.388672 85.455 -76.4335
8245.710938 85.661 -78.0179
8305.461914 85.819 -79.8920
8365.647461 85.924 -81.9825
8426.267578 85.966 -84.2378
8487.328125 85.945 -86.5706
8548.831055 85.857 -88.9088
8610.779297 85.701 -91.1545
8673.176758 85.474 -93.2220
8736.026367 85.180 -95.0033
8799.331055 84.819 -96.3918
8863.094727 84.402 -97.2967
8927.320312 83.935 -97.5990
8992.010742 83.442 -97.2774
9057.170898 82.937 -96.2485
9122.802734 82.456 -94.5815
9188.910156 82.028 -92.2707
9255.497070 81.685 -89.4594
9322.566406 81.463 -86.2190
9390.121094 81.382 -82.7606
9458.166016 81.483 -79.2654
9526.704102 81.727 -75.8962
9595.738281 82.095 -72.8441
9665.273438 82.566 -70.2037
9735.311523 83.128 -68.1159
9805.857422 83.744 -66.6303
9876.915039 84.378 -65.8605
9948.487305 85.013 -65.7548
10020.578125 85.615 -66.3192
10093.191406 86.185 -67.4901
10166.331055 86.715 -69.2280
10240.000000 87.191 -71.4660
10314.203125 87.598 -74.1604
10388.944336 87.935 -77.2009
10464.226562 88.193 -80.4897
10540.054688 88.380 -83.9431
10616.432617 88.498 -87.4734
10693.363281 88.546 -90.9962
10770.852539 88.519 -94.4218
10848.902344 88.430 -97.6819
10927.517578 88.287 -100.6866
11006.703125 88.100 -103.4131
11086.461914 87.876 -105.8103
11166.798828 87.627 -107.8745
11247.718750 87.364 -109.5734
11329.223633 87.101 -110.9418
11411.320312 86.854 -111.9805
11494.011719 86.633 -112.7614
11577.301758 86.454 -113.3253
11661.195312 86.322 -113.7657
11745.697266 86.247 -114.1609
11830.811523 86.223 -114.5984
11916.542969 86.252 -115.1741
12002.894531 86.318 -115.9421
12089.873047 86.409 -116.9879
12177.480469 86.510 -118.3116
12265.723633 86.606 -119.9566
12354.606445 86.685 -121.8779
12444.132812 86.731 -124.0680
12534.308594 86.740 -126.4566
12625.136719 86.703 -128.9923
12716.624023 86.621 -131.6100
12808.773438 86.489 -134.2415
12901.591797 86.314 -136.8454
12995.082031 86.096 -139.3660
13089.250000 85.840 -141.7782
13184.099609 85.550 -144.0426
13279.636719 85.229 -146.1476
13375.867188 84.882 -148.0764
13472.793945 84.508 -149.8048
13570.422852 84.107 -151.3147
13668.759766 83.683 -152.5704
13767.809570 83.238 -153.5383
13867.577148 82.778 -154.1932
13968.067383 82.306 -154.5002
14069.285156 81.833 -154.4543
14171.237305 81.365 -154.0247
14273.927734 80.919 -153.2539
14377.362305 80.511 -152.1492
14481.546875 80.150 -150.7876
14586.486328 79.852 -149.2301
14692.185547 79.615 -147.5342
14798.651367 79.444 -145.7634
14905.888672 79.337 -143.9605
15013.902344 79.299 -142.1761
15122.700195 79.327 -140.4496
15232.285156 79.418 -138.8217
15342.664062 79.576 -137.3385
15453.843750 79.804 -136.0294
15565.829102 80.101 -134.9848
15678.625000 80.473 -134.2717
15792.239258 80.898 -133.9902
15906.675781 81.366 -134.2515
16021.942383 81.847 -135.0908
16138.043945 82.311 -136.5960
16254.986328 82.741 -138.7189
16372.777344 83.113 -141.4802
16491.421875 83.419 -144.7605
16610.923828 83.640 -148.4991
16731.294922 83.777 -152.5369
16852.535156 83.818 -156.7278
16974.656250 83.778 -160.9703
17097.662109 83.667 -165.1135
17221.558594 83.497 -169.1588
17346.353516 83.285 -173.0463
17472.052734 83.035 -176.8115
17598.662109 82.754 179.5451
17726.189453 82.448 175.9766
17854.640625 82.129 172.4326
17984.021484 81.780 168.9214
18114.341797 81.392 165.4078
18245.605469 80.959 161.9732
18377.820312 80.470 158.6616
18510.994141 79.926 155.5523
18645.132812 79.327 152.7004
18780.242188 78.663 150.2242
18916.332031 77.915 148.2309
19053.408203 77.108 146.8093
19191.476562 76.248 146.1069
19330.546875 75.371 146.0555
19470.623047 74.509 146.6736
19611.714844 73.672 147.8430
19753.830078 72.870 149.4884
19896.974609 72.133 151.4979
