* Measurement data measured by REW V5.20.13
* Source: C:\Users\kurin\Desktop\Targets and Curves\Resolve\Img\Lecram\DT 990 600 Ohm_SPL.txt
* Format: Comma/Tab/Space delimited data
* Dated: Aug 15, 2023 3:31:05 PM
* REW Settings:
*  C-weighting compensation: Off
*  Target level: 75.0 dB
* Note: ; Measurement imported from C:\Users\kurin\Desktop\Targets and Curves\Resolve\Img\Lecram\DT 990 600 Ohm_SPL.txt Format: Comma/Tab/Space delimited data 623 values loaded, 5 Hz to 39,792 Hz log spaced 
* Measurement: DT 990 600 Ohm_SPL
* Smoothing: 1/48 octave
* Frequency Step: 1/96 octave
* Start Frequency: 5.000 Hz
*
* Freq(Hz) SPL(dB) Phase(degrees)
5.000000 74.868 62.9030
5.036232 74.888 62.8904
5.072727 74.910 62.8770
5.109486 74.936 62.8616
5.146511 74.966 62.8440
5.183805 75.002 62.8231
5.221369 75.041 62.8010
5.259205 75.081 62.7797
5.297316 75.124 62.7580
5.335702 75.169 62.7352
5.374367 75.216 62.7120
5.413311 75.261 62.6889
5.452538 75.307 62.6660
5.492050 75.353 62.6436
5.531847 75.399 62.6210
5.571934 75.444 62.5976
5.612310 75.490 62.5740
5.652979 75.536 62.5510
5.693943 75.582 62.5280
5.735204 75.627 62.5046
5.776763 75.673 62.4810
5.818624 75.719 62.4571
5.860788 75.765 62.4330
5.903258 75.810 62.4086
5.946035 75.856 62.3840
5.989123 75.902 62.3595
6.032523 75.948 62.3350
6.076237 75.993 62.3106
6.120268 76.039 62.2860
6.164618 76.085 62.2606
6.209289 76.131 62.2350
6.254284 76.176 62.2095
6.299605 76.222 62.1840
6.345255 76.268 62.1586
6.391235 76.314 62.1330
6.437549 76.360 62.1066
6.484198 76.406 62.0800
6.531185 76.451 62.0536
6.578513 76.497 62.0270
6.626183 76.543 62.0001
6.674199 76.589 61.9730
6.722563 76.634 61.9461
6.771278 76.680 61.9190
6.820345 76.726 61.8917
6.869768 76.772 61.8640
6.919549 76.817 61.8356
6.969691 76.863 61.8070
7.020196 76.909 61.7791
7.071068 76.955 61.7510
7.122308 77.000 61.7222
7.173919 77.046 61.6930
7.225904 77.092 61.6636
7.278266 77.138 61.6340
7.331007 77.183 61.6046
7.384131 77.229 61.5750
7.437639 77.275 61.5451
7.491535 77.321 61.5150
7.545822 77.366 61.4846
7.600502 77.412 61.4540
7.655579 77.458 61.4231
7.711054 77.504 61.3920
7.766932 77.550 61.3611
7.823214 77.596 61.3300
7.879904 77.641 61.2981
7.937005 77.687 61.2660
7.994520 77.733 61.2341
8.052452 77.779 61.2020
8.110803 77.824 61.1691
8.169578 77.870 61.1360
8.228777 77.916 61.1031
8.288406 77.962 61.0700
8.348468 78.007 61.0367
8.408964 78.053 61.0030
8.469899 78.099 60.9686
8.531276 78.145 60.9340
8.593097 78.190 60.8996
8.655366 78.236 60.8650
8.718086 78.282 60.8302
8.781260 78.328 60.7950
8.844893 78.373 60.7591
8.908987 78.419 60.7230
8.973545 78.465 60.6871
9.038571 78.511 60.6510
9.104069 78.556 60.6147
9.170040 78.602 60.5780
9.236490 78.648 60.5406
9.303422 78.694 60.5030
9.370838 78.740 60.4656
9.438744 78.786 60.4280
9.507140 78.831 60.3897
9.576033 78.877 60.3510
9.645425 78.923 60.3121
9.715320 78.969 60.2730
9.785721 79.014 60.2336
9.856632 79.060 60.1940
9.928058 79.106 60.1541
10.000000 79.152 60.1140
10.072464 79.197 60.0737
10.145453 79.243 60.0330
10.218971 79.289 59.9917
10.293022 79.335 59.9500
10.367610 79.381 59.9081
10.442738 79.426 59.8660
10.518411 79.472 59.8242
10.594631 79.518 59.7820
10.671404 79.563 59.7387
10.748734 79.609 59.6950
10.826623 79.655 59.6516
10.905077 79.701 59.6080
10.984100 79.746 59.5637
11.063695 79.792 59.5190
11.143867 79.838 59.4742
11.224621 79.884 59.4290
11.305959 79.930 59.3832
11.387886 79.976 59.3370
11.470407 80.021 59.2906
11.553527 80.067 59.2440
11.637249 80.113 59.1972
11.721577 80.159 59.1500
11.806517 80.204 59.1022
11.892071 80.250 59.0540
11.978246 80.296 59.0057
12.065045 80.342 58.9570
12.152473 80.387 58.9077
12.240536 80.433 58.8580
12.329235 80.479 58.8082
12.418578 80.525 58.7580
12.508568 80.570 58.7078
12.599211 80.616 58.6570
12.690510 80.662 58.6053
12.782471 80.708 58.5531
12.875097 80.753 58.5007
12.968395 80.799 58.4480
13.062370 80.845 58.3952
13.157025 80.891 58.3420
13.252366 80.936 58.2883
13.348398 80.982 58.2340
13.445127 81.028 58.1792
13.542556 81.074 58.1241
13.640691 81.120 58.0687
13.739536 81.166 58.0130
13.839099 81.211 57.9568
13.939383 81.257 57.9001
14.040393 81.303 57.8428
14.142136 81.349 57.7850
14.244616 81.394 57.7268
14.347837 81.440 57.6680
14.451808 81.486 57.6087
14.556532 81.532 57.5490
14.662014 81.577 57.4893
14.768262 81.623 57.4291
14.875278 81.669 57.3678
14.983070 81.715 57.3061
15.091644 81.760 57.2443
15.201005 81.806 57.1820
15.311157 81.852 57.1189
15.422109 81.898 57.0550
15.533863 81.943 56.9908
15.646428 81.989 56.9260
15.759809 82.035 56.8608
15.874010 82.081 56.7950
15.989040 82.126 56.7289
16.104904 82.172 56.6621
16.221605 82.218 56.5943
16.339155 82.264 56.5261
16.457554 82.310 56.4578
16.576813 82.356 56.3890
16.696936 82.401 56.3194
16.817928 82.447 56.2490
16.939798 82.493 56.1784
17.062551 82.539 56.1071
17.186193 82.584 56.0349
17.310732 82.630 55.9620
17.436172 82.676 55.8888
17.562521 82.722 55.8151
17.689787 82.767 55.7409
17.817974 82.813 55.6661
17.947090 82.859 55.5904
18.077143 82.905 55.5140
18.208138 82.950 55.4369
18.340080 82.996 55.3591
18.472980 83.042 55.2809
18.606844 83.088 55.2020
18.741676 83.133 55.1219
18.877487 83.179 55.0411
19.014280 83.225 54.9600
19.152065 83.271 54.8781
19.290850 83.316 54.7946
19.430639 83.362 54.7101
19.571442 83.408 54.6250
19.713264 83.454 54.5391
19.856115 83.500 54.4525
20.000000 83.545 54.3651
20.144928 83.590 54.2764
20.290907 83.635 54.1871
20.437943 83.681 54.0977
20.586044 83.726 54.0081
20.735220 83.771 53.9181
20.885475 83.815 53.8281
21.036821 83.860 53.7385
21.189262 83.905 53.6491
21.342808 83.950 53.5597
21.497467 83.995 53.4701
21.653246 84.040 53.3802
21.810154 84.085 53.2901
21.968201 84.130 53.1997
22.127390 84.175 53.1091
22.287735 84.220 53.0182
22.449242 84.265 52.9271
22.611917 84.310 52.8355
22.775772 84.355 52.7441
22.940815 84.400 52.6531
23.107054 84.445 52.5631
23.274498 84.490 52.4747
23.443153 84.535 52.3881
23.613033 84.580 52.3037
23.784142 84.626 52.2211
23.956491 84.673 52.1411
24.130091 84.721 52.0611
24.304947 84.771 51.9800
24.481071 84.822 51.8941
24.658470 84.875 51.7993
24.837156 84.928 51.6952
25.017136 84.981 51.5800
25.198421 85.035 51.4541
25.381020 85.089 51.3169
25.564941 85.142 51.1691
25.750195 85.194 51.0099
25.936790 85.244 50.8432
26.124741 85.291 50.6719
26.314051 85.337 50.4982
26.504732 85.382 50.3250
26.696796 85.425 50.1542
26.890253 85.466 49.9891
27.085112 85.507 49.8292
27.281382 85.548 49.6756
27.479073 85.589 49.5272
27.678198 85.629 49.3834
27.878765 85.669 49.2442
28.080786 85.710 49.1104
28.284271 85.753 48.9792
28.489231 85.796 48.8492
28.695675 85.841 48.7172
28.903616 85.887 48.5801
29.113064 85.934 48.4362
29.324028 85.981 48.2828
29.536524 86.028 48.1202
29.750557 86.075 47.9466
29.966141 86.120 47.7662
30.183289 86.163 47.5818
30.402010 86.204 47.3952
30.622314 86.245 47.2090
30.844217 86.284 47.0242
31.067726 86.322 46.8423
31.292856 86.359 46.6643
31.519617 86.396 46.4924
31.748020 86.433 46.3242
31.978081 86.470 46.1585
32.209808 86.508 45.9942
32.443211 86.545 45.8293
32.678310 86.582 45.6662
32.915108 86.618 45.5067
33.153625 86.654 45.3502
33.393871 86.690 45.1965
33.635857 86.727 45.0462
33.879597 86.763 44.9000
34.125103 86.800 44.7572
34.372387 86.838 44.6193
34.621464 86.878 44.4812
34.872345 86.919 44.3390
35.125042 86.962 44.1912
35.379574 87.005 44.0348
35.635948 87.048 43.8702
35.894180 87.091 43.6966
36.154285 87.134 43.5153
36.416275 87.175 43.3259
36.680161 87.215 43.1323
36.945961 87.253 42.9379
37.213688 87.290 42.7443
37.483353 87.327 42.5545
37.754974 87.363 42.3673
38.028561 87.400 42.1828
38.304131 87.436 42.0002
38.581699 87.472 41.8194
38.861279 87.508 41.6383
39.142883 87.546 41.4551
39.426529 87.584 41.2693
39.712231 87.621 41.0784
40.000000 87.658 40.8853
40.289856 87.694 40.6921
40.581814 87.729 40.4983
40.875885 87.765 40.3039
41.172089 87.801 40.1093
41.470440 87.836 39.9143
41.770950 87.870 39.7203
42.073643 87.904 39.5292
42.378525 87.938 39.3393
42.685616 87.973 39.1494
42.994934 88.008 38.9593
43.306492 88.043 38.7684
43.620308 88.079 38.5763
43.936401 88.115 38.3824
44.254780 88.152 38.1863
44.575470 88.188 37.9879
44.898483 88.225 37.7853
45.223835 88.263 37.5767
45.551544 88.301 37.3613
45.881630 88.338 37.1368
46.214108 88.375 36.9064
46.548996 88.410 36.6724
46.886307 88.444 36.4344
47.226067 88.479 36.1919
47.568283 88.512 35.9474
47.912983 88.543 35.7023
48.260181 88.572 35.4594
48.609894 88.601 35.2235
48.962143 88.631 34.9893
49.316940 88.662 34.7531
49.674313 88.694 34.5154
50.034271 88.724 34.2744
50.396843 88.753 34.0334
50.762039 88.782 33.7968
51.129883 88.811 33.5594
51.500389 88.842 33.3174
51.873581 88.874 33.0714
52.249481 88.903 32.8200
52.628101 88.932 32.5664
53.009464 88.961 32.3154
53.393593 88.991 32.0614
53.780506 89.023 31.8002
54.170223 89.054 31.5324
54.562763 89.083 31.2568
54.958145 89.112 30.9755
55.356396 89.141 30.6918
55.757530 89.170 30.4005
56.161572 89.201 30.0968
56.568542 89.231 29.7815
56.978462 89.258 29.4524
57.391350 89.284 29.1136
57.807232 89.308 28.7696
58.226128 89.330 28.4176
58.648056 89.353 28.0572
59.073048 89.374 27.6866
59.501114 89.392 27.3030
59.932281 89.408 26.9097
60.366577 89.421 26.5099
60.804020 89.431 26.1017
61.244629 89.439 25.6844
61.688435 89.444 25.2577
62.135452 89.444 24.8186
62.585712 89.439 24.3748
63.039234 89.426 23.9308
63.496040 89.407 23.4937
63.956161 89.382 23.0698
64.419617 89.350 22.6657
64.886421 89.311 22.2864
65.356621 89.264 21.9436
65.830215 89.211 21.6491
66.307251 89.152 21.4074
66.787743 89.090 21.2257
67.271713 89.026 21.1072
67.759193 88.960 21.0578
68.250206 88.895 21.0769
68.744774 88.833 21.1691
69.242928 88.777 21.3247
69.744690 88.729 21.5385
70.250084 88.690 21.8015
70.759148 88.659 22.1066
71.271896 88.639 22.4424
71.788361 88.632 22.8002
72.308571 88.637 23.1643
72.832550 88.654 23.5187
73.360321 88.682 23.8554
73.891922 88.718 24.1626
74.427376 88.763 24.4355
74.966705 88.815 24.6661
75.509949 88.873 24.8527
76.057121 88.933 24.9899
76.608261 88.994 25.0809
77.163399 89.056 25.1252
77.722557 89.117 25.1290
78.285767 89.175 25.0945
78.853058 89.230 25.0331
79.424461 89.280 24.9555
80.000000 89.327 24.8662
80.579712 89.373 24.7729
81.163628 89.417 24.6772
81.751770 89.459 24.5830
82.344177 89.501 24.4902
82.940880 89.544 24.4019
83.541901 89.588 24.3122
84.147285 89.635 24.2182
84.757050 89.684 24.1142
85.371231 89.735 23.9941
85.989868 89.788 23.8563
86.612984 89.841 23.6972
87.240616 89.893 23.5174
87.872803 89.945 23.3154
88.509560 89.995 23.0945
89.150940 90.043 22.8556
89.796967 90.088 22.6045
90.447670 90.129 22.3465
91.103088 90.168 22.0846
91.763260 90.206 21.8241
92.428215 90.242 21.5635
93.097992 90.277 21.3030
93.772614 90.312 21.0425
94.452133 90.346 20.7820
95.136566 90.379 20.5216
95.825966 90.412 20.2616
96.520363 90.445 20.0006
97.219788 90.478 19.7381
97.924286 90.512 19.4716
98.633881 90.546 19.1981
99.348625 90.580 18.9176
100.068542 90.614 18.6284
100.793686 90.648 18.3318
101.524078 90.680 18.0290
102.259766 90.712 17.7188
103.000778 90.744 17.4003
103.747162 90.776 17.0726
104.498962 90.806 16.7338
105.256203 90.834 16.3867
106.018929 90.861 16.0335
106.787186 90.887 15.6747
107.561012 90.911 15.3116
108.340446 90.934 14.9436
109.125526 90.957 14.5711
109.916290 90.978 14.1927
110.712791 90.998 13.8061
111.515060 91.016 13.4138
112.323143 91.032 13.0171
113.137085 91.045 12.6178
113.956924 91.056 12.2185
114.782700 91.066 11.8190
115.614464 91.073 11.4192
116.452255 91.079 11.0218
117.296112 91.082 10.6298
118.146095 91.084 10.2428
119.002228 91.085 9.8621
119.864563 91.086 9.4850
120.733154 91.086 9.1102
121.608040 91.086 8.7358
122.489258 91.085 8.3599
123.376869 91.083 7.9819
124.270905 91.079 7.6000
125.171425 91.074 7.2167
126.078468 91.066 6.8325
126.992081 91.056 6.4519
127.912323 91.043 6.0784
128.839233 91.027 5.7147
129.772842 91.010 5.3655
130.713242 90.991 5.0287
131.660431 90.972 4.7037
132.614502 90.953 4.3909
133.575485 90.933 4.0905
134.543427 90.912 3.8015
135.518387 90.893 3.5247
136.500412 90.874 3.2545
137.489548 90.857 2.9850
138.485855 90.841 2.7177
139.489380 90.823 2.4519
140.500168 90.804 2.1886
141.518295 90.786 1.9290
142.543793 90.768 1.6716
143.576721 90.750 1.4140
144.617142 90.731 1.1596
145.665100 90.710 0.9111
146.720642 90.688 0.6687
147.783844 90.667 0.4338
148.854752 90.646 0.2046
149.933411 90.625 -0.0211
151.019897 90.604 -0.2415
152.114243 90.582 -0.4549
153.216522 90.560 -0.6624
154.326797 90.539 -0.8634
155.445114 90.519 -1.0605
156.571533 90.499 -1.2568
157.706116 90.479 -1.4506
158.848923 90.459 -1.6404
160.000000 90.440 -1.8285
161.159424 90.422 -2.0167
162.327255 90.405 -2.2056
163.503540 90.387 -2.3970
164.688354 90.368 -2.5896
165.881760 90.350 -2.7819
167.083801 90.332 -2.9755
168.294571 90.314 -3.1724
169.514099 90.295 -3.3705
170.742462 90.275 -3.5692
171.979736 90.254 -3.7665
173.225967 90.233 -3.9599
174.481232 90.211 -4.1506
175.745605 90.189 -4.3386
177.019119 90.167 -4.5245
178.301880 90.144 -4.7088
179.593933 90.121 -4.8915
180.895340 90.098 -5.0729
182.206177 90.075 -5.2536
183.526520 90.052 -5.4354
184.856430 90.027 -5.6156
186.195984 90.001 -5.7923
187.545227 89.973 -5.9646
188.904266 89.946 -6.1300
190.273132 89.918 -6.2906
191.651932 89.891 -6.4487
193.040726 89.862 -6.6006
194.439575 89.831 -6.7435
195.848572 89.799 -6.8776
197.267761 89.769 -7.0006
198.697250 89.740 -7.1167
200.137085 89.711 -7.2312
201.587372 89.682 -7.3388
203.048157 89.651 -7.4349
204.519531 89.621 -7.5218
206.001556 89.594 -7.5982
207.494324 89.568 -7.6698
208.997925 89.544 -7.7421
210.512405 89.521 -7.8138
212.037857 89.498 -7.8856
213.574371 89.476 -7.9578
215.122025 89.456 -8.0297
216.680893 89.437 -8.1048
218.251053 89.418 -8.1877
219.832581 89.400 -8.2747
221.425583 89.381 -8.3633
223.030121 89.362 -8.4548
224.646286 89.344 -8.5497
226.274170 89.327 -8.6487
227.913849 89.309 -8.7535
229.565399 89.290 -8.8617
231.228928 89.271 -8.9706
232.904510 89.251 -9.0827
234.592224 89.233 -9.1999
236.292191 89.214 -9.3207
238.004456 89.193 -9.4447
239.729126 89.170 -9.5697
241.466309 89.147 -9.6937
243.216080 89.124 -9.8157
244.978516 89.099 -9.9335
246.753738 89.074 -10.0477
248.541809 89.049 -10.1565
250.342850 89.024 -10.2637
252.156937 89.001 -10.3726
253.984161 88.977 -10.4827
255.824646 88.953 -10.5949
257.678467 88.928 -10.7087
259.545685 88.904 -10.8228
261.426483 88.880 -10.9407
263.320862 88.856 -11.0656
265.229004 88.832 -11.1966
267.150970 88.806 -11.3358
269.086853 88.777 -11.4776
271.036774 88.746 -11.6175
273.000824 88.714 -11.7546
274.979095 88.681 -11.8867
276.971710 88.646 -12.0136
278.978760 88.610 -12.1348
281.000336 88.572 -12.2497
283.036591 88.534 -12.3568
285.087585 88.496 -12.4577
287.153442 88.458 -12.5537
289.234283 88.419 -12.6448
291.330200 88.380 -12.7310
293.441284 88.340 -12.8138
295.567688 88.301 -12.8946
297.709503 88.261 -12.9738
299.866821 88.221 -13.0531
302.039795 88.179 -13.1298
304.228485 88.136 -13.2016
306.433044 88.091 -13.2688
308.653595 88.046 -13.3311
310.890228 88.000 -13.3878
313.143066 87.953 -13.4392
315.412231 87.904 -13.4829
317.697845 87.855 -13.5162
320.000000 87.804 -13.5399
322.318848 87.753 -13.5540
324.654510 87.702 -13.5590
327.007080 87.650 -13.5559
329.376709 87.597 -13.5431
331.763519 87.543 -13.5191
334.167603 87.489 -13.4841
336.589142 87.435 -13.4375
339.028198 87.381 -13.3802
341.484924 87.326 -13.3128
343.959473 87.271 -13.2352
346.451935 87.216 -13.1477
348.962463 87.161 -13.0493
351.491211 87.104 -12.9400
354.038239 87.047 -12.8174
356.603760 86.990 -12.6799
359.187866 86.932 -12.5255
361.790680 86.873 -12.3528
364.412354 86.814 -12.1586
367.053040 86.754 -11.9406
369.712860 86.694 -11.6948
372.391968 86.635 -11.4154
375.090454 86.577 -11.1059
377.808533 86.524 -10.7668
380.546265 86.475 -10.4021
383.303864 86.430 -10.0151
386.081451 86.391 -9.6092
388.879150 86.358 -9.1863
391.697144 86.331 -8.7543
394.535522 86.312 -8.3191
397.394501 86.300 -7.8882
400.274170 86.295 -7.4698
403.174744 86.296 -7.0682
406.096313 86.303 -6.6882
409.039062 86.315 -6.3370
412.003113 86.334 -6.0230
414.988647 86.356 -5.7488
417.995850 86.379 -5.5213
421.024811 86.403 -5.3365
424.075714 86.425 -5.1943
427.148743 86.446 -5.0903
430.244049 86.463 -5.0220
433.361786 86.477 -4.9831
436.502106 86.485 -4.9685
439.665161 86.488 -4.9710
442.851166 86.486 -4.9838
446.060242 86.479 -5.0009
449.292572 86.467 -5.0146
452.548340 86.451 -5.0230
455.827698 86.432 -5.0218
459.130798 86.410 -5.0111
462.457855 86.384 -4.9910
465.809021 86.356 -4.9571
469.184448 86.325 -4.9046
472.584381 86.293 -4.8342
476.008911 86.260 -4.7444
479.458252 86.226 -4.6374
482.932617 86.193 -4.5150
486.432159 86.159 -4.3775
489.957031 86.126 -4.2254
493.507477 86.092 -4.0585
497.083618 86.059 -3.8756
500.685699 86.026 -3.6797
504.313873 85.996 -3.4724
507.968323 85.968 -3.2567
511.649292 85.940 -3.0366
515.356934 85.913 -2.8108
519.091370 85.887 -2.5790
522.852966 85.862 -2.3418
526.641724 85.838 -2.0997
530.458008 85.814 -1.8528
534.301941 85.791 -1.6018
538.173706 85.768 -1.3459
542.073547 85.746 -1.0843
546.001648 85.725 -0.8169
549.958191 85.704 -0.5426
553.943420 85.684 -0.2629
557.957520 85.666 0.0212
562.000671 85.649 0.3090
566.073181 85.633 0.5989
570.175171 85.617 0.8920
574.306885 85.601 1.1897
578.468567 85.587 1.4900
582.660400 85.575 1.7918
586.882568 85.565 2.0939
591.135376 85.554 2.3942
595.419006 85.544 2.6940
599.733643 85.534 2.9936
604.079590 85.525 3.2939
608.456970 85.515 3.5949
612.866089 85.505 3.8990
617.307190 85.495 4.2087
621.780457 85.485 4.5239
626.286133 85.476 4.8451
630.824463 85.467 5.1729
635.395691 85.458 5.5080
640.000000 85.450 5.8508
644.637695 85.443 6.2030
649.309021 85.438 6.5608
654.014160 85.435 6.9213
658.753418 85.433 7.2838
663.527039 85.432 7.6460
668.335205 85.431 8.0098
673.178284 85.431 8.3754
678.056396 85.431 8.7447
682.969849 85.431 9.1192
687.918945 85.431 9.5006
692.903870 85.431 9.8911
697.924927 85.432 10.2926
702.982422 85.433 10.7076
708.076477 85.435 11.1364
713.207520 85.439 11.5807
718.375732 85.446 12.0393
723.581360 85.455 12.5128
728.824707 85.468 12.9982
734.106079 85.485 13.4945
739.425720 85.506 13.9972
744.783936 85.532 14.5032
750.180908 85.563 15.0072
755.617065 85.599 15.5043
761.092529 85.640 15.9903
766.607727 85.685 16.4599
772.162903 85.733 16.9114
777.758301 85.784 17.3405
783.394287 85.838 17.7496
789.071045 85.892 18.1395
794.789001 85.947 18.5117
800.548340 86.002 18.8674
806.349487 86.059 19.2078
812.192627 86.116 19.5338
818.078125 86.173 19.8479
824.006226 86.230 20.1529
829.977295 86.288 20.4480
835.991699 86.348 20.7342
842.049622 86.410 21.0080
848.151428 86.472 21.2658
854.297485 86.536 21.5081
860.488098 86.600 21.7343
866.723572 86.664 21.9443
873.004211 86.728 22.1371
879.330322 86.792 22.3144
885.702332 86.854 22.4764
892.120483 86.916 22.6265
898.585144 86.976 22.7682
905.096680 87.036 22.9015
911.655396 87.095 23.0274
918.261597 87.153 23.1466
924.915710 87.210 23.2597
931.618042 87.266 23.3686
938.368896 87.322 23.4763
945.168762 87.378 23.5806
952.017822 87.434 23.6805
958.916504 87.490 23.7756
965.865234 87.546 23.8655
972.864319 87.602 23.9497
979.914062 87.658 24.0273
987.014954 87.714 24.0997
994.167236 87.769 24.1683
1001.371399 87.825 24.2318
1008.627747 87.881 24.2895
1015.936646 87.937 24.3408
1023.298584 87.993 24.3848
1030.713867 88.049 24.4209
1038.182739 88.104 24.4479
1045.705933 88.160 24.4669
1053.283447 88.215 24.4787
1060.916016 88.269 24.4830
1068.603882 88.322 24.4793
1076.347412 88.375 24.4691
1084.147095 88.426 24.4530
1092.003296 88.476 24.4331
1099.916382 88.524 24.4109
1107.886841 88.572 24.3881
1115.915039 88.618 24.3670
1124.001343 88.663 24.3471
1132.146362 88.708 24.3286
1140.350342 88.754 24.3111
1148.613770 88.798 24.2945
1156.937134 88.843 24.2781
1165.320801 88.888 24.2610
1173.765137 88.933 24.2431
1182.270752 88.978 24.2240
1190.838013 89.023 24.2031
1199.467285 89.068 24.1800
1208.159180 89.113 24.1541
1216.913940 89.158 24.1248
1225.732178 89.203 24.0921
1234.614380 89.247 24.0560
1243.560913 89.290 24.0162
1252.572266 89.334 23.9718
1261.648926 89.377 23.9252
1270.791382 89.417 23.8776
1280.000000 89.456 23.8312
1289.275391 89.495 23.7889
1298.618042 89.534 23.7502
1308.028320 89.572 23.7150
1317.506836 89.609 23.6851
1327.054077 89.645 23.6623
1336.670410 89.682 23.6460
1346.356567 89.720 23.6380
1356.112793 89.759 23.6340
1365.939697 89.799 23.6302
1375.837891 89.841 23.6270
1385.807739 89.882 23.6239
1395.849854 89.924 23.6200
1405.964844 89.967 23.6148
1416.152954 90.011 23.6070
1426.415039 90.054 23.5944
1436.751465 90.098 23.5801
1447.162720 90.140 23.5660
1457.649414 90.183 23.5530
1468.212158 90.226 23.5427
1478.851440 90.269 23.5350
1489.567871 90.312 23.5304
1500.361816 90.355 23.5300
1511.234131 90.398 23.5355
1522.185059 90.442 23.5459
1533.215454 90.488 23.5615
1544.325806 90.535 23.5809
1555.516602 90.583 23.6028
1566.788574 90.632 23.6279
1578.142090 90.683 23.6572
1589.578003 90.736 23.6879
1601.096680 90.792 23.7183
1612.698975 90.851 23.7459
1624.385254 90.911 23.7678
1636.156250 90.974 23.7830
1648.012451 91.039 23.7899
1659.954590 91.106 23.7870
1671.983398 91.175 23.7730
1684.099243 91.246 23.7451
1696.302856 91.319 23.7002
1708.594971 91.394 23.6383
1720.976196 91.468 23.5573
1733.447144 91.542 23.4605
1746.008423 91.615 23.3502
1758.660645 91.689 23.2265
1771.404663 91.762 23.0891
1784.240967 91.835 22.9406
1797.170288 91.906 22.7824
1810.193359 91.977 22.6177
1823.310791 92.046 22.4500
1836.523193 92.116 22.2797
1849.831421 92.185 22.1087
1863.236084 92.255 21.9358
1876.737793 92.327 21.7618
1890.337524 92.401 21.5828
1904.035645 92.476 21.3962
1917.833008 92.553 21.1988
1931.730469 92.633 20.9883
1945.728638 92.715 20.7600
1959.828125 92.799 20.5093
1974.029907 92.885 20.2332
1988.334473 92.971 19.9279
2002.742798 93.058 19.5914
2017.255493 93.144 19.2196
2031.873291 93.228 18.8147
2046.597168 93.309 18.3759
2061.427734 93.386 17.9081
2076.365479 93.458 17.4132
2091.411865 93.525 16.8992
2106.566895 93.584 16.3718
2121.832031 93.637 15.8402
2137.207764 93.684 15.3138
2152.694824 93.725 14.7980
2168.294189 93.761 14.3003
2184.006592 93.794 13.8241
2199.832764 93.823 13.3763
2215.773682 93.852 12.9537
2231.830078 93.882 12.5573
2248.002686 93.913 12.1805
2264.292725 93.946 11.8188
2280.700684 93.982 11.4675
2297.227539 94.020 11.1219
2313.874268 94.061 10.7774
2330.641602 94.104 10.4290
2347.530273 94.150 10.0726
2364.541504 94.197 9.7021
2381.676025 94.246 9.3178
2398.934570 94.294 8.9164
2416.318359 94.341 8.5019
2433.827881 94.385 8.0765
2451.464355 94.428 7.6418
2469.228760 94.471 7.1989
2487.121826 94.512 6.7509
2505.144531 94.549 6.2990
2523.297852 94.584 5.8500
2541.582764 94.617 5.4126
2560.000000 94.649 4.9829
2578.550781 94.683 4.5610
2597.236084 94.718 4.1439
2616.056641 94.752 3.7294
2635.013672 94.788 3.3158
2654.108154 94.826 2.9028
2673.340820 94.865 2.4838
2692.713135 94.906 2.0522
2712.225586 94.947 1.6081
2731.879395 94.988 1.1487
2751.675781 95.028 0.6772
2771.615479 95.065 0.1934
2791.699707 95.100 -0.2948
2811.929688 95.131 -0.7813
2832.305908 95.161 -1.2618
2852.830078 95.189 -1.7292
2873.502930 95.217 -2.1850
2894.325439 95.245 -2.6277
2915.298828 95.276 -3.0600
2936.424316 95.309 -3.4817
2957.702881 95.346 -3.9012
2979.135742 95.388 -4.3244
3000.723633 95.434 -4.7591
3022.468262 95.483 -5.2145
3044.370117 95.535 -5.6917
3066.430908 95.589 -6.1949
3088.651611 95.644 -6.7246
3111.033203 95.699 -7.2822
3133.577148 95.756 -7.8691
3156.284180 95.812 -8.4870
3179.156006 95.869 -9.1358
3202.193359 95.924 -9.8159
3225.397949 95.978 -10.5285
3248.770508 96.031 -11.2749
3272.312500 96.082 -12.0554
3296.024902 96.130 -12.8718
3319.909180 96.175 -13.7220
3343.966797 96.215 -14.6056
3368.198486 96.251 -15.5196
3392.605713 96.281 -16.4610
3417.189941 96.307 -17.4285
3441.952393 96.328 -18.4195
3466.894287 96.343 -19.4344
3492.016846 96.353 -20.4724
3517.321289 96.357 -21.5350
3542.809326 96.356 -22.6238
3568.481934 96.348 -23.7378
3594.340576 96.332 -24.8760
3620.386719 96.308 -26.0394
3646.621582 96.277 -27.2293
3673.046387 96.236 -28.4432
3699.662842 96.184 -29.6802
3726.472168 96.119 -30.9362
3753.475586 96.043 -32.2085
3780.675049 95.951 -33.4912
3808.071289 95.844 -34.7824
3835.666016 95.720 -36.0669
3863.460938 95.574 -37.3337
3891.457275 95.409 -38.5692
3919.656250 95.224 -39.7617
3948.059814 95.017 -40.8949
3976.668945 94.786 -41.9577
4005.485596 94.531 -42.9226
4034.510986 94.250 -43.7687
4063.746582 93.943 -44.4651
4093.194336 93.610 -44.9879
4122.855469 93.251 -45.2951
4152.730957 92.864 -45.3548
4182.823730 92.452 -45.1120
4213.133789 92.015 -44.5189
4243.664062 91.559 -43.5208
4274.415527 91.086 -42.0545
4305.389648 90.613 -40.0968
4336.588379 90.151 -37.5924
4368.013184 89.723 -34.5746
4399.665527 89.346 -31.0280
4431.547363 89.049 -27.0454
4463.660156 88.863 -22.6693
4496.005371 88.800 -18.0367
4528.585449 88.882 -13.2455
4561.401367 89.106 -8.4566
4594.455078 89.490 -3.8260
4627.748535 89.996 0.5336
4661.283203 90.600 4.4679
4695.060547 91.281 7.9452
4729.083008 92.011 10.8911
4763.352051 92.783 13.2810
4797.869141 93.588 15.0560
4832.636719 94.402 16.2465
4867.655762 95.200 16.8417
4902.928711 95.984 16.9069
4938.457520 96.750 16.5040
4974.243652 97.497 15.6342
5010.289062 98.230 14.3138
5046.595703 98.936 12.5589
5083.165527 99.602 10.3758
5120.000000 100.227 7.8094
5157.101562 100.806 4.8975
5194.472168 101.337 1.6685
5232.113281 101.815 -1.8532
5270.027344 102.239 -5.6166
5308.216309 102.602 -9.5820
5346.681641 102.906 -13.6906
5385.426270 103.150 -17.8867
5424.451172 103.336 -22.1203
5463.758789 103.466 -26.3352
5503.351562 103.545 -30.4939
5543.230957 103.575 -34.5465
5583.399414 103.561 -38.4731
5623.859375 103.509 -42.2396
5664.611816 103.422 -45.8398
5705.660156 103.309 -49.2542
5747.005859 103.171 -52.4898
5788.650879 103.013 -55.5420
5830.597656 102.840 -58.4226
5872.848633 102.656 -61.1392
5915.405762 102.462 -63.7002
5958.271484 102.259 -66.1143
6001.447266 102.049 -68.3876
6044.936523 101.835 -70.5259
6088.740234 101.618 -72.5382
6132.861816 101.398 -74.4341
6177.303223 101.176 -76.2173
6222.066406 100.951 -77.8943
6267.154297 100.723 -79.4654
6312.568359 100.494 -80.9316
6358.312012 100.264 -82.2974
6404.386719 100.036 -83.5665
6450.795898 99.809 -84.7422
6497.541016 99.583 -85.8301
6544.625000 99.356 -86.8272
6592.049805 99.130 -87.7352
6639.818359 98.902 -88.5451
6687.933594 98.673 -89.2540
6736.396973 98.443 -89.8453
6785.211426 98.211 -90.3041
6834.379883 97.981 -90.6217
6883.904785 97.757 -90.7869
6933.788574 97.541 -90.7924
6984.033691 97.332 -90.6280
7034.642578 97.139 -90.2921
7085.618652 96.967 -89.7711
7136.963867 96.826 -89.0908
7188.681152 96.723 -88.2565
7240.773438 96.666 -87.3169
7293.243164 96.665 -86.3003
7346.092773 96.723 -85.2741
7399.325684 96.847 -84.2888
7452.944336 97.036 -83.4239
7506.951172 97.291 -82.7522
7561.350098 97.600 -82.3453
7616.142578 97.958 -82.2842
7671.332031 98.346 -82.6132
7726.921875 98.752 -83.4022
7782.914551 99.159 -84.6543
7839.312500 99.550 -86.4098
7896.119629 99.912 -88.6281
7953.337891 100.230 -91.3066
8010.971191 100.495 -94.3699
8069.021973 100.696 -97.7712
8127.493164 100.831 -101.4202
8186.388672 100.894 -105.2447
8245.710938 100.881 -109.1424
8305.461914 100.789 -113.0191
8365.647461 100.622 -116.7786
8426.267578 100.382 -120.3185
8487.328125 100.075 -123.5609
8548.831055 99.704 -126.4108
8610.779297 99.283 -128.8156
8673.176758 98.818 -130.6901
8736.026367 98.330 -132.0362
8799.331055 97.835 -132.8045
8863.094727 97.356 -133.0649
8927.320312 96.918 -132.8331
8992.010742 96.539 -132.2250
9057.170898 96.242 -131.3192
9122.802734 96.033 -130.2449
9188.910156 95.928 -129.1213
9255.497070 95.913 -128.0584
9322.566406 95.988 -127.1866
9390.121094 96.130 -126.5635
9458.166016 96.322 -126.2899
9526.704102 96.546 -126.3646
9595.738281 96.783 -126.8301
9665.273438 97.023 -127.6547
9735.311523 97.252 -128.8353
9805.857422 97.465 -130.3271
9876.915039 97.652 -132.0988
9948.487305 97.813 -134.1076
10020.578125 97.944 -136.3111
10093.191406 98.043 -138.6768
10166.331055 98.109 -141.1697
10240.000000 98.141 -143.7542
10314.203125 98.136 -146.3961
10388.944336 98.096 -149.0554
10464.226562 98.020 -151.6911
10540.054688 97.911 -154.2719
10616.432617 97.770 -156.7627
10693.363281 97.601 -159.1323
10770.852539 97.405 -161.3461
10848.902344 97.188 -163.3825
10927.517578 96.956 -165.2042
11006.703125 96.720 -166.8258
11086.461914 96.490 -168.2344
11166.798828 96.272 -169.4745
11247.718750 96.077 -170.5705
11329.223633 95.907 -171.5700
11411.320312 95.768 -172.5095
11494.011719 95.661 -173.4478
11577.301758 95.593 -174.4401
11661.195312 95.552 -175.5345
11745.697266 95.536 -176.7941
11830.811523 95.534 -178.2297
11916.542969 95.535 -179.8777
12002.894531 95.532 178.2768
12089.873047 95.516 176.2217
12177.480469 95.478 174.0020
12265.723633 95.406 171.6360
12354.606445 95.299 169.1923
12444.132812 95.150 166.7229
12534.308594 94.961 164.2979
12625.136719 94.728 161.9844
12716.624023 94.458 159.8438
12808.773438 94.150 157.9514
12901.591797 93.821 156.3323
12995.082031 93.478 155.0464
13089.250000 93.138 154.0652
13184.099609 92.816 153.4055
13279.636719 92.529 152.9886
13375.867188 92.297 152.7755
13472.793945 92.124 152.6625
13570.422852 92.023 152.5651
13668.759766 91.989 152.3855
13767.809570 92.024 152.0217
13867.577148 92.110 151.4025
13968.067383 92.241 150.4265
14069.285156 92.393 149.0828
14171.237305 92.546 147.3123
14273.927734 92.688 145.1584
14377.362305 92.802 142.6203
14481.546875 92.881 139.7734
14586.486328 92.910 136.6624
14692.185547 92.890 133.3795
14798.651367 92.812 130.0072
14905.888672 92.683 126.6226
15013.902344 92.503 123.3188
15122.700195 92.283 120.1287
15232.285156 92.032 117.1248
15342.664062 91.764 114.2798
15453.843750 91.491 111.6154
15565.829102 91.225 109.0566
15678.625000 90.981 106.5656
15792.239258 90.759 104.0508
15906.675781 90.567 101.4313
16021.942383 90.394 98.6378
16138.043945 90.237 95.5766
16254.986328 90.078 92.2393
16372.777344 89.900 88.5646
16491.421875 89.688 84.6176
16610.923828 89.427 80.4018
16731.294922 89.102 76.0435
16852.535156 88.696 71.6211
16974.656250 88.208 67.2848
17097.662109 87.628 63.1790
17221.558594 86.966 59.4027
17346.353516 86.225 56.0968
17472.052734 85.418 53.2795
17598.662109 84.553 51.0318
17726.189453 83.652 49.3045
17854.640625 82.734 48.1003
17984.021484 81.818 47.3421
18114.341797 80.929 46.9773
18245.605469 80.074 46.9334
18377.820312 79.270 47.1310
18510.994141 78.508 47.5381
18645.132812 77.791 48.0895
18780.242188 77.106 48.8077
18916.332031 76.439 49.6938
19053.408203 75.798 50.7475
19191.476562 75.184 51.9834
19330.546875 74.603 53.3592
19470.623047 74.056 54.8507
19611.714844 73.549 56.4170
19753.830078 73.088 58.0258
19896.974609 72.673 59.6264
