* Measurement data measured by REW V5.20.13
* Source: C:\Users\kurin\Desktop\Targets and Curves\Resolve\Img\Files\WH1000XM4_SPL.txt
* Format: Comma/Tab/Space delimited data
* Dated: Aug 14, 2023 6:47:18 PM
* REW Settings:
*  C-weighting compensation: Off
*  Target level: 75.0 dB
* Note: ; Measurement imported from C:\Users\kurin\Desktop\Targets and Curves\Resolve\Img\Files\WH1000XM4_SPL.txt Format: Comma/Tab/Space delimited data 623 values loaded, 5 Hz to 39,792 Hz log spaced 
* Measurement: WH1000XM4_SPL
* Smoothing: 1/48 octave
* Frequency Step: 1/96 octave
* Start Frequency: 5.000 Hz
*
* Freq(Hz) SPL(dB) Phase(degrees)
5.000000 86.304 35.0580
5.036232 86.316 35.0449
5.072727 86.329 35.0310
5.109486 86.344 35.0151
5.146511 86.361 34.9970
5.183805 86.382 34.9754
5.221369 86.405 34.9520
5.259205 86.428 34.9284
5.297316 86.453 34.9040
5.335702 86.480 34.8783
5.374367 86.507 34.8520
5.413311 86.534 34.8261
5.452538 86.560 34.8000
5.492050 86.587 34.7736
5.531847 86.614 34.7470
5.571934 86.641 34.7206
5.612310 86.667 34.6940
5.652979 86.693 34.6666
5.693943 86.720 34.6390
5.735204 86.747 34.6121
5.776763 86.774 34.5850
5.818624 86.800 34.5571
5.860788 86.827 34.5290
5.903258 86.854 34.5011
5.946035 86.881 34.4730
5.989123 86.907 34.4446
6.032523 86.934 34.4160
6.076237 86.961 34.3871
6.120268 86.988 34.3580
6.164618 87.015 34.3286
6.209289 87.041 34.2990
6.254284 87.067 34.2691
6.299605 87.094 34.2390
6.345255 87.121 34.2091
6.391235 87.148 34.1790
6.437549 87.174 34.1486
6.484198 87.201 34.1180
6.531185 87.228 34.0872
6.578513 87.255 34.0560
6.626183 87.281 34.0241
6.674199 87.308 33.9920
6.722563 87.335 33.9606
6.771278 87.362 33.9290
6.820345 87.389 33.8967
6.869768 87.415 33.8640
6.919549 87.441 33.8311
6.969691 87.468 33.7980
7.020196 87.495 33.7646
7.071068 87.522 33.7310
7.122308 87.548 33.6971
7.173919 87.575 33.6630
7.225904 87.602 33.6291
7.278266 87.629 33.5950
7.331007 87.655 33.5602
7.384131 87.682 33.5250
7.437639 87.709 33.4896
7.491535 87.736 33.4540
7.545822 87.763 33.4181
7.600502 87.789 33.3820
7.655579 87.815 33.3461
7.711054 87.842 33.3100
7.766932 87.869 33.2732
7.823214 87.896 33.2360
7.879904 87.922 33.1987
7.937005 87.949 33.1610
7.994520 87.976 33.1226
8.052452 88.003 33.0840
8.110803 88.029 33.0456
8.169578 88.056 33.0070
8.228777 88.083 32.9682
8.288406 88.110 32.9290
8.348468 88.137 32.8892
8.408964 88.163 32.8490
8.469899 88.189 32.8086
8.531276 88.216 32.7680
8.593097 88.243 32.7271
8.655366 88.270 32.6860
8.718086 88.296 32.6447
8.781260 88.323 32.6030
8.844893 88.350 32.5606
8.908987 88.377 32.5180
8.973545 88.403 32.4757
9.038571 88.430 32.4330
9.104069 88.457 32.3892
9.170040 88.484 32.3450
9.236490 88.511 32.3011
9.303422 88.537 32.2570
9.370838 88.563 32.2122
9.438744 88.590 32.1670
9.507140 88.617 32.1216
9.576033 88.644 32.0760
9.645425 88.670 32.0302
9.715320 88.697 31.9840
9.785721 88.724 31.9373
9.856632 88.751 31.8900
9.928058 88.777 31.8421
10.000000 88.804 31.7940
10.072464 88.831 31.7462
10.145453 88.858 31.6981
10.218971 88.885 31.6488
10.293022 88.911 31.5990
10.367610 88.937 31.5491
10.442738 88.964 31.4990
10.518411 88.991 31.4487
10.594631 89.018 31.3980
10.671404 89.044 31.3468
10.748734 89.071 31.2950
10.826623 89.098 31.2427
10.905077 89.125 31.1900
10.984100 89.151 31.1372
11.063695 89.178 31.0840
11.143867 89.205 31.0302
11.224621 89.232 30.9760
11.305959 89.259 30.9218
11.387886 89.285 30.8670
11.470407 89.311 30.8113
11.553527 89.338 30.7550
11.637249 89.365 30.6987
11.721577 89.392 30.6421
11.806517 89.418 30.5847
11.892071 89.445 30.5271
11.978246 89.472 30.4693
12.065045 89.499 30.4110
12.152473 89.525 30.3518
12.240536 89.552 30.2920
12.329235 89.579 30.2317
12.418578 89.606 30.1711
12.508568 89.633 30.1103
12.599211 89.659 30.0490
12.690510 89.685 29.9868
12.782471 89.712 29.9241
12.875097 89.739 29.8613
12.968395 89.766 29.7980
13.062370 89.792 29.7338
13.157025 89.819 29.6690
13.252366 89.846 29.6043
13.348398 89.873 29.5390
13.445127 89.899 29.4729
13.542556 89.926 29.4061
13.640691 89.953 29.3389
13.739536 89.980 29.2710
13.839099 90.007 29.2023
13.939383 90.033 29.1331
14.040393 90.059 29.0638
14.142136 90.086 28.9940
14.244616 90.113 28.9234
14.347837 90.140 28.8520
14.451808 90.166 28.7798
14.556532 90.193 28.7070
14.662014 90.220 28.6339
14.768262 90.247 28.5601
14.875278 90.273 28.4854
14.983070 90.300 28.4101
15.091644 90.327 28.3344
15.201005 90.354 28.2581
15.311157 90.381 28.1809
15.422109 90.407 28.1031
15.533863 90.433 28.0244
15.646428 90.460 27.9450
15.759809 90.487 27.8649
15.874010 90.514 27.7841
15.989040 90.540 27.7024
16.104904 90.567 27.6201
16.221605 90.594 27.5370
16.339155 90.621 27.4531
16.457554 90.647 27.3685
16.576813 90.674 27.2831
16.696936 90.701 27.1970
16.817928 90.728 27.1101
16.939798 90.755 27.0220
17.062551 90.781 26.9331
17.186193 90.807 26.8435
17.310732 90.834 26.7531
17.436172 90.861 26.6616
17.562521 90.888 26.5691
17.689787 90.914 26.4755
17.817974 90.941 26.3811
17.947090 90.968 26.2861
18.077143 90.995 26.1901
18.208138 91.021 26.0927
18.340080 91.048 25.9941
18.472980 91.075 25.8941
18.606844 91.102 25.7931
18.741676 91.129 25.6912
18.877487 91.155 25.5881
19.014280 91.181 25.4833
19.152065 91.208 25.3771
19.290850 91.235 25.2699
19.430639 91.262 25.1611
19.571442 91.288 25.0501
19.713264 91.315 24.9371
19.856115 91.342 24.8224
20.000000 91.369 24.7051
20.144928 91.396 24.5848
20.290907 91.422 24.4611
20.437943 91.448 24.3332
20.586044 91.474 24.2021
20.735220 91.499 24.0680
20.885475 91.524 23.9322
21.036821 91.547 23.7948
21.189262 91.569 23.6592
21.342808 91.589 23.5288
21.497467 91.609 23.4032
21.653246 91.630 23.2843
21.810154 91.651 23.1682
21.968201 91.673 23.0506
22.127390 91.695 22.9341
22.287735 91.716 22.8204
22.449242 91.737 22.7081
22.611917 91.759 22.5969
22.775772 91.781 22.4851
22.940815 91.803 22.3688
23.107054 91.824 22.2551
23.274498 91.842 22.1500
23.443153 91.860 22.0541
23.613033 91.880 21.9721
23.784142 91.902 21.8981
23.956491 91.925 21.8282
24.130091 91.951 21.7601
24.304947 91.979 21.6918
24.481071 92.010 21.6181
24.658470 92.044 21.5344
24.837156 92.079 21.4371
25.017136 92.115 21.3202
25.198421 92.152 21.1871
25.381020 92.187 21.0382
25.564941 92.221 20.8772
25.750195 92.253 20.7061
25.936790 92.283 20.5302
26.124741 92.310 20.3547
26.314051 92.336 20.1822
26.504732 92.361 20.0185
26.696796 92.387 19.8602
26.890253 92.414 19.7072
27.085112 92.442 19.5562
27.281382 92.472 19.4049
27.479073 92.503 19.2492
27.678198 92.536 19.0852
27.878765 92.570 18.9103
28.080786 92.606 18.7204
28.284271 92.642 18.5153
28.489231 92.678 18.2927
28.695675 92.713 18.0543
28.903616 92.747 17.8011
29.113064 92.780 17.5324
29.324028 92.812 17.2476
29.536524 92.842 16.9474
29.750557 92.869 16.6314
29.966141 92.894 16.3024
30.183289 92.915 15.9622
30.402010 92.933 15.6134
30.622314 92.947 15.2569
30.844217 92.956 14.8994
31.067726 92.959 14.5450
31.292856 92.956 14.2035
31.519617 92.947 13.8850
31.748020 92.935 13.5933
31.978081 92.920 13.3361
32.209808 92.904 13.1113
32.443211 92.889 12.9199
32.678310 92.874 12.7602
32.915108 92.860 12.6335
33.153625 92.850 12.5311
33.393871 92.846 12.4479
33.635857 92.847 12.3751
33.879597 92.852 12.3036
34.125103 92.861 12.2301
34.372387 92.873 12.1487
34.621464 92.887 12.0581
34.872345 92.904 11.9545
35.125042 92.922 11.8391
35.379574 92.940 11.7114
35.635948 92.959 11.5732
35.894180 92.978 11.4268
36.154285 92.998 11.2702
36.416275 93.018 11.1018
36.680161 93.039 10.9223
36.945961 93.059 10.7316
37.213688 93.079 10.5313
37.483353 93.098 10.3237
37.754974 93.116 10.1063
38.028561 93.135 9.8777
38.304131 93.153 9.6373
38.581699 93.170 9.3827
38.861279 93.184 9.1184
39.142883 93.195 8.8480
39.426529 93.204 8.5724
39.712231 93.212 8.2930
40.000000 93.218 8.0124
40.289856 93.220 7.7314
40.581814 93.218 7.4564
40.875885 93.213 7.1941
41.172089 93.206 6.9444
41.470440 93.199 6.7099
41.770950 93.192 6.4894
42.073643 93.184 6.2825
42.378525 93.176 6.0883
42.685616 93.170 5.9074
42.994934 93.165 5.7342
43.306492 93.162 5.5636
43.620308 93.160 5.3943
43.936401 93.159 5.2230
44.254780 93.158 5.0503
44.575470 93.158 4.8758
44.898483 93.158 4.6993
45.223835 93.158 4.5203
45.551544 93.158 4.3393
45.881630 93.158 4.1568
46.214108 93.158 3.9723
46.548996 93.158 3.7855
46.886307 93.158 3.5963
47.226067 93.158 3.4047
47.568283 93.158 3.2093
47.912983 93.158 3.0092
48.260181 93.158 2.8033
48.609894 93.157 2.5904
48.962143 93.156 2.3703
49.316940 93.154 2.1423
49.674313 93.150 1.9074
50.034271 93.144 1.6649
50.396843 93.136 1.4194
50.762039 93.124 1.1745
51.129883 93.110 0.9324
51.500389 93.093 0.6957
51.873581 93.073 0.4674
52.249481 93.050 0.2502
52.628101 93.025 0.0483
53.009464 92.997 -0.1325
53.393593 92.968 -0.2937
53.780506 92.939 -0.4347
54.170223 92.910 -0.5568
54.562763 92.881 -0.6626
54.958145 92.852 -0.7489
55.356396 92.823 -0.8126
55.757530 92.794 -0.8559
56.161572 92.768 -0.8784
56.568542 92.744 -0.8850
56.978462 92.723 -0.8807
57.391350 92.705 -0.8660
57.807232 92.689 -0.8417
58.226128 92.675 -0.8121
58.648056 92.666 -0.7803
59.073048 92.659 -0.7500
59.501114 92.655 -0.7260
59.932281 92.652 -0.7080
60.366577 92.651 -0.6978
60.804020 92.650 -0.6940
61.244629 92.650 -0.6962
61.688435 92.650 -0.7030
62.135452 92.650 -0.7130
62.585712 92.650 -0.7250
63.039234 92.650 -0.7372
63.496040 92.650 -0.7490
63.956161 92.650 -0.7593
64.419617 92.650 -0.7670
64.886421 92.650 -0.7710
65.356621 92.650 -0.7700
65.830215 92.651 -0.7625
66.307251 92.652 -0.7480
66.787743 92.654 -0.7255
67.271713 92.658 -0.6961
67.759193 92.664 -0.6593
68.250206 92.672 -0.6191
68.744774 92.682 -0.5791
69.242928 92.695 -0.5401
69.744690 92.710 -0.5027
70.250084 92.728 -0.4701
70.759148 92.749 -0.4454
71.271896 92.771 -0.4290
71.788361 92.794 -0.4229
72.308571 92.818 -0.4260
72.832550 92.843 -0.4382
73.360321 92.870 -0.4590
73.891922 92.897 -0.4874
74.427376 92.925 -0.5239
74.966705 92.954 -0.5682
75.509949 92.985 -0.6219
76.057121 93.017 -0.6873
76.608261 93.050 -0.7628
77.163399 93.082 -0.8471
77.722557 93.115 -0.9418
78.285767 93.150 -1.0479
78.853058 93.186 -1.1667
79.424461 93.222 -1.3005
80.000000 93.258 -1.4477
80.579712 93.294 -1.6075
81.163628 93.329 -1.7797
81.751770 93.364 -1.9641
82.344177 93.399 -2.1596
82.940880 93.433 -2.3647
83.541901 93.466 -2.5796
84.147285 93.499 -2.8037
84.757050 93.532 -3.0375
85.371231 93.564 -3.2816
85.989868 93.596 -3.5345
86.612984 93.627 -3.7947
87.240616 93.658 -4.0635
87.872803 93.689 -4.3411
88.509560 93.719 -4.6294
89.150940 93.749 -4.9309
89.796967 93.778 -5.2433
90.447670 93.805 -5.5664
91.103088 93.831 -5.8973
91.763260 93.855 -6.2325
92.428215 93.879 -6.5743
93.097992 93.903 -6.9228
93.772614 93.926 -7.2803
94.452133 93.948 -7.6492
95.136566 93.970 -8.0282
95.825966 93.990 -8.4169
96.520363 94.009 -8.8151
97.219788 94.026 -9.2229
97.924286 94.041 -9.6391
98.633881 94.055 -10.0632
99.348625 94.066 -10.4931
100.068542 94.075 -10.9273
100.793686 94.081 -11.3629
101.524078 94.084 -11.7965
102.259766 94.086 -12.2279
103.000778 94.087 -12.6550
103.747162 94.088 -13.0802
104.498962 94.088 -13.5044
105.256203 94.088 -13.9302
106.018929 94.088 -14.3598
106.787186 94.088 -14.7952
107.561012 94.087 -15.2386
108.340446 94.086 -15.6912
109.125526 94.084 -16.1550
109.916290 94.080 -16.6291
110.712791 94.073 -17.1151
111.515060 94.064 -17.6080
112.323143 94.051 -18.1036
113.137085 94.035 -18.6009
113.956924 94.017 -19.0977
114.782700 93.997 -19.5937
115.614464 93.974 -20.0895
116.452255 93.948 -20.5811
117.296112 93.918 -21.0639
118.146095 93.886 -21.5400
119.002228 93.855 -22.0096
119.864563 93.821 -22.4728
120.733154 93.784 -22.9314
121.608040 93.744 -23.3800
122.489258 93.702 -23.8117
123.376869 93.660 -24.2320
124.270905 93.619 -24.6440
125.171425 93.577 -25.0483
126.078468 93.533 -25.4468
126.992081 93.488 -25.8381
127.912323 93.443 -26.2207
128.839233 93.397 -26.5972
129.772842 93.351 -26.9707
130.713242 93.304 -27.3383
131.660431 93.255 -27.6984
132.614502 93.204 -28.0500
133.575485 93.153 -28.3916
134.543427 93.102 -28.7234
135.518387 93.050 -29.0444
136.500412 92.997 -29.3574
137.489548 92.946 -29.6645
138.485855 92.895 -29.9672
139.489380 92.844 -30.2679
140.500168 92.793 -30.5663
141.518295 92.742 -30.8632
142.543793 92.690 -31.1593
143.576721 92.637 -31.4563
144.617142 92.583 -31.7513
145.665100 92.527 -32.0421
146.720642 92.469 -32.3272
147.783844 92.411 -32.6044
148.854752 92.351 -32.8743
149.933411 92.291 -33.1373
151.019897 92.229 -33.3914
152.114243 92.166 -33.6346
153.216522 92.101 -33.8664
154.326797 92.036 -34.0849
155.445114 91.971 -34.2915
156.571533 91.906 -34.4869
157.706116 91.840 -34.6706
158.848923 91.774 -34.8414
160.000000 91.709 -35.0016
161.159424 91.645 -35.1532
162.327255 91.581 -35.2957
163.503540 91.517 -35.4286
164.688354 91.454 -35.5537
165.881760 91.392 -35.6725
167.083801 91.330 -35.7857
168.294571 91.269 -35.8951
169.514099 91.208 -35.9988
170.742462 91.147 -36.0951
171.979736 91.085 -36.1848
173.225967 91.024 -36.2681
174.481232 90.964 -36.3448
175.745605 90.904 -36.4148
177.019119 90.844 -36.4779
178.301880 90.785 -36.5335
179.593933 90.727 -36.5819
180.895340 90.669 -36.6228
182.206177 90.611 -36.6569
183.526520 90.555 -36.6841
184.856430 90.501 -36.7070
186.195984 90.448 -36.7283
187.545227 90.397 -36.7480
188.904266 90.346 -36.7663
190.273132 90.297 -36.7850
191.651932 90.249 -36.8048
193.040726 90.203 -36.8289
194.439575 90.158 -36.8610
195.848572 90.114 -36.9009
197.267761 90.070 -36.9500
198.697250 90.026 -37.0078
200.137085 89.981 -37.0751
201.587372 89.935 -37.1488
203.048157 89.886 -37.2273
204.519531 89.835 -37.3068
206.001556 89.783 -37.3837
207.494324 89.728 -37.4548
208.997925 89.671 -37.5164
210.512405 89.612 -37.5669
212.037857 89.553 -37.6037
213.574371 89.492 -37.6260
215.122025 89.431 -37.6319
216.680893 89.370 -37.6211
218.251053 89.309 -37.5910
219.832581 89.250 -37.5462
221.425583 89.194 -37.4894
223.030121 89.139 -37.4222
224.646286 89.086 -37.3468
226.274170 89.034 -37.2642
227.913849 88.985 -37.1749
229.565399 88.939 -37.0822
231.228928 88.895 -36.9887
232.904510 88.854 -36.8973
234.592224 88.815 -36.8112
236.292191 88.778 -36.7322
238.004456 88.743 -36.6635
239.729126 88.710 -36.6041
241.466309 88.677 -36.5542
243.216080 88.644 -36.5131
244.978516 88.612 -36.4799
246.753738 88.580 -36.4561
248.541809 88.549 -36.4436
250.342850 88.517 -36.4400
252.156937 88.485 -36.4434
253.984161 88.452 -36.4540
255.824646 88.419 -36.4711
257.678467 88.385 -36.4949
259.545685 88.351 -36.5255
261.426483 88.316 -36.5619
263.320862 88.280 -36.6037
265.229004 88.243 -36.6499
267.150970 88.205 -36.6997
269.086853 88.165 -36.7518
271.036774 88.124 -36.8049
273.000824 88.082 -36.8588
274.979095 88.040 -36.9130
276.971710 87.996 -36.9678
278.978760 87.952 -37.0240
281.000336 87.906 -37.0799
283.036591 87.859 -37.1348
285.087585 87.810 -37.1868
287.153442 87.760 -37.2335
289.234283 87.709 -37.2759
291.330200 87.658 -37.3145
293.441284 87.606 -37.3489
295.567688 87.553 -37.3784
297.709503 87.499 -37.4039
299.866821 87.447 -37.4252
302.039795 87.394 -37.4459
304.228485 87.342 -37.4704
306.433044 87.288 -37.4969
308.653595 87.233 -37.5259
310.890228 87.176 -37.5559
313.143066 87.119 -37.5857
315.412231 87.060 -37.6159
317.697845 87.000 -37.6480
320.000000 86.937 -37.6789
322.318848 86.872 -37.7062
324.654510 86.804 -37.7299
327.007080 86.735 -37.7505
329.376709 86.663 -37.7650
331.763519 86.587 -37.7729
334.167603 86.507 -37.7670
336.589142 86.423 -37.7410
339.028198 86.336 -37.6922
341.484924 86.246 -37.6174
343.959473 86.153 -37.5123
346.451935 86.058 -37.3724
348.962463 85.960 -37.1955
351.491211 85.862 -36.9766
354.038239 85.765 -36.7208
356.603760 85.671 -36.4314
359.187866 85.579 -36.1090
361.790680 85.488 -35.7555
364.412354 85.398 -35.3711
367.053040 85.313 -34.9558
369.712860 85.230 -34.5124
372.391968 85.151 -34.0434
375.090454 85.076 -33.5505
377.808533 85.005 -33.0357
380.546265 84.938 -32.5006
383.303864 84.876 -31.9463
386.081451 84.818 -31.3767
388.879150 84.766 -30.7949
391.697144 84.718 -30.2038
394.535522 84.676 -29.6069
397.394501 84.638 -29.0048
400.274170 84.604 -28.4001
403.174744 84.574 -27.7899
406.096313 84.547 -27.1715
409.039062 84.525 -26.5469
412.003113 84.508 -25.9169
414.988647 84.497 -25.2841
417.995850 84.491 -24.6500
421.024811 84.491 -24.0190
424.075714 84.498 -23.3944
427.148743 84.510 -22.7799
430.244049 84.528 -22.1794
433.361786 84.551 -21.5959
436.502106 84.580 -21.0329
439.665161 84.615 -20.4926
442.851166 84.654 -19.9790
446.060242 84.696 -19.4905
449.292572 84.740 -19.0267
452.548340 84.788 -18.5873
455.827698 84.840 -18.1703
459.130798 84.896 -17.7802
462.457855 84.956 -17.4201
465.809021 85.019 -17.0920
469.184448 85.085 -16.7978
472.584381 85.154 -16.5407
476.008911 85.226 -16.3244
479.458252 85.300 -16.1495
482.932617 85.374 -16.0184
486.432159 85.449 -15.9302
489.957031 85.524 -15.8853
493.507477 85.598 -15.8819
497.083618 85.670 -15.9189
500.685699 85.742 -15.9957
504.313873 85.812 -16.1109
507.968323 85.881 -16.2654
511.649292 85.948 -16.4594
515.356934 86.013 -16.6942
519.091370 86.076 -16.9719
522.852966 86.136 -17.2909
526.641724 86.190 -17.6506
530.458008 86.240 -18.0486
534.301941 86.285 -18.4824
538.173706 86.326 -18.9514
542.073547 86.360 -19.4557
546.001648 86.388 -19.9911
549.958191 86.409 -20.5543
553.943420 86.422 -21.1431
557.957520 86.428 -21.7538
562.000671 86.427 -22.3868
566.073181 86.419 -23.0429
570.175171 86.402 -23.7177
574.306885 86.375 -24.4087
578.468567 86.337 -25.1116
582.660400 86.290 -25.8252
586.882568 86.230 -26.5375
591.135376 86.156 -27.2404
595.419006 86.067 -27.9207
599.733643 85.967 -28.5660
604.079590 85.852 -29.1660
608.456970 85.724 -29.7121
612.866089 85.582 -30.1865
617.307190 85.427 -30.5718
621.780457 85.263 -30.8582
626.286133 85.091 -31.0319
630.824463 84.914 -31.0880
635.395691 84.733 -31.0162
640.000000 84.553 -30.8199
644.637695 84.378 -30.4925
649.309021 84.212 -30.0537
654.014160 84.060 -29.5143
658.753418 83.923 -28.8942
663.527039 83.803 -28.2085
668.335205 83.700 -27.4825
673.178284 83.620 -26.7396
678.056396 83.558 -26.0015
682.969849 83.512 -25.2954
687.918945 83.479 -24.6273
692.903870 83.457 -24.0112
697.924927 83.444 -23.4489
702.982422 83.436 -22.9482
708.076477 83.431 -22.5045
713.207520 83.427 -22.1182
718.375732 83.422 -21.7811
723.581360 83.415 -21.4879
728.824707 83.404 -21.2309
734.106079 83.389 -21.0030
739.425720 83.370 -20.7967
744.783936 83.346 -20.6035
750.180908 83.318 -20.4186
755.617065 83.286 -20.2372
761.092529 83.249 -20.0517
766.607727 83.208 -19.8537
772.162903 83.163 -19.6418
777.758301 83.118 -19.4113
783.394287 83.071 -19.1639
789.071045 83.023 -18.8996
794.789001 82.974 -18.6180
800.548340 82.925 -18.3185
806.349487 82.876 -18.0022
812.192627 82.828 -17.6693
818.078125 82.781 -17.3223
824.006226 82.735 -16.9637
829.977295 82.690 -16.5933
835.991699 82.646 -16.2109
842.049622 82.603 -15.8195
848.151428 82.563 -15.4217
854.297485 82.524 -15.0185
860.488098 82.485 -14.6126
866.723572 82.446 -14.2015
873.004211 82.408 -13.7838
879.330322 82.370 -13.3595
885.702332 82.332 -12.9297
892.120483 82.293 -12.4906
898.585144 82.253 -12.0395
905.096680 82.213 -11.5738
911.655396 82.173 -11.0895
918.261597 82.133 -10.5879
924.915710 82.095 -10.0694
931.618042 82.057 -9.5320
938.368896 82.019 -8.9726
945.168762 81.983 -8.3942
952.017822 81.951 -7.7974
958.916504 81.922 -7.1854
965.865234 81.894 -6.5625
972.864319 81.867 -5.9254
979.914062 81.841 -5.2727
987.014954 81.817 -4.6026
994.167236 81.795 -3.9134
1001.371399 81.774 -3.2026
1008.627747 81.756 -2.4685
1015.936646 81.739 -1.7073
1023.298584 81.724 -0.9146
1030.713867 81.713 -0.0907
1038.182739 81.708 0.7665
1045.705933 81.709 1.6531
1053.283447 81.717 2.5677
1060.916016 81.733 3.5049
1068.603882 81.758 4.4614
1076.347412 81.793 5.4290
1084.147095 81.838 6.4005
1092.003296 81.894 7.3707
1099.916382 81.958 8.3335
1107.886841 82.032 9.2850
1115.915039 82.115 10.2214
1124.001343 82.209 11.1367
1132.146362 82.311 12.0240
1140.350342 82.424 12.8818
1148.613770 82.544 13.7097
1156.937134 82.674 14.4978
1165.320801 82.817 15.2401
1173.765137 82.968 15.9241
1182.270752 83.129 16.5360
1190.838013 83.296 17.0730
1199.467285 83.468 17.5288
1208.159180 83.643 17.8997
1216.913940 83.821 18.1795
1225.732178 83.999 18.3685
1234.614380 84.174 18.4603
1243.560913 84.344 18.4681
1252.572266 84.507 18.3992
1261.648926 84.661 18.2647
1270.791382 84.808 18.0763
1280.000000 84.947 17.8390
1289.275391 85.080 17.5589
1298.618042 85.204 17.2434
1308.028320 85.320 16.9004
1317.506836 85.428 16.5346
1327.054077 85.529 16.1534
1336.670410 85.625 15.7566
1346.356567 85.714 15.3454
1356.112793 85.798 14.9226
1365.939697 85.874 14.4897
1375.837891 85.944 14.0508
1385.807739 86.008 13.6095
1395.849854 86.066 13.1687
1405.964844 86.117 12.7310
1416.152954 86.162 12.3016
1426.415039 86.201 11.8858
1436.751465 86.235 11.4855
1447.162720 86.265 11.1044
1457.649414 86.292 10.7424
1468.212158 86.315 10.4007
1478.851440 86.336 10.0792
1489.567871 86.355 9.7798
1500.361816 86.374 9.4980
1511.234131 86.393 9.2304
1522.185059 86.411 8.9761
1533.215454 86.428 8.7336
1544.325806 86.444 8.5020
1555.516602 86.461 8.2807
1566.788574 86.478 8.0669
1578.142090 86.495 7.8576
1589.578003 86.511 7.6529
1601.096680 86.527 7.4528
1612.698975 86.543 7.2538
1624.385254 86.560 7.0528
1636.156250 86.576 6.8489
1648.012451 86.591 6.6397
1659.954590 86.604 6.4278
1671.983398 86.616 6.2146
1684.099243 86.625 6.0009
1696.302856 86.632 5.7871
1708.594971 86.636 5.5759
1720.976196 86.637 5.3691
1733.447144 86.636 5.1698
1746.008423 86.631 4.9816
1758.660645 86.624 4.8057
1771.404663 86.615 4.6443
1784.240967 86.603 4.4986
1797.170288 86.590 4.3698
1810.193359 86.574 4.2604
1823.310791 86.556 4.1728
1836.523193 86.536 4.1082
1849.831421 86.515 4.0684
1863.236084 86.493 4.0540
1876.737793 86.471 4.0661
1890.337524 86.449 4.1048
1904.035645 86.427 4.1710
1917.833008 86.406 4.2636
1931.730469 86.386 4.3816
1945.728638 86.367 4.5243
1959.828125 86.350 4.6902
1974.029907 86.333 4.8811
1988.334473 86.317 5.0976
2002.742798 86.303 5.3420
2017.255493 86.290 5.6167
2031.873291 86.279 5.9227
2046.597168 86.272 6.2616
2061.427734 86.268 6.6333
2076.365479 86.268 7.0389
2091.411865 86.273 7.4761
2106.566895 86.285 7.9455
2121.832031 86.304 8.4389
2137.207764 86.332 8.9501
2152.694824 86.369 9.4739
2168.294189 86.413 10.0040
2184.006592 86.465 10.5376
2199.832764 86.526 11.0707
2215.773682 86.595 11.5998
2231.830078 86.671 12.1208
2248.002686 86.757 12.6309
2264.292725 86.851 13.1298
2280.700684 86.955 13.6070
2297.227539 87.069 14.0546
2313.874268 87.191 14.4644
2330.641602 87.322 14.8262
2347.530273 87.459 15.1378
2364.541504 87.601 15.3929
2381.676025 87.746 15.5942
2398.934570 87.893 15.7403
2416.318359 88.041 15.8367
2433.827881 88.190 15.8869
2451.464355 88.340 15.8950
2469.228760 88.491 15.8666
2487.121826 88.644 15.8004
2505.144531 88.800 15.7013
2523.297852 88.960 15.5558
2541.582764 89.128 15.3555
2560.000000 89.298 15.0893
2578.550781 89.470 14.7430
2597.236084 89.640 14.3172
2616.056641 89.808 13.8070
2635.013672 89.970 13.2147
2654.108154 90.126 12.5363
2673.340820 90.272 11.7854
2692.713135 90.404 10.9690
2712.225586 90.523 10.1032
2731.879395 90.630 9.2020
2751.675781 90.722 8.2793
2771.615479 90.798 7.3486
2791.699707 90.861 6.4241
2811.929688 90.910 5.5208
2832.305908 90.947 4.6500
2852.830078 90.971 3.8234
2873.502930 90.985 3.0542
2894.325439 90.989 2.3569
2915.298828 90.986 1.7386
2936.424316 90.979 1.2116
2957.702881 90.971 0.7747
2979.135742 90.965 0.4342
3000.723633 90.965 0.1799
3022.468262 90.974 0.0096
3044.370117 90.996 -0.0937
3066.430908 91.032 -0.1389
3088.651611 91.086 -0.1520
3111.033203 91.159 -0.1540
3133.577148 91.251 -0.1689
3156.284180 91.359 -0.2233
3179.156006 91.482 -0.3303
3202.193359 91.618 -0.5090
3225.397949 91.764 -0.7686
3248.770508 91.918 -1.1246
3272.312500 92.075 -1.5767
3296.024902 92.233 -2.1334
3319.909180 92.388 -2.7828
3343.966797 92.538 -3.5196
3368.198486 92.681 -4.3320
3392.605713 92.818 -5.2094
3417.189941 92.946 -6.1426
3441.952393 93.067 -7.1218
3466.894287 93.180 -8.1374
3492.016846 93.285 -9.1768
3517.321289 93.384 -10.2380
3542.809326 93.478 -11.3142
3568.481934 93.569 -12.4079
3594.340576 93.656 -13.5183
3620.386719 93.740 -14.6496
3646.621582 93.821 -15.8042
3673.046387 93.900 -16.9863
3699.662842 93.976 -18.1992
3726.472168 94.048 -19.4471
3753.475586 94.116 -20.7366
3780.675049 94.178 -22.0640
3808.071289 94.231 -23.4292
3835.666016 94.277 -24.8283
3863.460938 94.314 -26.2584
3891.457275 94.342 -27.7150
3919.656250 94.359 -29.1951
3948.059814 94.365 -30.6920
3976.668945 94.359 -32.2008
4005.485596 94.341 -33.7136
4034.510986 94.309 -35.2247
4063.746582 94.263 -36.7229
4093.194336 94.202 -38.2015
4122.855469 94.125 -39.6421
4152.730957 94.032 -41.0319
4182.823730 93.922 -42.3470
4213.133789 93.794 -43.5665
4243.664062 93.652 -44.6681
4274.415527 93.496 -45.6278
4305.389648 93.331 -46.4295
4336.588379 93.160 -47.0494
4368.013184 92.990 -47.4864
4399.665527 92.826 -47.7255
4431.547363 92.677 -47.7841
4463.660156 92.548 -47.6637
4496.005371 92.447 -47.3977
4528.585449 92.383 -47.0020
4561.401367 92.359 -46.5313
4594.455078 92.385 -46.0260
4627.748535 92.458 -45.5462
4661.283203 92.581 -45.1479
4695.060547 92.748 -44.8839
4729.083008 92.957 -44.8104
4763.352051 93.199 -44.9726
4797.869141 93.467 -45.4311
4832.636719 93.747 -46.1954
4867.655762 94.024 -47.3046
4902.928711 94.291 -48.7293
4938.457520 94.533 -50.4668
4974.243652 94.748 -52.4739
5010.289062 94.930 -54.7241
5046.595703 95.075 -57.1634
5083.165527 95.176 -59.7455
5120.000000 95.237 -62.4198
5157.101562 95.258 -65.1286
5194.472168 95.242 -67.8458
5232.113281 95.193 -70.5304
5270.027344 95.113 -73.1689
5308.216309 95.007 -75.7348
5346.681641 94.877 -78.2260
5385.426270 94.727 -80.6301
5424.451172 94.560 -82.9519
5463.758789 94.378 -85.1885
5503.351562 94.184 -87.3506
5543.230957 93.980 -89.4452
5583.399414 93.766 -91.4802
5623.859375 93.541 -93.4666
5664.611816 93.303 -95.4017
5705.660156 93.053 -97.2880
5747.005859 92.789 -99.1197
5788.650879 92.512 -100.8971
5830.597656 92.219 -102.6024
5872.848633 91.903 -104.2263
5915.405762 91.569 -105.7445
5958.271484 91.215 -107.1367
6001.447266 90.842 -108.3820
6044.936523 90.450 -109.4570
6088.740234 90.043 -110.3490
6132.861816 89.625 -111.0399
6177.303223 89.197 -111.5221
6222.066406 88.763 -111.7848
6267.154297 88.326 -111.8204
6312.568359 87.889 -111.6177
6358.312012 87.458 -111.1778
6404.386719 87.037 -110.4943
6450.795898 86.631 -109.5793
6497.541016 86.246 -108.4339
6544.625000 85.888 -107.0843
6592.049805 85.563 -105.5449
6639.818359 85.276 -103.8521
6687.933594 85.033 -102.0334
6736.396973 84.835 -100.1290
6785.211426 84.687 -98.1739
6834.379883 84.587 -96.2111
6883.904785 84.540 -94.2858
6933.788574 84.537 -92.4264
6984.033691 84.574 -90.6703
7034.642578 84.650 -89.0349
7085.618652 84.759 -87.5442
7136.963867 84.899 -86.2152
7188.681152 85.065 -85.0691
7240.773438 85.253 -84.1173
7293.243164 85.460 -83.3771
7346.092773 85.680 -82.8521
7399.325684 85.907 -82.5516
7452.944336 86.137 -82.4748
7506.951172 86.368 -82.6267
7561.350098 86.593 -82.9995
7616.142578 86.807 -83.5950
7671.332031 87.007 -84.3894
7726.921875 87.187 -85.3695
7782.914551 87.345 -86.5058
7839.312500 87.478 -87.7739
7896.119629 87.586 -89.1455
7953.337891 87.669 -90.5931
8010.971191 87.726 -92.0900
8069.021973 87.756 -93.6072
8127.493164 87.763 -95.1240
8186.388672 87.749 -96.6128
8245.710938 87.717 -98.0664
8305.461914 87.669 -99.4685
8365.647461 87.607 -100.8190
8426.267578 87.536 -102.1113
8487.328125 87.456 -103.3486
8548.831055 87.369 -104.5315
8610.779297 87.275 -105.6612
8673.176758 87.176 -106.7387
8736.026367 87.073 -107.7646
8799.331055 86.964 -108.7425
8863.094727 86.852 -109.6643
8927.320312 86.734 -110.5234
8992.010742 86.616 -111.3190
9057.170898 86.498 -112.0450
9122.802734 86.383 -112.7096
9188.910156 86.271 -113.3156
9255.497070 86.167 -113.8731
9322.566406 86.071 -114.3878
9390.121094 85.984 -114.8765
9458.166016 85.910 -115.3527
9526.704102 85.846 -115.8324
9595.738281 85.793 -116.3335
9665.273438 85.748 -116.8631
9735.311523 85.711 -117.4335
9805.857422 85.678 -118.0466
9876.915039 85.650 -118.7084
9948.487305 85.623 -119.4180
10020.578125 85.597 -120.1778
10093.191406 85.571 -120.9835
10166.331055 85.544 -121.8321
10240.000000 85.515 -122.7222
10314.203125 85.484 -123.6524
10388.944336 85.451 -124.6203
10464.226562 85.416 -125.6229
10540.054688 85.377 -126.6597
10616.432617 85.336 -127.7296
10693.363281 85.291 -128.8314
10770.852539 85.243 -129.9644
10848.902344 85.192 -131.1266
10927.517578 85.137 -132.3139
11006.703125 85.080 -133.5313
11086.461914 85.022 -134.7793
11166.798828 84.962 -136.0677
11247.718750 84.902 -137.4028
11329.223633 84.839 -138.7957
11411.320312 84.775 -140.2554
11494.011719 84.707 -141.7934
11577.301758 84.634 -143.4237
11661.195312 84.550 -145.1481
11745.697266 84.455 -146.9804
11830.811523 84.342 -148.8994
11916.542969 84.203 -150.9007
12002.894531 84.037 -152.9476
12089.873047 83.840 -155.0187
12177.480469 83.608 -157.0625
12265.723633 83.339 -159.0357
12354.606445 83.035 -160.8923
12444.132812 82.697 -162.5749
12534.308594 82.335 -164.0754
12625.136719 81.956 -165.3612
12716.624023 81.565 -166.4488
12808.773438 81.169 -167.3271
12901.591797 80.777 -168.0473
12995.082031 80.403 -168.6389
13089.250000 80.044 -169.1565
13184.099609 79.703 -169.6587
13279.636719 79.371 -170.1633
13375.867188 79.044 -170.7202
13472.793945 78.711 -171.2917
13570.422852 78.359 -171.8875
13668.759766 77.980 -172.4152
13767.809570 77.561 -172.8229
13867.577148 77.102 -172.9978
13968.067383 76.595 -172.8460
14069.285156 76.050 -172.2588
14171.237305 75.461 -171.0965
14273.927734 74.864 -169.3568
14377.362305 74.282 -166.9577
14481.546875 73.750 -164.0016
14586.486328 73.300 -160.5107
14692.185547 72.966 -156.6463
14798.651367 72.789 -152.4947
14905.888672 72.779 -148.3080
15013.902344 72.977 -144.3081
15122.700195 73.326 -140.6752
15232.285156 73.792 -137.6452
15342.664062 74.340 -135.2722
15453.843750 74.930 -133.6848
15565.829102 75.538 -132.8950
15678.625000 76.132 -132.9830
15792.239258 76.691 -133.8681
15906.675781 77.187 -135.5422
16021.942383 77.611 -137.8658
16138.043945 77.947 -140.7357
16254.986328 78.196 -144.0328
16372.777344 78.357 -147.6442
16491.421875 78.424 -151.4496
16610.923828 78.393 -155.3433
16731.294922 78.262 -159.1683
16852.535156 78.022 -162.7696
16974.656250 77.690 -166.0335
17097.662109 77.280 -168.8050
17221.558594 76.803 -171.0511
17346.353516 76.270 -172.6831
17472.052734 75.704 -173.7156
17598.662109 75.121 -174.0990
17726.189453 74.556 -173.9384
17854.640625 74.047 -173.2711
17984.021484 73.605 -172.2534
18114.341797 73.257 -171.0137
18245.605469 72.994 -169.6747
18377.820312 72.825 -168.3754
18510.994141 72.732 -167.1943
18645.132812 72.707 -166.2504
18780.242188 72.727 -165.5610
18916.332031 72.769 -165.1933
19053.408203 72.822 -165.1146
19191.476562 72.869 -165.3350
19330.546875 72.902 -165.7920
19470.623047 72.906 -166.4458
19611.714844 72.884 -167.2372
19753.830078 72.834 -168.1045
19896.974609 72.760 -169.0144
