* Measurement data measured by REW V5.20.13
* Source: C:\Users\kurin\Desktop\Targets and Curves\Resolve\Img\Files\HD560s 1_SPL.txt
* Format: Comma/Tab/Space delimited data
* Dated: Aug 14, 2023 4:48:16 PM
* REW Settings:
*  C-weighting compensation: Off
*  Target level: 75.0 dB
* Note: ; Measurement imported from C:\Users\kurin\Desktop\Targets and Curves\Resolve\Img\Files\HD560s 1_SPL.txt Format: Comma/Tab/Space delimited data 623 values loaded, 5 Hz to 39,792 Hz log spaced 
* Measurement: HD560s 1_SPL
* Smoothing: 1/48 octave
* Frequency Step: 1/96 octave
* Start Frequency: 5.000 Hz
*
* Freq(Hz) SPL(dB) Phase(degrees)
5.000000 79.393 31.8650
5.036232 79.404 31.8564
5.072727 79.415 31.8470
5.109486 79.428 31.8358
5.146511 79.444 31.8230
5.183805 79.463 31.8085
5.221369 79.483 31.7930
5.259205 79.503 31.7773
5.297316 79.525 31.7610
5.335702 79.549 31.7441
5.374367 79.573 31.7270
5.413311 79.597 31.7100
5.452538 79.620 31.6930
5.492050 79.643 31.6761
5.531847 79.667 31.6590
5.571934 79.691 31.6416
5.612310 79.715 31.6240
5.652979 79.739 31.6066
5.693943 79.762 31.5890
5.735204 79.785 31.5711
5.776763 79.809 31.5530
5.818624 79.833 31.5351
5.860788 79.857 31.5170
5.903258 79.880 31.4986
5.946035 79.904 31.4800
5.989123 79.928 31.4615
6.032523 79.952 31.4430
6.076237 79.976 31.4246
6.120268 79.999 31.4060
6.164618 80.022 31.3871
6.209289 80.046 31.3680
6.254284 80.070 31.3486
6.299605 80.094 31.3290
6.345255 80.118 31.3096
6.391235 80.141 31.2900
6.437549 80.164 31.2701
6.484198 80.188 31.2500
6.531185 80.212 31.2301
6.578513 80.236 31.2100
6.626183 80.260 31.1896
6.674199 80.283 31.1690
6.722563 80.306 31.1481
6.771278 80.330 31.1270
6.820345 80.354 31.1060
6.869768 80.378 31.0850
6.919549 80.402 31.0641
6.969691 80.425 31.0430
7.020196 80.448 31.0216
7.071068 80.472 31.0000
7.122308 80.496 30.9781
7.173919 80.520 30.9560
7.225904 80.544 30.9336
7.278266 80.567 30.9110
7.331007 80.590 30.8886
7.384131 80.614 30.8660
7.437639 80.638 30.8431
7.491535 80.662 30.8200
7.545822 80.686 30.7971
7.600502 80.709 30.7740
7.655579 80.732 30.7501
7.711054 80.756 30.7260
7.766932 80.780 30.7026
7.823214 80.804 30.6790
7.879904 80.828 30.6546
7.937005 80.851 30.6300
7.994520 80.874 30.6056
8.052452 80.898 30.5810
8.110803 80.922 30.5561
8.169578 80.946 30.5310
8.228777 80.969 30.5056
8.288406 80.993 30.4800
8.348468 81.017 30.4541
8.408964 81.041 30.4280
8.469899 81.065 30.4021
8.531276 81.088 30.3760
8.593097 81.111 30.3496
8.655366 81.135 30.3230
8.718086 81.159 30.2961
8.781260 81.183 30.2690
8.844893 81.207 30.2416
8.908987 81.230 30.2140
8.973545 81.253 30.1861
9.038571 81.277 30.1580
9.104069 81.301 30.1301
9.170040 81.325 30.1020
9.236490 81.349 30.0731
9.303422 81.372 30.0440
9.370838 81.395 30.0151
9.438744 81.419 29.9860
9.507140 81.443 29.9566
9.576033 81.467 29.9270
9.645425 81.491 29.8971
9.715320 81.514 29.8670
9.785721 81.537 29.8366
9.856632 81.561 29.8060
9.928058 81.585 29.7751
10.000000 81.609 29.7440
10.072464 81.633 29.7132
10.145453 81.656 29.6820
10.218971 81.679 29.6502
10.293022 81.703 29.6180
10.367610 81.727 29.5856
10.442738 81.751 29.5530
10.518411 81.775 29.5201
10.594631 81.798 29.4870
10.671404 81.821 29.4536
10.748734 81.845 29.4200
10.826623 81.869 29.3861
10.905077 81.893 29.3520
10.984100 81.916 29.3177
11.063695 81.940 29.2830
11.143867 81.964 29.2481
11.224621 81.988 29.2130
11.305959 82.012 29.1777
11.387886 82.035 29.1420
11.470407 82.058 29.1056
11.553527 82.082 29.0690
11.637249 82.106 29.0326
11.721577 82.130 28.9960
11.806517 82.154 28.9587
11.892071 82.177 28.9210
11.978246 82.200 28.8832
12.065045 82.224 28.8450
12.152473 82.248 28.8061
12.240536 82.272 28.7670
12.329235 82.296 28.7281
12.418578 82.319 28.6890
12.508568 82.342 28.6493
12.599211 82.366 28.6090
12.690510 82.390 28.5682
12.782471 82.414 28.5270
12.875097 82.438 28.4862
12.968395 82.461 28.4450
13.062370 82.484 28.4033
13.157025 82.508 28.3610
13.252366 82.532 28.3182
13.348398 82.556 28.2750
13.445127 82.580 28.2317
13.542556 82.603 28.1881
13.640691 82.626 28.1437
13.739536 82.650 28.0990
13.839099 82.674 28.0542
13.939383 82.698 28.0090
14.040393 82.722 27.9638
14.142136 82.745 27.9180
14.244616 82.768 27.8713
14.347837 82.792 27.8240
14.451808 82.816 27.7767
14.556532 82.840 27.7290
14.662014 82.863 27.6808
14.768262 82.887 27.6321
14.875278 82.911 27.5828
14.983070 82.935 27.5331
15.091644 82.959 27.4828
15.201005 82.982 27.4320
15.311157 83.005 27.3808
15.422109 83.029 27.3290
15.533863 83.053 27.2767
15.646428 83.077 27.2240
15.759809 83.101 27.1713
15.874010 83.124 27.1180
15.989040 83.147 27.0634
16.104904 83.171 27.0080
16.221605 83.195 26.9528
16.339155 83.219 26.8971
16.457554 83.243 26.8404
16.576813 83.266 26.7830
16.696936 83.289 26.7249
16.817928 83.313 26.6660
16.939798 83.337 26.6064
17.062551 83.361 26.5461
17.186193 83.385 26.4854
17.310732 83.408 26.4240
17.436172 83.431 26.3615
17.562521 83.455 26.2980
17.689787 83.479 26.2340
17.817974 83.503 26.1691
17.947090 83.527 26.1030
18.077143 83.550 26.0360
18.208138 83.573 25.9686
18.340080 83.597 25.9001
18.472980 83.621 25.8297
18.606844 83.645 25.7580
18.741676 83.669 25.6852
18.877487 83.692 25.6111
19.014280 83.715 25.5353
19.152065 83.739 25.4581
19.290850 83.763 25.3796
19.430639 83.787 25.2991
19.571442 83.811 25.2159
19.713264 83.834 25.1301
19.856115 83.857 25.0419
20.000000 83.881 24.9501
20.144928 83.905 24.8540
20.290907 83.929 24.7531
20.437943 83.952 24.6471
20.586044 83.975 24.5351
20.735220 83.998 24.4153
20.885475 84.019 24.2891
21.036821 84.039 24.1566
21.189262 84.056 24.0202
21.342808 84.071 23.8812
21.497467 84.083 23.7432
21.653246 84.093 23.6089
21.810154 84.101 23.4822
21.968201 84.105 23.3656
22.127390 84.107 23.2651
22.287735 84.105 23.1863
22.449242 84.102 23.1330
22.611917 84.099 23.1119
22.775772 84.097 23.1200
22.940815 84.097 23.1582
23.107054 84.101 23.2209
23.274498 84.109 23.3051
23.443153 84.123 23.4029
23.613033 84.143 23.5094
23.784142 84.169 23.6119
23.956491 84.204 23.6975
24.130091 84.243 23.7609
24.304947 84.285 23.7914
24.481071 84.328 23.7930
24.658470 84.371 23.7662
24.837156 84.414 23.7121
25.017136 84.456 23.6304
25.198421 84.497 23.5261
25.381020 84.533 23.4021
25.564941 84.567 23.2651
25.750195 84.598 23.1234
25.936790 84.626 22.9762
26.124741 84.653 22.8255
26.314051 84.678 22.6712
26.504732 84.701 22.5122
26.696796 84.721 22.3532
26.890253 84.738 22.1974
27.085112 84.752 22.0482
27.281382 84.763 21.9091
27.479073 84.773 21.7822
27.678198 84.781 21.6698
27.878765 84.788 21.5741
28.080786 84.793 21.4986
28.284271 84.799 21.4411
28.489231 84.807 21.4020
28.695675 84.816 21.3770
28.903616 84.828 21.3622
29.113064 84.841 21.3560
29.324028 84.856 21.3564
29.536524 84.873 21.3610
29.750557 84.892 21.3666
29.966141 84.912 21.3740
30.183289 84.933 21.3817
30.402010 84.954 21.3940
30.622314 84.975 21.4144
30.844217 84.998 21.4430
31.067726 85.024 21.4814
31.292856 85.052 21.5279
31.519617 85.083 21.5832
31.748020 85.119 21.6409
31.978081 85.161 21.6991
32.209808 85.210 21.7450
32.443211 85.265 21.7666
32.678310 85.325 21.7600
32.915108 85.387 21.7190
33.153625 85.452 21.6381
33.393871 85.521 21.5100
33.635857 85.589 21.3353
33.879597 85.654 21.1077
34.125103 85.714 20.8404
34.372387 85.768 20.5422
34.621464 85.817 20.2195
34.872345 85.861 19.8796
35.125042 85.899 19.5284
35.379574 85.931 19.1727
35.635948 85.958 18.8174
35.894180 85.980 18.4699
36.154285 85.999 18.1305
36.416275 86.014 17.8019
36.680161 86.027 17.4845
36.945961 86.037 17.1795
37.213688 86.045 16.8874
37.483353 86.052 16.6085
37.754974 86.057 16.3444
38.028561 86.060 16.0963
38.304131 86.063 15.8653
38.581699 86.066 15.6540
38.861279 86.069 15.4583
39.142883 86.074 15.2764
39.426529 86.081 15.1042
39.712231 86.090 14.9385
40.000000 86.102 14.7752
40.289856 86.116 14.6114
40.581814 86.132 14.4413
40.875885 86.151 14.2588
41.172089 86.172 14.0623
41.470440 86.192 13.8463
41.770950 86.211 13.6154
42.073643 86.228 13.3717
42.378525 86.243 13.1174
42.685616 86.257 12.8539
42.994934 86.268 12.5854
43.306492 86.276 12.3153
43.620308 86.281 12.0474
43.936401 86.284 11.7871
44.254780 86.286 11.5334
44.575470 86.287 11.2875
44.898483 86.287 11.0484
45.223835 86.287 10.8158
45.551544 86.287 10.5883
45.881630 86.287 10.3648
46.214108 86.287 10.1443
46.548996 86.287 9.9261
46.886307 86.287 9.7093
47.226067 86.287 9.4933
47.568283 86.287 9.2774
47.912983 86.287 9.0607
48.260181 86.287 8.8424
48.609894 86.287 8.6211
48.962143 86.287 8.3963
49.316940 86.287 8.1675
49.674313 86.286 7.9334
50.034271 86.285 7.6924
50.396843 86.282 7.4454
50.762039 86.277 7.1916
51.129883 86.271 6.9334
51.500389 86.263 6.6723
51.873581 86.252 6.4105
52.249481 86.239 6.1488
52.628101 86.222 5.8924
53.009464 86.201 5.6452
53.393593 86.177 5.4114
53.780506 86.151 5.1961
54.170223 86.124 5.0003
54.562763 86.096 4.8273
54.958145 86.067 4.6752
55.356396 86.039 4.5451
55.757530 86.013 4.4322
56.161572 85.989 4.3344
56.568542 85.968 4.2451
56.978462 85.949 4.1581
57.391350 85.933 4.0702
57.807232 85.919 3.9767
58.226128 85.905 3.8762
58.648056 85.892 3.7651
59.073048 85.878 3.6452
59.501114 85.863 3.5149
59.932281 85.845 3.3802
60.366577 85.824 3.2449
60.804020 85.801 3.1142
61.244629 85.775 2.9940
61.688435 85.746 2.8862
62.135452 85.716 2.7933
62.585712 85.684 2.7191
63.039234 85.650 2.6680
63.496040 85.615 2.6410
63.956161 85.580 2.6417
64.419617 85.547 2.6669
64.886421 85.516 2.7167
65.356621 85.488 2.7859
65.830215 85.464 2.8706
66.307251 85.443 2.9668
66.787743 85.426 3.0704
67.271713 85.413 3.1768
67.759193 85.404 3.2812
68.250206 85.397 3.3808
68.744774 85.393 3.4712
69.242928 85.391 3.5529
69.744690 85.390 3.6243
70.250084 85.389 3.6879
70.759148 85.389 3.7451
71.271896 85.389 3.7969
71.788361 85.389 3.8442
72.308571 85.389 3.8889
72.832550 85.389 3.9332
73.360321 85.389 3.9779
73.891922 85.389 4.0245
74.427376 85.389 4.0739
74.966705 85.390 4.1271
75.509949 85.391 4.1859
76.057121 85.392 4.2524
76.608261 85.394 4.3258
77.163399 85.399 4.4074
77.722557 85.407 4.4938
78.285767 85.417 4.5838
78.853058 85.431 4.6728
79.424461 85.449 4.7595
80.000000 85.472 4.8339
80.579712 85.500 4.8867
81.163628 85.531 4.9150
81.751770 85.563 4.9127
82.344177 85.595 4.8801
82.940880 85.628 4.8136
83.541901 85.660 4.7182
84.147285 85.687 4.5938
84.757050 85.711 4.4523
85.371231 85.729 4.3060
85.989868 85.744 4.1543
86.612984 85.760 4.0004
87.240616 85.774 3.8443
87.872803 85.783 3.6856
88.509560 85.791 3.5293
89.150940 85.798 3.3836
89.796967 85.805 3.2393
90.447670 85.814 3.0897
91.103088 85.823 2.9353
91.763260 85.828 2.7726
92.428215 85.832 2.6073
93.097992 85.835 2.4450
93.772614 85.836 2.2833
94.452133 85.837 2.1218
95.136566 85.836 1.9603
95.825966 85.835 1.7983
96.520363 85.832 1.6373
97.219788 85.828 1.4786
97.924286 85.822 1.3233
98.633881 85.815 1.1734
99.348625 85.808 1.0283
100.068542 85.800 0.8884
100.793686 85.792 0.7533
101.524078 85.783 0.6223
102.259766 85.774 0.4963
103.000778 85.764 0.3768
103.747162 85.753 0.2622
104.498962 85.744 0.1519
105.256203 85.735 0.0442
106.018929 85.726 -0.0627
106.787186 85.717 -0.1688
107.561012 85.708 -0.2752
108.340446 85.699 -0.3808
109.125526 85.689 -0.4851
109.916290 85.678 -0.5878
110.712791 85.668 -0.6879
111.515060 85.658 -0.7868
112.323143 85.647 -0.8862
113.137085 85.636 -0.9838
113.956924 85.624 -1.0779
114.782700 85.611 -1.1678
115.614464 85.598 -1.2509
116.452255 85.586 -1.3308
117.296112 85.576 -1.4097
118.146095 85.566 -1.4898
119.002228 85.557 -1.5747
119.864563 85.547 -1.6628
120.733154 85.536 -1.7533
121.608040 85.525 -1.8468
122.489258 85.514 -1.9439
123.376869 85.502 -2.0428
124.270905 85.488 -2.1424
125.171425 85.473 -2.2408
126.078468 85.457 -2.3361
126.992081 85.440 -2.4268
127.912323 85.422 -2.5109
128.839233 85.403 -2.5888
129.772842 85.385 -2.6603
130.713242 85.366 -2.7259
131.660431 85.347 -2.7855
132.614502 85.328 -2.8408
133.575485 85.310 -2.8936
134.543427 85.292 -2.9429
135.518387 85.273 -2.9881
136.500412 85.254 -3.0299
137.489548 85.235 -3.0688
138.485855 85.217 -3.1049
139.489380 85.198 -3.1385
140.500168 85.180 -3.1699
141.518295 85.162 -3.2001
142.543793 85.144 -3.2279
143.576721 85.126 -3.2523
144.617142 85.107 -3.2740
145.665100 85.089 -3.2931
146.720642 85.071 -3.3100
147.783844 85.052 -3.3247
148.854752 85.033 -3.3370
149.933411 85.015 -3.3468
151.019897 84.997 -3.3540
152.114243 84.978 -3.3584
153.216522 84.959 -3.3600
154.326797 84.941 -3.3586
155.445114 84.922 -3.3540
156.571533 84.903 -3.3464
157.706116 84.884 -3.3350
158.848923 84.865 -3.3190
160.000000 84.847 -3.2991
161.159424 84.829 -3.2756
162.327255 84.811 -3.2481
163.503540 84.793 -3.2155
164.688354 84.776 -3.1801
165.881760 84.761 -3.1433
167.083801 84.746 -3.1061
168.294571 84.731 -3.0707
169.514099 84.717 -3.0351
170.742462 84.702 -2.9976
171.979736 84.688 -2.9601
173.225967 84.675 -2.9242
174.481232 84.663 -2.8891
175.745605 84.649 -2.8555
177.019119 84.635 -2.8211
178.301880 84.621 -2.7825
179.593933 84.608 -2.7441
180.895340 84.597 -2.7095
182.206177 84.586 -2.6771
183.526520 84.573 -2.6471
184.856430 84.559 -2.6181
186.195984 84.546 -2.5881
187.545227 84.533 -2.5581
188.904266 84.520 -2.5294
190.273132 84.506 -2.4991
191.651932 84.490 -2.4638
193.040726 84.474 -2.4251
194.439575 84.459 -2.3829
195.848572 84.445 -2.3381
197.267761 84.431 -2.2920
198.697250 84.416 -2.2431
200.137085 84.401 -2.1898
201.587372 84.386 -2.1341
203.048157 84.372 -2.0780
204.519531 84.359 -2.0202
206.001556 84.344 -1.9605
207.494324 84.330 -1.8982
208.997925 84.317 -1.8312
210.512405 84.305 -1.7632
212.037857 84.293 -1.6974
213.574371 84.282 -1.6332
215.122025 84.270 -1.5710
216.680893 84.259 -1.5102
218.251053 84.248 -1.4494
219.832581 84.238 -1.3912
221.425583 84.228 -1.3382
223.030121 84.217 -1.2881
224.646286 84.204 -1.2403
226.274170 84.190 -1.1921
227.913849 84.176 -1.1402
229.565399 84.162 -1.0861
231.228928 84.147 -1.0311
232.904510 84.131 -0.9732
234.592224 84.114 -0.9114
236.292191 84.097 -0.8442
238.004456 84.079 -0.7696
239.729126 84.061 -0.6882
241.466309 84.043 -0.5999
243.216080 84.024 -0.5043
244.978516 84.005 -0.4006
246.753738 83.987 -0.2893
248.541809 83.970 -0.1700
250.342850 83.953 -0.0444
252.156937 83.938 0.0859
253.984161 83.923 0.2206
255.824646 83.908 0.3583
257.678467 83.894 0.5006
259.545685 83.880 0.6499
261.426483 83.868 0.8026
263.320862 83.858 0.9560
265.229004 83.849 1.1096
267.150970 83.840 1.2618
269.086853 83.832 1.4136
271.036774 83.824 1.5655
273.000824 83.817 1.7166
274.979095 83.811 1.8649
276.971710 83.804 2.0135
278.978760 83.796 2.1649
281.000336 83.789 2.3186
283.036591 83.783 2.4750
285.087585 83.778 2.6345
287.153442 83.772 2.7967
289.234283 83.766 2.9635
291.330200 83.761 3.1381
293.441284 83.758 3.3165
295.567688 83.758 3.4967
297.709503 83.759 3.6755
299.866821 83.761 3.8493
302.039795 83.765 4.0175
304.228485 83.770 4.1789
306.433044 83.776 4.3326
308.653595 83.782 4.4773
310.890228 83.789 4.6136
313.143066 83.796 4.7414
315.412231 83.802 4.8617
317.697845 83.808 4.9742
320.000000 83.812 5.0827
322.318848 83.815 5.1899
324.654510 83.816 5.2977
327.007080 83.817 5.4087
329.376709 83.817 5.5226
331.763519 83.817 5.6400
334.167603 83.817 5.7606
336.589142 83.817 5.8846
339.028198 83.817 6.0116
341.484924 83.817 6.1414
343.959473 83.817 6.2746
346.451935 83.817 6.4120
348.962463 83.817 6.5536
351.491211 83.818 6.6999
354.038239 83.819 6.8506
356.603760 83.820 7.0060
359.187866 83.823 7.1645
361.790680 83.827 7.3255
364.412354 83.833 7.4865
367.053040 83.840 7.6448
369.712860 83.848 7.8005
372.391968 83.856 7.9529
375.090454 83.864 8.1026
377.808533 83.873 8.2504
380.546265 83.882 8.3956
383.303864 83.892 8.5370
386.081451 83.902 8.6756
388.879150 83.912 8.8113
391.697144 83.923 8.9456
394.535522 83.933 9.0805
397.394501 83.943 9.2146
400.274170 83.955 9.3479
403.174744 83.967 9.4776
406.096313 83.980 9.5996
409.039062 83.993 9.7176
412.003113 84.004 9.8344
414.988647 84.016 9.9496
417.995850 84.029 10.0652
421.024811 84.042 10.1777
424.075714 84.055 10.2825
427.148743 84.068 10.3847
430.244049 84.079 10.4879
433.361786 84.091 10.5907
436.502106 84.104 10.6936
439.665161 84.117 10.7937
442.851166 84.130 10.8870
446.060242 84.143 10.9777
449.292572 84.154 11.0693
452.548340 84.166 11.1597
455.827698 84.179 11.2488
459.130798 84.192 11.3347
462.457855 84.204 11.4142
465.809021 84.216 11.4908
469.184448 84.226 11.5667
472.584381 84.236 11.6428
476.008911 84.246 11.7213
479.458252 84.256 11.7998
482.932617 84.267 11.8764
486.432159 84.277 11.9518
489.957031 84.286 12.0251
493.507477 84.295 12.0978
497.083618 84.303 12.1710
500.685699 84.311 12.2448
504.313873 84.318 12.3191
507.968323 84.325 12.3948
511.649292 84.331 12.4718
515.356934 84.337 12.5527
519.091370 84.341 12.6403
522.852966 84.345 12.7337
526.641724 84.351 12.8340
530.458008 84.357 12.9377
534.301941 84.364 13.0410
538.173706 84.372 13.1447
542.073547 84.379 13.2483
546.001648 84.386 13.3516
549.958191 84.394 13.4545
553.943420 84.403 13.5567
557.957520 84.411 13.6573
562.000671 84.418 13.7577
566.073181 84.425 13.8593
570.175171 84.433 13.9607
574.306885 84.441 14.0610
578.468567 84.449 14.1597
582.660400 84.457 14.2558
586.882568 84.464 14.3497
591.135376 84.471 14.4409
595.419006 84.476 14.5307
599.733643 84.480 14.6186
604.079590 84.482 14.7097
608.456970 84.481 14.8073
612.866089 84.479 14.9156
617.307190 84.475 15.0397
621.780457 84.470 15.1805
626.286133 84.465 15.3414
630.824463 84.460 15.5204
635.395691 84.457 15.7179
640.000000 84.456 15.9302
644.637695 84.457 16.1540
649.309021 84.460 16.3892
654.014160 84.464 16.6363
658.753418 84.471 16.8911
663.527039 84.482 17.1501
668.335205 84.496 17.4111
673.178284 84.510 17.6701
678.056396 84.527 17.9291
682.969849 84.546 18.1902
687.918945 84.568 18.4491
692.903870 84.593 18.7021
697.924927 84.619 18.9501
702.982422 84.645 19.1929
708.076477 84.673 19.4301
713.207520 84.704 19.6621
718.375732 84.736 19.8872
723.581360 84.769 20.1036
728.824707 84.803 20.3133
734.106079 84.838 20.5187
739.425720 84.874 20.7173
744.783936 84.912 20.9090
750.180908 84.952 21.0894
755.617065 84.994 21.2537
761.092529 85.036 21.4035
766.607727 85.077 21.5369
772.162903 85.118 21.6586
777.758301 85.157 21.7724
783.394287 85.195 21.8786
789.071045 85.234 21.9792
794.789001 85.272 22.0737
800.548340 85.309 22.1609
806.349487 85.345 22.2447
812.192627 85.380 22.3286
818.078125 85.414 22.4117
824.006226 85.449 22.4956
829.977295 85.485 22.5767
835.991699 85.521 22.6517
842.049622 85.556 22.7218
848.151428 85.590 22.7859
854.297485 85.624 22.8478
860.488098 85.655 22.9106
866.723572 85.686 22.9748
873.004211 85.717 23.0408
879.330322 85.747 23.1117
885.702332 85.775 23.1902
892.120483 85.804 23.2777
898.585144 85.833 23.3788
905.096680 85.865 23.4866
911.655396 85.900 23.5965
918.261597 85.937 23.7056
924.915710 85.975 23.8099
931.618042 86.016 23.9077
938.368896 86.059 23.9976
945.168762 86.103 24.0747
952.017822 86.148 24.1326
958.916504 86.194 24.1749
965.865234 86.238 24.2014
972.864319 86.280 24.2170
979.914062 86.320 24.2259
987.014954 86.359 24.2300
994.167236 86.396 24.2326
1001.371399 86.433 24.2340
1008.627747 86.469 24.2350
1015.936646 86.504 24.2370
1023.298584 86.538 24.2418
1030.713867 86.571 24.2490
1038.182739 86.604 24.2588
1045.705933 86.638 24.2709
1053.283447 86.671 24.2839
1060.916016 86.703 24.3009
1068.603882 86.734 24.3252
1076.347412 86.765 24.3559
1084.147095 86.797 24.3938
1092.003296 86.831 24.4368
1099.916382 86.865 24.4825
1107.886841 86.901 24.5328
1115.915039 86.937 24.5904
1124.001343 86.975 24.6508
1132.146362 87.016 24.7118
1140.350342 87.061 24.7688
1148.613770 87.108 24.8171
1156.937134 87.157 24.8549
1165.320801 87.208 24.8790
1173.765137 87.260 24.8880
1182.270752 87.313 24.8794
1190.838013 87.367 24.8531
1199.467285 87.421 24.8084
1208.159180 87.476 24.7453
1216.913940 87.529 24.6622
1225.732178 87.580 24.5634
1234.614380 87.629 24.4522
1243.560913 87.677 24.3295
1252.572266 87.724 24.1968
1261.648926 87.769 24.0546
1270.791382 87.812 23.9031
1280.000000 87.854 23.7446
1289.275391 87.892 23.5816
1298.618042 87.929 23.4147
1308.028320 87.964 23.2447
1317.506836 87.998 23.0737
1327.054077 88.029 22.9044
1336.670410 88.058 22.7367
1346.356567 88.087 22.5714
1356.112793 88.114 22.4086
1365.939697 88.139 22.2486
1375.837891 88.164 22.0916
1385.807739 88.188 21.9395
1395.849854 88.212 21.7876
1405.964844 88.237 21.6320
1416.152954 88.261 21.4726
1426.415039 88.283 21.3073
1436.751465 88.304 21.1387
1447.162720 88.322 20.9680
1457.649414 88.338 20.7967
1468.212158 88.352 20.6255
1478.851440 88.364 20.4576
1489.567871 88.372 20.2948
1500.361816 88.377 20.1416
1511.234131 88.379 20.0030
1522.185059 88.379 19.8795
1533.215454 88.378 19.7716
1544.325806 88.374 19.6833
1555.516602 88.367 19.6179
1566.788574 88.359 19.5781
1578.142090 88.351 19.5695
1589.578003 88.344 19.5869
1601.096680 88.340 19.6278
1612.698975 88.337 19.6897
1624.385254 88.336 19.7699
1636.156250 88.338 19.8655
1648.012451 88.342 19.9737
1659.954590 88.349 20.0915
1671.983398 88.358 20.2153
1684.099243 88.369 20.3454
1696.302856 88.381 20.4800
1708.594971 88.394 20.6223
1720.976196 88.408 20.7737
1733.447144 88.422 20.9382
1746.008423 88.436 21.1213
1758.660645 88.452 21.3211
1771.404663 88.472 21.5391
1784.240967 88.495 21.7720
1797.170288 88.521 22.0169
1810.193359 88.551 22.2740
1823.310791 88.585 22.5440
1836.523193 88.624 22.8229
1849.831421 88.668 23.1079
1863.236084 88.718 23.3947
1876.737793 88.773 23.6795
1890.337524 88.834 23.9578
1904.035645 88.900 24.2254
1917.833008 88.973 24.4770
1931.730469 89.051 24.7077
1945.728638 89.135 24.9132
1959.828125 89.221 25.0869
1974.029907 89.311 25.2305
1988.334473 89.401 25.3425
2002.742798 89.493 25.4257
2017.255493 89.585 25.4805
2031.873291 89.678 25.5119
2046.597168 89.768 25.5237
2061.427734 89.859 25.5200
2076.365479 89.950 25.5066
2091.411865 90.043 25.4821
2106.566895 90.136 25.4483
2121.832031 90.232 25.4022
2137.207764 90.331 25.3443
2152.694824 90.434 25.2664
2168.294189 90.540 25.1625
2184.006592 90.650 25.0267
2199.832764 90.763 24.8527
2215.773682 90.878 24.6350
2231.830078 90.994 24.3659
2248.002686 91.110 24.0454
2264.292725 91.221 23.6681
2280.700684 91.329 23.2429
2297.227539 91.429 22.7744
2313.874268 91.522 22.2701
2330.641602 91.608 21.7353
2347.530273 91.686 21.1824
2364.541504 91.753 20.6216
2381.676025 91.811 20.0655
2398.934570 91.861 19.5283
2416.318359 91.904 19.0152
2433.827881 91.942 18.5344
2451.464355 91.976 18.0908
2469.228760 92.006 17.6930
2487.121826 92.035 17.3374
2505.144531 92.067 17.0259
2523.297852 92.103 16.7512
2541.582764 92.142 16.5087
2560.000000 92.187 16.2919
2578.550781 92.238 16.0971
2597.236084 92.296 15.9109
2616.056641 92.364 15.7213
2635.013672 92.439 15.5199
2654.108154 92.520 15.2949
2673.340820 92.606 15.0442
2692.713135 92.696 14.7640
2712.225586 92.791 14.4466
2731.879395 92.891 14.0817
2751.675781 92.993 13.6720
2771.615479 93.092 13.2142
2791.699707 93.191 12.7163
2811.929688 93.286 12.1851
2832.305908 93.381 11.6207
2852.830078 93.475 11.0264
2873.502930 93.568 10.3988
2894.325439 93.660 9.7346
2915.298828 93.750 9.0363
2936.424316 93.835 8.3043
2957.702881 93.918 7.5414
2979.135742 93.997 6.7513
3000.723633 94.074 5.9307
3022.468262 94.147 5.0755
3044.370117 94.215 4.1912
3066.430908 94.276 3.2786
3088.651611 94.331 2.3462
3111.033203 94.379 1.4024
3133.577148 94.421 0.4476
3156.284180 94.459 -0.5155
3179.156006 94.491 -1.4854
3202.193359 94.517 -2.4597
3225.397949 94.538 -3.4383
3248.770508 94.556 -4.4196
3272.312500 94.569 -5.4056
3296.024902 94.576 -6.3985
3319.909180 94.578 -7.3964
3343.966797 94.574 -8.3991
3368.198486 94.563 -9.4032
3392.605713 94.545 -10.4072
3417.189941 94.519 -11.4054
3441.952393 94.485 -12.3944
3466.894287 94.442 -13.3667
3492.016846 94.390 -14.3175
3517.321289 94.328 -15.2358
3542.809326 94.256 -16.1145
3568.481934 94.173 -16.9373
3594.340576 94.080 -17.6922
3620.386719 93.978 -18.3601
3646.621582 93.866 -18.9207
3673.046387 93.750 -19.3662
3699.662842 93.634 -19.6818
3726.472168 93.521 -19.8674
3753.475586 93.412 -19.9150
3780.675049 93.316 -19.8346
3808.071289 93.238 -19.6202
3835.666016 93.185 -19.3136
3863.460938 93.168 -18.9396
3891.457275 93.183 -18.5439
3919.656250 93.230 -18.1700
3948.059814 93.309 -17.8503
3976.668945 93.419 -17.6197
4005.485596 93.555 -17.5132
4034.510986 93.717 -17.5728
4063.746582 93.893 -17.8124
4093.194336 94.077 -18.2622
4122.855469 94.262 -18.9143
4152.730957 94.443 -19.7772
4182.823730 94.613 -20.8315
4213.133789 94.767 -22.0710
4243.664062 94.900 -23.4660
4274.415527 95.011 -24.9947
4305.389648 95.097 -26.6278
4336.588379 95.156 -28.3392
4368.013184 95.189 -30.0976
4399.665527 95.193 -31.8699
4431.547363 95.172 -33.6344
4463.660156 95.129 -35.3625
4496.005371 95.065 -37.0417
4528.585449 94.981 -38.6543
4561.401367 94.881 -40.1879
4594.455078 94.764 -41.6221
4627.748535 94.639 -42.9637
4661.283203 94.510 -44.2097
4695.060547 94.377 -45.3685
4729.083008 94.239 -46.4463
4763.352051 94.101 -47.4474
4797.869141 93.964 -48.3738
4832.636719 93.830 -49.2398
4867.655762 93.701 -50.0577
4902.928711 93.577 -50.8353
4938.457520 93.455 -51.5848
4974.243652 93.336 -52.3056
5010.289062 93.218 -52.9985
5046.595703 93.105 -53.6707
5083.165527 92.996 -54.3270
5120.000000 92.891 -54.9758
5157.101562 92.789 -55.6256
5194.472168 92.689 -56.2808
5232.113281 92.593 -56.9480
5270.027344 92.497 -57.6295
5308.216309 92.402 -58.3320
5346.681641 92.303 -59.0485
5385.426270 92.200 -59.7770
5424.451172 92.093 -60.5094
5463.758789 91.981 -61.2389
5503.351562 91.864 -61.9595
5543.230957 91.740 -62.6659
5583.399414 91.612 -63.3497
5623.859375 91.478 -64.0003
5664.611816 91.342 -64.6191
5705.660156 91.205 -65.2014
5747.005859 91.069 -65.7542
5788.650879 90.933 -66.2824
5830.597656 90.799 -66.7875
5872.848633 90.663 -67.2709
5915.405762 90.530 -67.7376
5958.271484 90.400 -68.1894
6001.447266 90.273 -68.6377
6044.936523 90.149 -69.0933
6088.740234 90.026 -69.5596
6132.861816 89.902 -70.0447
6177.303223 89.777 -70.5445
6222.066406 89.647 -71.0614
6267.154297 89.511 -71.5834
6312.568359 89.367 -72.1042
6358.312012 89.214 -72.6075
6404.386719 89.051 -73.0804
6450.795898 88.879 -73.5070
6497.541016 88.698 -73.8723
6544.625000 88.509 -74.1598
6592.049805 88.312 -74.3478
6639.818359 88.114 -74.4368
6687.933594 87.920 -74.4162
6736.396973 87.733 -74.2979
6785.211426 87.554 -74.0839
6834.379883 87.389 -73.7927
6883.904785 87.241 -73.4346
6933.788574 87.112 -73.0361
6984.033691 87.003 -72.6195
7034.642578 86.915 -72.2070
7085.618652 86.848 -71.8212
7136.963867 86.799 -71.4835
7188.681152 86.771 -71.2193
7240.773438 86.757 -71.0397
7293.243164 86.752 -70.9645
7346.092773 86.755 -70.9926
7399.325684 86.763 -71.1295
7452.944336 86.774 -71.3745
7506.951172 86.784 -71.7314
7561.350098 86.792 -72.1914
7616.142578 86.793 -72.7487
7671.332031 86.789 -73.3974
7726.921875 86.780 -74.1293
7782.914551 86.765 -74.9456
7839.312500 86.744 -75.8441
7896.119629 86.715 -76.8286
7953.337891 86.679 -77.8996
8010.971191 86.634 -79.0646
8069.021973 86.582 -80.3285
8127.493164 86.518 -81.6985
8186.388672 86.441 -83.1843
8245.710938 86.346 -84.7832
8305.461914 86.230 -86.5004
8365.647461 86.090 -88.3221
8426.267578 85.920 -90.2444
8487.328125 85.716 -92.2423
8548.831055 85.475 -94.3045
8610.779297 85.192 -96.3850
8673.176758 84.859 -98.4566
8736.026367 84.475 -100.4515
8799.331055 84.036 -102.3141
8863.094727 83.543 -103.9808
8927.320312 82.998 -105.3957
8992.010742 82.398 -106.4803
9057.170898 81.740 -107.1638
9122.802734 81.033 -107.3673
9188.910156 80.279 -106.9947
9255.497070 79.497 -106.0269
9322.566406 78.701 -104.3995
9390.121094 77.911 -102.1535
9458.166016 77.142 -99.2716
9526.704102 76.425 -95.8672
9595.738281 75.790 -91.9910
9665.273438 75.257 -87.8156
9735.311523 74.859 -83.4794
9805.857422 74.584 -79.1393
9876.915039 74.438 -74.9689
9948.487305 74.390 -71.0563
10020.578125 74.425 -67.5509
10093.191406 74.507 -64.4397
10166.331055 74.600 -61.7938
10240.000000 74.687 -59.5082
10314.203125 74.739 -57.5467
10388.944336 74.756 -55.7722
10464.226562 74.722 -54.0702
10540.054688 74.649 -52.3346
10616.432617 74.538 -50.4336
10693.363281 74.409 -48.3302
10770.852539 74.272 -45.9330
10848.902344 74.148 -43.2731
10927.517578 74.056 -40.3265
11006.703125 74.011 -37.1696
11086.461914 74.031 -33.8417
11166.798828 74.118 -30.4320
11247.718750 74.284 -27.0179
11329.223633 74.521 -23.6739
11411.320312 74.826 -20.4803
11494.011719 75.192 -17.4975
11577.301758 75.615 -14.8029
11661.195312 76.080 -12.4252
11745.697266 76.572 -10.4206
11830.811523 77.081 -8.7839
11916.542969 77.597 -7.5266
12002.894531 78.116 -6.6528
12089.873047 78.637 -6.1732
12177.480469 79.147 -6.0784
12265.723633 79.635 -6.3746
12354.606445 80.098 -7.0256
12444.132812 80.528 -8.0047
12534.308594 80.923 -9.2883
12625.136719 81.280 -10.8553
12716.624023 81.593 -12.6708
12808.773438 81.857 -14.7102
12901.591797 82.069 -16.9210
12995.082031 82.225 -19.2606
13089.250000 82.326 -21.6748
13184.099609 82.368 -24.1161
13279.636719 82.353 -26.5218
13375.867188 82.277 -28.8327
13472.793945 82.145 -30.9893
13570.422852 81.960 -32.9299
13668.759766 81.727 -34.6020
13767.809570 81.445 -35.9509
13867.577148 81.124 -36.9216
13968.067383 80.767 -37.4462
14069.285156 80.393 -37.5090
14171.237305 80.014 -37.0535
14273.927734 79.652 -36.1340
14377.362305 79.330 -34.7554
14481.546875 79.064 -33.0118
14586.486328 78.871 -30.9574
14692.185547 78.764 -28.7183
14798.651367 78.769 -26.3929
14905.888672 78.871 -24.1218
15013.902344 79.075 -22.0497
15122.700195 79.354 -20.2641
15232.285156 79.692 -18.8917
15342.664062 80.067 -17.9582
15453.843750 80.457 -17.5403
15565.829102 80.844 -17.6123
15678.625000 81.206 -18.1979
15792.239258 81.532 -19.2223
15906.675781 81.806 -20.6472
16021.942383 82.027 -22.3859
16138.043945 82.188 -24.3691
16254.986328 82.287 -26.5063
16372.777344 82.315 -28.7160
16491.421875 82.277 -30.9021
16610.923828 82.174 -32.9650
16731.294922 82.014 -34.8339
16852.535156 81.800 -36.4158
16974.656250 81.546 -37.6774
17097.662109 81.261 -38.5447
17221.558594 80.964 -39.0461
17346.353516 80.673 -39.1572
17472.052734 80.403 -38.9640
17598.662109 80.173 -38.5101
17726.189453 79.989 -37.8998
17854.640625 79.864 -37.2240
17984.021484 79.786 -36.5684
18114.341797 79.757 -36.0392
18245.605469 79.757 -35.6656
18377.820312 79.773 -35.5265
18510.994141 79.787 -35.5772
18645.132812 79.780 -35.8272
18780.242188 79.746 -36.1908
18916.332031 79.675 -36.6115
19053.408203 79.570 -37.0099
19191.476562 79.427 -37.2989
19330.546875 79.259 -37.4447
19470.623047 79.075 -37.3763
19611.714844 78.886 -37.1200
19753.830078 78.706 -36.6638
19896.974609 78.540 -36.0521
