* Measurement data measured by REW V5.20.13
* Source: C:\Users\kurin\Desktop\Targets and Curves\Resolve\Img\Files\6xx_SPL.txt
* Format: Comma/Tab/Space delimited data
* Dated: Aug 14, 2023 2:48:07 PM
* REW Settings:
*  C-weighting compensation: Off
*  Target level: 75.0 dB
* Note: ; Measurement imported from C:\Users\kurin\Desktop\Targets and Curves\Resolve\Img\Files\6xx_SPL.txt Format: Comma/Tab/Space delimited data 623 values loaded, 5 Hz to 39,792 Hz log spaced 
* Measurement: 6xx_SPL
* Smoothing: 1/48 octave
* Frequency Step: 1/96 octave
* Start Frequency: 5.000 Hz
*
* Freq(Hz) SPL(dB) Phase(degrees)
5.000000 76.617 15.6540
5.036232 76.621 15.6574
5.072727 76.626 15.6610
5.109486 76.632 15.6651
5.146511 76.638 15.6700
5.183805 76.646 15.6766
5.221369 76.655 15.6840
5.259205 76.664 15.6917
5.297316 76.673 15.7000
5.335702 76.683 15.7093
5.374367 76.693 15.7190
5.413311 76.703 15.7284
5.452538 76.713 15.7380
5.492050 76.723 15.7479
5.531847 76.733 15.7580
5.571934 76.743 15.7680
5.612310 76.753 15.7780
5.652979 76.763 15.7879
5.693943 76.773 15.7980
5.735204 76.783 15.8084
5.776763 76.793 15.8190
5.818624 76.803 15.8295
5.860788 76.813 15.8400
5.903258 76.823 15.8504
5.946035 76.833 15.8610
5.989123 76.843 15.8719
6.032523 76.853 15.8830
6.076237 76.863 15.8940
6.120268 76.873 15.9050
6.164618 76.883 15.9159
6.209289 76.893 15.9270
6.254284 76.903 15.9384
6.299605 76.913 15.9500
6.345255 76.923 15.9615
6.391235 76.933 15.9730
6.437549 76.943 15.9844
6.484198 76.953 15.9960
6.531185 76.963 16.0079
6.578513 76.973 16.0200
6.626183 76.983 16.0319
6.674199 76.993 16.0440
6.722563 77.003 16.0564
6.771278 77.013 16.0690
6.820345 77.023 16.0815
6.869768 77.033 16.0940
6.919549 77.043 16.1064
6.969691 77.053 16.1190
7.020196 77.063 16.1319
7.071068 77.073 16.1450
7.122308 77.083 16.1580
7.173919 77.093 16.1710
7.225904 77.103 16.1839
7.278266 77.113 16.1970
7.331007 77.123 16.2104
7.384131 77.133 16.2240
7.437639 77.144 16.2379
7.491535 77.154 16.2520
7.545822 77.164 16.2660
7.600502 77.174 16.2800
7.655579 77.184 16.2939
7.711054 77.194 16.3080
7.766932 77.204 16.3224
7.823214 77.214 16.3370
7.879904 77.224 16.3515
7.937005 77.234 16.3660
7.994520 77.244 16.3804
8.052452 77.254 16.3950
8.110803 77.264 16.4099
8.169578 77.274 16.4250
8.228777 77.284 16.4404
8.288406 77.294 16.4560
8.348468 77.304 16.4715
8.408964 77.314 16.4870
8.469899 77.324 16.5024
8.531276 77.334 16.5180
8.593097 77.344 16.5339
8.655366 77.354 16.5500
8.718086 77.364 16.5665
8.781260 77.374 16.5830
8.844893 77.384 16.5989
8.908987 77.394 16.6150
8.973545 77.404 16.6319
9.038571 77.414 16.6490
9.104069 77.424 16.6660
9.170040 77.434 16.6830
9.236490 77.444 16.6999
9.303422 77.454 16.7170
9.370838 77.464 16.7344
9.438744 77.474 16.7520
9.507140 77.484 16.7699
9.576033 77.494 16.7880
9.645425 77.504 16.8059
9.715320 77.514 16.8240
9.785721 77.524 16.8424
9.856632 77.534 16.8610
9.928058 77.544 16.8794
10.000000 77.554 16.8980
10.072464 77.564 16.9169
10.145453 77.574 16.9360
10.218971 77.584 16.9549
10.293022 77.594 16.9740
10.367610 77.604 16.9934
10.442738 77.614 17.0130
10.518411 77.624 17.0329
10.594631 77.634 17.0530
10.671404 77.644 17.0729
10.748734 77.654 17.0930
10.826623 77.664 17.1134
10.905077 77.674 17.1340
10.984100 77.684 17.1544
11.063695 77.695 17.1750
11.143867 77.705 17.1959
11.224621 77.715 17.2170
11.305959 77.725 17.2384
11.387886 77.735 17.2600
11.470407 77.745 17.2814
11.553527 77.755 17.3030
11.637249 77.765 17.3249
11.721577 77.775 17.3470
11.806517 77.785 17.3689
11.892071 77.795 17.3910
11.978246 77.805 17.4134
12.065045 77.815 17.4360
12.152473 77.825 17.4589
12.240536 77.835 17.4820
12.329235 77.845 17.5049
12.418578 77.855 17.5280
12.508568 77.865 17.5514
12.599211 77.875 17.5750
12.690510 77.885 17.5989
12.782471 77.895 17.6230
12.875097 77.905 17.6469
12.968395 77.915 17.6710
13.062370 77.925 17.6954
13.157025 77.935 17.7200
13.252366 77.945 17.7449
13.348398 77.955 17.7700
13.445127 77.965 17.7950
13.542556 77.975 17.8200
13.640691 77.985 17.8449
13.739536 77.995 17.8700
13.839099 78.005 17.8954
13.939383 78.015 17.9210
14.040393 78.025 17.9469
14.142136 78.035 17.9730
14.244616 78.045 17.9990
14.347837 78.055 18.0250
14.451808 78.065 18.0510
14.556532 78.075 18.0770
14.662014 78.085 18.1029
14.768262 78.095 18.1290
14.875278 78.105 18.1554
14.983070 78.115 18.1820
15.091644 78.125 18.2085
15.201005 78.135 18.2350
15.311157 78.145 18.2615
15.422109 78.155 18.2880
15.533863 78.165 18.3140
15.646428 78.175 18.3400
15.759809 78.185 18.3665
15.874010 78.195 18.3930
15.989040 78.205 18.4186
16.104904 78.215 18.4440
16.221605 78.225 18.4695
16.339155 78.236 18.4950
16.457554 78.246 18.5202
16.576813 78.256 18.5450
16.696936 78.266 18.5693
16.817928 78.276 18.5930
16.939798 78.286 18.6158
17.062551 78.296 18.6380
17.186193 78.306 18.6599
17.310732 78.316 18.6810
17.436172 78.326 18.7010
17.562521 78.336 18.7200
17.689787 78.346 18.7377
17.817974 78.356 18.7540
17.947090 78.366 18.7685
18.077143 78.376 18.7810
18.208138 78.386 18.7913
18.340080 78.396 18.7990
18.472980 78.406 18.8037
18.606844 78.416 18.8050
18.741676 78.426 18.8025
18.877487 78.436 18.7950
19.014280 78.446 18.7818
19.152065 78.456 18.7610
19.290850 78.466 18.7318
19.430639 78.476 18.6900
19.571442 78.486 18.6323
19.713264 78.496 18.5551
19.856115 78.504 18.4543
20.000000 78.508 18.3291
20.144928 78.509 18.1738
20.290907 78.502 18.0002
20.437943 78.484 17.8090
20.586044 78.454 17.6271
20.735220 78.409 17.4749
20.885475 78.353 17.3731
21.036821 78.286 17.3452
21.189262 78.211 17.4039
21.342808 78.130 17.5701
21.497467 78.049 17.8426
21.653246 77.972 18.2365
21.810154 77.906 18.7233
21.968201 77.859 19.2914
22.127390 77.830 19.9053
22.287735 77.821 20.5328
22.449242 77.829 21.1515
22.611917 77.853 21.7310
22.775772 77.889 22.2634
22.940815 77.932 22.7283
23.107054 77.979 23.1325
23.274498 78.026 23.4704
23.443153 78.070 23.7586
23.613033 78.109 24.0061
23.784142 78.142 24.2298
23.956491 78.168 24.4464
24.130091 78.190 24.6667
24.304947 78.207 24.9063
24.481071 78.223 25.1676
24.658470 78.238 25.4596
24.837156 78.255 25.7795
25.017136 78.274 26.1294
25.198421 78.297 26.5046
25.381020 78.326 26.9050
25.564941 78.362 27.3196
25.750195 78.407 27.7422
25.936790 78.461 28.1585
26.124741 78.525 28.5558
26.314051 78.597 28.9235
26.504732 78.677 29.2488
26.696796 78.762 29.5257
26.890253 78.852 29.7445
27.085112 78.944 29.9029
27.281382 79.036 29.9932
27.479073 79.125 30.0220
27.678198 79.209 29.9881
27.878765 79.286 29.9061
28.080786 79.354 29.7850
28.284271 79.413 29.6402
28.489231 79.461 29.4861
28.695675 79.501 29.3352
28.903616 79.532 29.2022
29.113064 79.557 29.0941
29.324028 79.576 29.0233
29.536524 79.592 28.9890
29.750557 79.608 28.9974
29.966141 79.625 29.0399
30.183289 79.645 29.1136
30.402010 79.669 29.2079
30.622314 79.698 29.3126
30.844217 79.730 29.4239
31.067726 79.764 29.5338
31.292856 79.799 29.6448
31.519617 79.836 29.7565
31.748020 79.874 29.8689
31.978081 79.913 29.9807
32.209808 79.954 30.0958
32.443211 79.995 30.2184
32.678310 80.039 30.3458
32.915108 80.087 30.4818
33.153625 80.141 30.6119
33.393871 80.201 30.7255
33.635857 80.266 30.8149
33.879597 80.334 30.8688
34.125103 80.404 30.8870
34.372387 80.473 30.8641
34.621464 80.540 30.8051
34.872345 80.603 30.7092
35.125042 80.662 30.5892
35.379574 80.713 30.4530
35.635948 80.758 30.3142
35.894180 80.797 30.1874
36.154285 80.832 30.0761
36.416275 80.865 29.9898
36.680161 80.897 29.9251
36.945961 80.931 29.8849
37.213688 80.968 29.8600
37.483353 81.008 29.8464
37.754974 81.053 29.8320
38.028561 81.103 29.8047
38.304131 81.155 29.7611
38.581699 81.208 29.6926
38.861279 81.261 29.6032
39.142883 81.312 29.4923
39.426529 81.361 29.3642
39.712231 81.407 29.2205
40.000000 81.451 29.0682
40.289856 81.490 28.9132
40.581814 81.527 28.7612
40.875885 81.560 28.6211
41.172089 81.593 28.4902
41.470440 81.627 28.3702
41.770950 81.661 28.2562
42.073643 81.697 28.1444
42.378525 81.733 28.0332
42.685616 81.770 27.9201
42.994934 81.807 27.8032
43.306492 81.845 27.6799
43.620308 81.883 27.5492
43.936401 81.921 27.4079
44.254780 81.957 27.2602
44.575470 81.991 27.1090
44.898483 82.024 26.9562
45.223835 82.056 26.8057
45.551544 82.088 26.6552
45.881630 82.120 26.5038
46.214108 82.152 26.3512
46.548996 82.183 26.1961
46.886307 82.213 26.0402
47.226067 82.242 25.8858
47.568283 82.271 25.7303
47.912983 82.300 25.5717
48.260181 82.329 25.4113
48.609894 82.356 25.2484
48.962143 82.382 25.0862
49.316940 82.407 24.9281
49.674313 82.431 24.7732
50.034271 82.455 24.6221
50.396843 82.478 24.4752
50.762039 82.501 24.3342
51.129883 82.525 24.1962
51.500389 82.551 24.0599
51.873581 82.577 23.9232
52.249481 82.603 23.7832
52.628101 82.629 23.6412
53.009464 82.655 23.4995
53.393593 82.682 23.3533
53.780506 82.711 23.1983
54.170223 82.741 23.0353
54.562763 82.768 22.8620
54.958145 82.794 22.6823
55.356396 82.820 22.5005
55.757530 82.845 22.3133
56.161572 82.870 22.1177
56.568542 82.894 21.9173
56.978462 82.915 21.7144
57.391350 82.935 21.5104
57.807232 82.954 21.3079
58.226128 82.973 21.1053
58.648056 82.990 20.9016
59.073048 83.007 20.6973
59.501114 83.023 20.4940
59.932281 83.039 20.2884
60.366577 83.055 20.0771
60.804020 83.071 19.8614
61.244629 83.084 19.6411
61.688435 83.095 19.4174
62.135452 83.105 19.1913
62.585712 83.114 18.9624
63.039234 83.121 18.7292
63.496040 83.125 18.4954
63.956161 83.126 18.2636
64.419617 83.123 18.0364
64.886421 83.118 17.8156
65.356621 83.109 17.6063
65.830215 83.096 17.4132
66.307251 83.081 17.2393
66.787743 83.064 17.0888
67.271713 83.045 16.9632
67.759193 83.023 16.8645
68.250206 83.001 16.7961
68.744774 82.979 16.7633
69.242928 82.958 16.7620
69.744690 82.940 16.7909
70.250084 82.924 16.8459
70.759148 82.912 16.9225
71.271896 82.903 17.0208
71.788361 82.897 17.1412
72.308571 82.896 17.2787
72.832550 82.900 17.4302
73.360321 82.909 17.5907
73.891922 82.924 17.7557
74.427376 82.944 17.9207
74.966705 82.970 18.0821
75.509949 83.003 18.2327
76.057121 83.042 18.3664
76.608261 83.086 18.4758
77.163399 83.135 18.5513
77.722557 83.187 18.5939
78.285767 83.239 18.6003
78.853058 83.291 18.5751
79.424461 83.342 18.5215
80.000000 83.393 18.4402
80.579712 83.444 18.3317
81.163628 83.493 18.2003
81.751770 83.539 18.0490
82.344177 83.582 17.8824
82.940880 83.624 17.7067
83.541901 83.664 17.5194
84.147285 83.704 17.3202
84.757050 83.743 17.1074
85.371231 83.780 16.8778
85.989868 83.815 16.6355
86.612984 83.846 16.3820
87.240616 83.875 16.1215
87.872803 83.900 15.8579
88.509560 83.923 15.5935
89.150940 83.943 15.3316
89.796967 83.960 15.0735
90.447670 83.975 14.8218
91.103088 83.989 14.5765
91.763260 84.002 14.3387
92.428215 84.014 14.1085
93.097992 84.025 13.8876
93.772614 84.037 13.6714
94.452133 84.050 13.4568
95.136566 84.064 13.2405
95.825966 84.078 13.0169
96.520363 84.091 12.7895
97.219788 84.102 12.5594
97.924286 84.111 12.3275
98.633881 84.121 12.0947
99.348625 84.129 11.8615
100.068542 84.135 11.6274
100.793686 84.140 11.3956
101.524078 84.143 11.1688
102.259766 84.144 10.9475
103.000778 84.145 10.7333
103.747162 84.146 10.5254
104.498962 84.146 10.3240
105.256203 84.146 10.1284
106.018929 84.146 9.9382
106.787186 84.146 9.7524
107.561012 84.146 9.5693
108.340446 84.146 9.3893
109.125526 84.146 9.2121
109.916290 84.146 9.0373
110.712791 84.146 8.8649
111.515060 84.146 8.6944
112.323143 84.146 8.5252
113.137085 84.146 8.3574
113.956924 84.146 8.1909
114.782700 84.146 8.0254
115.614464 84.146 7.8605
116.452255 84.146 7.6963
117.296112 84.146 7.5331
118.146095 84.146 7.3703
119.002228 84.146 7.2075
119.864563 84.146 7.0444
120.733154 84.146 6.8807
121.608040 84.146 6.7164
122.489258 84.146 6.5520
123.376869 84.146 6.3864
124.270905 84.146 6.2186
125.171425 84.146 6.0483
126.078468 84.146 5.8752
126.992081 84.146 5.6984
127.912323 84.145 5.5171
128.839233 84.144 5.3314
129.772842 84.143 5.1406
130.713242 84.140 4.9464
131.660431 84.135 4.7489
132.614502 84.128 4.5516
133.575485 84.120 4.3581
134.543427 84.110 4.1674
135.518387 84.101 3.9788
136.500412 84.090 3.7943
137.489548 84.076 3.6153
138.485855 84.061 3.4434
139.489380 84.046 3.2819
140.500168 84.031 3.1273
141.518295 84.016 2.9765
142.543793 84.001 2.8314
143.576721 83.984 2.6912
144.617142 83.965 2.5603
145.665100 83.946 2.4430
146.720642 83.926 2.3383
147.783844 83.907 2.2472
148.854752 83.889 2.1682
149.933411 83.872 2.1005
151.019897 83.857 2.0421
152.114243 83.843 1.9924
153.216522 83.832 1.9471
154.326797 83.823 1.9036
155.445114 83.817 1.8571
156.571533 83.813 1.8027
157.706116 83.811 1.7392
158.848923 83.809 1.6631
160.000000 83.807 1.5762
161.159424 83.805 1.4782
162.327255 83.803 1.3712
163.503540 83.799 1.2561
164.688354 83.794 1.1363
165.881760 83.787 1.0155
167.083801 83.779 0.8943
168.294571 83.770 0.7743
169.514099 83.761 0.6553
170.742462 83.751 0.5373
171.979736 83.740 0.4213
173.225967 83.728 0.3082
174.481232 83.716 0.1983
175.745605 83.704 0.0929
177.019119 83.692 -0.0107
178.301880 83.680 -0.1160
179.593933 83.668 -0.2207
180.895340 83.654 -0.3249
182.206177 83.639 -0.4258
183.526520 83.624 -0.5197
184.856430 83.609 -0.6098
186.195984 83.595 -0.6980
187.545227 83.580 -0.7838
188.904266 83.564 -0.8679
190.273132 83.548 -0.9488
191.651932 83.533 -1.0242
193.040726 83.518 -1.0978
194.439575 83.504 -1.1733
195.848572 83.489 -1.2488
197.267761 83.473 -1.3240
198.697250 83.457 -1.3978
200.137085 83.441 -1.4693
201.587372 83.424 -1.5378
203.048157 83.406 -1.6027
204.519531 83.388 -1.6638
206.001556 83.370 -1.7212
207.494324 83.351 -1.7739
208.997925 83.332 -1.8213
210.512405 83.313 -1.8629
212.037857 83.294 -1.8972
213.574371 83.276 -1.9269
215.122025 83.258 -1.9551
216.680893 83.241 -1.9799
218.251053 83.223 -2.0009
219.832581 83.205 -2.0180
221.425583 83.188 -2.0301
223.030121 83.172 -2.0390
224.646286 83.156 -2.0465
226.274170 83.140 -2.0510
227.913849 83.124 -2.0501
229.565399 83.109 -2.0470
231.228928 83.096 -2.0433
232.904510 83.084 -2.0410
234.592224 83.072 -2.0432
236.292191 83.061 -2.0480
238.004456 83.049 -2.0542
239.729126 83.037 -2.0620
241.466309 83.026 -2.0708
243.216080 83.015 -2.0820
244.978516 83.004 -2.0974
246.753738 82.992 -2.1140
248.541809 82.979 -2.1298
250.342850 82.965 -2.1430
252.156937 82.951 -2.1494
253.984161 82.937 -2.1530
255.824646 82.925 -2.1558
257.678467 82.914 -2.1600
259.545685 82.903 -2.1691
261.426483 82.891 -2.1810
263.320862 82.879 -2.1946
265.229004 82.867 -2.2100
267.150970 82.854 -2.2265
269.086853 82.841 -2.2439
271.036774 82.827 -2.2630
273.000824 82.812 -2.2800
274.979095 82.795 -2.2908
276.971710 82.778 -2.2970
278.978760 82.762 -2.2979
281.000336 82.745 -2.2950
283.036591 82.728 -2.2903
285.087585 82.711 -2.2820
287.153442 82.694 -2.2682
289.234283 82.677 -2.2510
291.330200 82.661 -2.2331
293.441284 82.645 -2.2121
295.567688 82.627 -2.1864
297.709503 82.609 -2.1561
299.866821 82.593 -2.1199
302.039795 82.577 -2.0801
304.228485 82.561 -2.0391
306.433044 82.545 -1.9951
308.653595 82.529 -1.9460
310.890228 82.514 -1.8951
313.143066 82.502 -1.8456
315.412231 82.490 -1.7971
317.697845 82.476 -1.7516
320.000000 82.461 -1.7051
322.318848 82.447 -1.6533
324.654510 82.433 -1.5992
327.007080 82.421 -1.5447
329.376709 82.408 -1.4892
331.763519 82.394 -1.4337
334.167603 82.380 -1.3752
336.589142 82.366 -1.3100
339.028198 82.353 -1.2412
341.484924 82.341 -1.1705
343.959473 82.330 -1.0992
346.451935 82.319 -1.0296
348.962463 82.309 -0.9612
351.491211 82.299 -0.8943
354.038239 82.289 -0.8292
356.603760 82.280 -0.7664
359.187866 82.270 -0.7052
361.790680 82.260 -0.6452
364.412354 82.249 -0.5862
367.053040 82.239 -0.5288
369.712860 82.228 -0.4702
372.391968 82.215 -0.4081
375.090454 82.202 -0.3412
377.808533 82.189 -0.2660
380.546265 82.176 -0.1862
383.303864 82.165 -0.1041
386.081451 82.154 -0.0202
388.879150 82.143 0.0632
391.697144 82.132 0.1487
394.535522 82.120 0.2380
397.394501 82.109 0.3307
400.274170 82.098 0.4274
403.174744 82.088 0.5267
406.096313 82.079 0.6276
409.039062 82.070 0.7297
412.003113 82.061 0.8324
414.988647 82.053 0.9357
417.995850 82.045 1.0396
421.024811 82.038 1.1427
424.075714 82.032 1.2428
427.148743 82.026 1.3417
430.244049 82.018 1.4396
433.361786 82.010 1.5387
436.502106 82.002 1.6412
439.665161 81.994 1.7477
442.851166 81.986 1.8593
446.060242 81.978 1.9756
449.292572 81.971 2.0974
452.548340 81.964 2.2226
455.827698 81.959 2.3504
459.130798 81.956 2.4776
462.457855 81.954 2.6008
465.809021 81.952 2.7196
469.184448 81.951 2.8323
472.584381 81.950 2.9397
476.008911 81.948 3.0411
479.458252 81.946 3.1397
482.932617 81.942 3.2371
486.432159 81.937 3.3367
489.957031 81.931 3.4420
493.507477 81.924 3.5546
497.083618 81.917 3.6777
500.685699 81.910 3.8105
504.313873 81.904 3.9550
507.968323 81.899 4.1075
511.649292 81.897 4.2669
515.356934 81.897 4.4275
519.091370 81.900 4.5836
522.852966 81.905 4.7335
526.641724 81.911 4.8735
530.458008 81.918 5.0036
534.301941 81.926 5.1221
538.173706 81.933 5.2307
542.073547 81.940 5.3286
546.001648 81.945 5.4207
549.958191 81.948 5.5108
553.943420 81.949 5.6007
557.957520 81.950 5.6934
562.000671 81.951 5.7887
566.073181 81.951 5.8872
570.175171 81.951 5.9887
574.306885 81.951 6.0933
578.468567 81.951 6.2006
582.660400 81.951 6.3101
586.882568 81.951 6.4216
591.135376 81.951 6.5350
595.419006 81.951 6.6506
599.733643 81.951 6.7684
604.079590 81.951 6.8886
608.456970 81.951 7.0113
612.866089 81.951 7.1366
617.307190 81.951 7.2643
621.780457 81.951 7.3956
626.286133 81.951 7.5311
630.824463 81.951 7.6715
635.395691 81.951 7.8176
640.000000 81.952 7.9695
644.637695 81.953 8.1281
649.309021 81.955 8.2924
654.014160 81.959 8.4629
658.753418 81.965 8.6364
663.527039 81.972 8.8112
668.335205 81.982 8.9834
673.178284 81.994 9.1498
678.056396 82.008 9.3075
682.969849 82.023 9.4525
687.918945 82.039 9.5856
692.903870 82.054 9.7055
697.924927 82.069 9.8146
702.982422 82.083 9.9142
708.076477 82.096 10.0057
713.207520 82.108 10.0908
718.375732 82.119 10.1707
723.581360 82.129 10.2480
728.824707 82.137 10.3207
734.106079 82.145 10.3871
739.425720 82.151 10.4498
744.783936 82.155 10.5102
750.180908 82.156 10.5708
755.617065 82.155 10.6339
761.092529 82.151 10.7017
766.607727 82.145 10.7749
772.162903 82.135 10.8607
777.758301 82.121 10.9647
783.394287 82.105 11.0925
789.071045 82.086 11.2518
794.789001 82.067 11.4423
800.548340 82.049 11.6668
806.349487 82.032 11.9230
812.192627 82.017 12.2107
818.078125 82.005 12.5268
824.006226 81.997 12.8710
829.977295 81.993 13.2357
835.991699 81.997 13.6155
842.049622 82.006 14.0036
848.151428 82.021 14.3913
854.297485 82.040 14.7776
860.488098 82.063 15.1597
866.723572 82.091 15.5346
873.004211 82.123 15.8995
879.330322 82.159 16.2518
885.702332 82.198 16.5874
892.120483 82.239 16.9079
898.585144 82.282 17.2141
905.096680 82.328 17.5040
911.655396 82.376 17.7754
918.261597 82.426 18.0291
924.915710 82.475 18.2644
931.618042 82.525 18.4832
938.368896 82.576 18.6867
945.168762 82.627 18.8763
952.017822 82.677 19.0542
958.916504 82.728 19.2204
965.865234 82.779 19.3757
972.864319 82.830 19.5195
979.914062 82.881 19.6511
987.014954 82.932 19.7716
994.167236 82.982 19.8813
1001.371399 83.032 19.9817
1008.627747 83.080 20.0731
1015.936646 83.128 20.1586
1023.298584 83.174 20.2406
1030.713867 83.219 20.3217
1038.182739 83.263 20.4057
1045.705933 83.308 20.4916
1053.283447 83.353 20.5805
1060.916016 83.400 20.6696
1068.603882 83.448 20.7573
1076.347412 83.498 20.8407
1084.147095 83.549 20.9162
1092.003296 83.601 20.9838
1099.916382 83.653 21.0427
1107.886841 83.707 21.0908
1115.915039 83.762 21.1261
1124.001343 83.817 21.1479
1132.146362 83.872 21.1540
1140.350342 83.926 21.1470
1148.613770 83.979 21.1287
1156.937134 84.031 21.1001
1165.320801 84.082 21.0629
1173.765137 84.133 21.0172
1182.270752 84.182 20.9631
1190.838013 84.230 20.9023
1199.467285 84.276 20.8355
1208.159180 84.321 20.7653
1216.913940 84.365 20.6949
1225.732178 84.408 20.6233
1234.614380 84.450 20.5507
1243.560913 84.492 20.4763
1252.572266 84.534 20.3991
1261.648926 84.575 20.3193
1270.791382 84.615 20.2373
1280.000000 84.654 20.1523
1289.275391 84.694 20.0633
1298.618042 84.733 19.9714
1308.028320 84.770 19.8765
1317.506836 84.805 19.7814
1327.054077 84.839 19.6893
1336.670410 84.872 19.5993
1346.356567 84.905 19.5117
1356.112793 84.938 19.4263
1365.939697 84.970 19.3428
1375.837891 85.001 19.2623
1385.807739 85.032 19.1870
1395.849854 85.063 19.1143
1405.964844 85.095 19.0422
1416.152954 85.126 18.9713
1426.415039 85.156 18.9004
1436.751465 85.186 18.8323
1447.162720 85.215 18.7686
1457.649414 85.244 18.7102
1468.212158 85.272 18.6591
1478.851440 85.301 18.6142
1489.567871 85.331 18.5753
1500.361816 85.361 18.5411
1511.234131 85.392 18.5107
1522.185059 85.424 18.4831
1533.215454 85.458 18.4585
1544.325806 85.493 18.4321
1555.516602 85.531 18.3988
1566.788574 85.569 18.3602
1578.142090 85.605 18.3153
1589.578003 85.642 18.2662
1601.096680 85.679 18.2161
1612.698975 85.717 18.1612
1624.385254 85.755 18.0973
1636.156250 85.793 18.0293
1648.012451 85.828 17.9607
1659.954590 85.862 17.8923
1671.983398 85.897 17.8264
1684.099243 85.932 17.7613
1696.302856 85.966 17.6936
1708.594971 85.999 17.6293
1720.976196 86.030 17.5735
1733.447144 86.060 17.5252
1746.008423 86.091 17.4845
1758.660645 86.123 17.4531
1771.404663 86.153 17.4318
1784.240967 86.184 17.4230
1797.170288 86.216 17.4315
1810.193359 86.250 17.4509
1823.310791 86.288 17.4769
1836.523193 86.329 17.5079
1849.831421 86.371 17.5410
1863.236084 86.415 17.5758
1876.737793 86.462 17.6124
1890.337524 86.512 17.6459
1904.035645 86.565 17.6705
1917.833008 86.620 17.6889
1931.730469 86.675 17.7019
1945.728638 86.732 17.7100
1959.828125 86.791 17.7154
1974.029907 86.853 17.7140
1988.334473 86.917 17.7026
2002.742798 86.983 17.6801
2017.255493 87.050 17.6440
2031.873291 87.119 17.5952
2046.597168 87.188 17.5338
2061.427734 87.259 17.4594
2076.365479 87.330 17.3703
2091.411865 87.401 17.2694
2106.566895 87.471 17.1574
2121.832031 87.540 17.0385
2137.207764 87.608 16.9174
2152.694824 87.677 16.7945
2168.294189 87.746 16.6726
2184.006592 87.817 16.5496
2199.832764 87.888 16.4232
2215.773682 87.960 16.2955
2231.830078 88.033 16.1690
2248.002686 88.108 16.0405
2264.292725 88.186 15.9084
2280.700684 88.267 15.7706
2297.227539 88.349 15.6242
2313.874268 88.433 15.4706
2330.641602 88.518 15.3118
2347.530273 88.607 15.1437
2364.541504 88.698 14.9638
2381.676025 88.793 14.7699
2398.934570 88.890 14.5584
2416.318359 88.989 14.3320
2433.827881 89.088 14.0937
2451.464355 89.190 13.8401
2469.228760 89.296 13.5702
2487.121826 89.406 13.2803
2505.144531 89.517 12.9670
2523.297852 89.632 12.6276
2541.582764 89.752 12.2605
2560.000000 89.874 11.8589
2578.550781 90.000 11.4171
2597.236084 90.127 10.9294
2616.056641 90.258 10.3870
2635.013672 90.387 9.7926
2654.108154 90.514 9.1435
2673.340820 90.636 8.4481
2692.713135 90.754 7.7132
2712.225586 90.868 6.9407
2731.879395 90.980 6.1337
2751.675781 91.089 5.2959
2771.615479 91.191 4.4305
2791.699707 91.290 3.5420
2811.929688 91.384 2.6380
2832.305908 91.477 1.7124
2852.830078 91.569 0.7621
2873.502930 91.659 -0.2147
2894.325439 91.743 -1.2213
2915.298828 91.824 -2.2562
2936.424316 91.902 -3.3188
2957.702881 91.977 -4.4092
2979.135742 92.045 -5.5287
3000.723633 92.109 -6.6730
3022.468262 92.166 -7.8384
3044.370117 92.218 -9.0225
3066.430908 92.263 -10.2234
3088.651611 92.302 -11.4365
3111.033203 92.333 -12.6579
3133.577148 92.359 -13.8842
3156.284180 92.379 -15.1102
3179.156006 92.394 -16.3372
3202.193359 92.404 -17.5641
3225.397949 92.410 -18.7922
3248.770508 92.412 -20.0210
3272.312500 92.410 -21.2535
3296.024902 92.404 -22.4921
3319.909180 92.393 -23.7372
3343.966797 92.377 -24.9907
3368.198486 92.355 -26.2500
3392.605713 92.327 -27.5144
3417.189941 92.293 -28.7801
3441.952393 92.251 -30.0450
3466.894287 92.202 -31.3034
3492.016846 92.145 -32.5492
3517.321289 92.081 -33.7813
3542.809326 92.012 -34.9970
3568.481934 91.936 -36.1955
3594.340576 91.854 -37.3763
3620.386719 91.764 -38.5365
3646.621582 91.669 -39.6757
3673.046387 91.566 -40.7858
3699.662842 91.453 -41.8614
3726.472168 91.334 -42.8933
3753.475586 91.207 -43.8702
3780.675049 91.076 -44.7940
3808.071289 90.941 -45.6644
3835.666016 90.803 -46.4773
3863.460938 90.658 -47.2296
3891.457275 90.511 -47.9169
3919.656250 90.362 -48.5321
3948.059814 90.215 -49.0796
3976.668945 90.070 -49.5634
4005.485596 89.927 -49.9781
4034.510986 89.782 -50.3195
4063.746582 89.642 -50.5889
4093.194336 89.510 -50.7813
4122.855469 89.388 -50.9115
4152.730957 89.276 -50.9874
4182.823730 89.177 -51.0249
4213.133789 89.094 -51.0356
4243.664062 89.026 -51.0410
4274.415527 88.976 -51.0621
4305.389648 88.938 -51.1117
4336.588379 88.912 -51.2077
4368.013184 88.894 -51.3552
4399.665527 88.884 -51.5652
4431.547363 88.879 -51.8365
4463.660156 88.875 -52.1733
4496.005371 88.871 -52.5699
4528.585449 88.866 -53.0245
4561.401367 88.858 -53.5295
4594.455078 88.845 -54.0808
4627.748535 88.825 -54.6651
4661.283203 88.798 -55.2713
4695.060547 88.764 -55.8890
4729.083008 88.724 -56.5061
4763.352051 88.679 -57.1161
4797.869141 88.629 -57.7114
4832.636719 88.574 -58.2842
4867.655762 88.516 -58.8245
4902.928711 88.456 -59.3306
4938.457520 88.399 -59.7934
4974.243652 88.346 -60.2250
5010.289062 88.301 -60.6310
5046.595703 88.263 -61.0221
5083.165527 88.234 -61.4051
5120.000000 88.215 -61.7970
5157.101562 88.211 -62.2080
5194.472168 88.219 -62.6646
5232.113281 88.241 -63.1915
5270.027344 88.272 -63.8057
5308.216309 88.310 -64.5295
5346.681641 88.353 -65.3716
5385.426270 88.397 -66.3480
5424.451172 88.437 -67.4582
5463.758789 88.468 -68.7127
5503.351562 88.487 -70.0949
5543.230957 88.487 -71.5989
5583.399414 88.468 -73.2029
5623.859375 88.426 -74.8930
5664.611816 88.359 -76.6404
5705.660156 88.263 -78.4201
5747.005859 88.139 -80.2058
5788.650879 87.989 -81.9676
5830.597656 87.813 -83.6893
5872.848633 87.612 -85.3524
5915.405762 87.386 -86.9351
5958.271484 87.135 -88.4133
6001.447266 86.863 -89.7743
6044.936523 86.575 -90.9992
6088.740234 86.271 -92.0829
6132.861816 85.953 -93.0163
6177.303223 85.625 -93.7935
6222.066406 85.287 -94.4086
6267.154297 84.942 -94.8522
6312.568359 84.591 -95.1147
6358.312012 84.238 -95.1901
6404.386719 83.887 -95.0674
6450.795898 83.542 -94.7521
6497.541016 83.208 -94.2416
6544.625000 82.890 -93.5499
6592.049805 82.591 -92.6798
6639.818359 82.318 -91.6626
6687.933594 82.081 -90.5155
6736.396973 81.880 -89.2845
6785.211426 81.722 -88.0067
6834.379883 81.605 -86.7265
6883.904785 81.532 -85.4855
6933.788574 81.499 -84.3297
6984.033691 81.508 -83.3100
7034.642578 81.548 -82.4538
7085.618652 81.610 -81.8045
7136.963867 81.689 -81.3647
7188.681152 81.777 -81.1534
7240.773438 81.868 -81.1644
7293.243164 81.953 -81.4029
7346.092773 82.031 -81.8532
7399.325684 82.094 -82.5077
7452.944336 82.140 -83.3464
7506.951172 82.163 -84.3543
7561.350098 82.161 -85.5077
7616.142578 82.130 -86.7839
7671.332031 82.070 -88.1637
7726.921875 81.980 -89.6287
7782.914551 81.856 -91.1530
7839.312500 81.694 -92.7197
7896.119629 81.492 -94.2848
7953.337891 81.246 -95.8255
8010.971191 80.952 -97.2608
8069.021973 80.600 -98.5301
8127.493164 80.197 -99.5484
8186.388672 79.746 -100.2253
8245.710938 79.255 -100.5166
8305.461914 78.728 -100.3605
8365.647461 78.176 -99.7207
8426.267578 77.598 -98.5319
8487.328125 77.027 -96.8204
8548.831055 76.486 -94.5572
8610.779297 75.997 -91.8454
8673.176758 75.588 -88.7447
8736.026367 75.264 -85.3589
8799.331055 75.043 -81.7755
8863.094727 74.928 -78.1044
8927.320312 74.933 -74.4463
8992.010742 75.046 -70.9171
9057.170898 75.266 -67.6416
9122.802734 75.569 -64.6946
9188.910156 75.937 -62.1858
9255.497070 76.349 -60.1338
9322.566406 76.783 -58.5961
9390.121094 77.226 -57.5641
9458.166016 77.663 -57.0646
9526.704102 78.079 -57.0469
9595.738281 78.456 -57.4980
9665.273438 78.791 -58.3307
9735.311523 79.075 -59.4742
9805.857422 79.312 -60.8639
9876.915039 79.502 -62.4289
9948.487305 79.646 -64.1186
10020.578125 79.741 -65.8701
10093.191406 79.795 -67.6494
10166.331055 79.812 -69.4046
10240.000000 79.795 -71.1260
10314.203125 79.747 -72.7883
10388.944336 79.671 -74.3866
10464.226562 79.572 -75.9126
10540.054688 79.448 -77.3517
10616.432617 79.296 -78.6954
10693.363281 79.120 -79.9161
10770.852539 78.921 -80.9887
10848.902344 78.703 -81.8985
10927.517578 78.471 -82.6260
11006.703125 78.227 -83.1616
11086.461914 77.974 -83.4855
11166.798828 77.721 -83.6089
11247.718750 77.478 -83.5209
11329.223633 77.252 -83.2677
11411.320312 77.053 -82.8745
11494.011719 76.883 -82.3938
11577.301758 76.745 -81.8701
11661.195312 76.638 -81.3528
11745.697266 76.564 -80.8939
11830.811523 76.516 -80.5296
11916.542969 76.488 -80.3115
12002.894531 76.470 -80.2449
12089.873047 76.454 -80.3579
12177.480469 76.431 -80.6340
12265.723633 76.395 -81.0778
12354.606445 76.338 -81.6536
12444.132812 76.252 -82.3433
12534.308594 76.134 -83.0978
12625.136719 75.979 -83.8773
12716.624023 75.787 -84.6351
12808.773438 75.557 -85.3383
12901.591797 75.283 -85.9063
12995.082031 74.956 -86.2758
13089.250000 74.586 -86.3614
13184.099609 74.177 -86.0805
13279.636719 73.735 -85.3620
13375.867188 73.262 -84.1206
13472.793945 72.778 -82.3169
13570.422852 72.293 -79.8646
13668.759766 71.846 -76.8189
13767.809570 71.469 -73.1602
13867.577148 71.197 -69.0282
13968.067383 71.071 -64.4797
14069.285156 71.111 -59.7451
14171.237305 71.368 -54.9994
14273.927734 71.799 -50.4690
14377.362305 72.398 -46.4002
14481.546875 73.114 -42.9092
14586.486328 73.906 -40.1696
14692.185547 74.746 -38.2535
14798.651367 75.603 -37.3048
14905.888672 76.442 -37.2864
15013.902344 77.222 -38.2591
15122.700195 77.932 -40.0695
15232.285156 78.548 -42.6253
15342.664062 79.074 -45.7981
15453.843750 79.510 -49.4719
15565.829102 79.850 -53.5183
15678.625000 80.089 -57.8114
15792.239258 80.232 -62.2260
15906.675781 80.279 -66.6154
16021.942383 80.243 -70.9171
16138.043945 80.137 -75.0235
16254.986328 79.966 -78.9240
16372.777344 79.740 -82.5715
16491.421875 79.465 -85.9689
16610.923828 79.149 -89.0960
16731.294922 78.799 -91.9750
16852.535156 78.428 -94.6253
16974.656250 78.027 -97.0341
17097.662109 77.592 -99.2132
17221.558594 77.125 -101.1074
17346.353516 76.625 -102.6795
17472.052734 76.097 -103.8869
17598.662109 75.542 -104.6802
17726.189453 74.968 -105.0422
17854.640625 74.380 -104.9251
17984.021484 73.798 -104.3722
18114.341797 73.241 -103.3792
18245.605469 72.724 -102.0434
18377.820312 72.268 -100.4296
18510.994141 71.876 -98.6328
18645.132812 71.559 -96.7448
18780.242188 71.309 -94.8402
18916.332031 71.131 -93.0148
19053.408203 71.004 -91.2964
19191.476562 70.914 -89.7510
19330.546875 70.850 -88.3581
19470.623047 70.799 -87.1278
19611.714844 70.757 -86.0329
19753.830078 70.718 -85.0557
19896.974609 70.681 -84.1781
