* Measurement data measured by REW V5.20.13
* Source: C:\Users\kurin\Desktop\Targets and Curves\Resolve\Img\Files\HD600_SPL.txt
* Format: Comma/Tab/Space delimited data
* Dated: Aug 14, 2023 4:49:34 PM
* REW Settings:
*  C-weighting compensation: Off
*  Target level: 75.0 dB
* Note: ; Measurement imported from C:\Users\kurin\Desktop\Targets and Curves\Resolve\Img\Files\HD600_SPL.txt Format: Comma/Tab/Space delimited data 623 values loaded, 5 Hz to 39,792 Hz log spaced 
* Measurement: HD600_SPL
* Smoothing: 1/48 octave
* Frequency Step: 1/96 octave
* Start Frequency: 5.000 Hz
*
* Freq(Hz) SPL(dB) Phase(degrees)
5.000000 68.513 82.3710
5.036232 68.540 82.3547
5.072727 68.569 82.3370
5.109486 68.603 82.3159
5.146511 68.642 82.2920
5.183805 68.689 82.2647
5.221369 68.741 82.2360
5.259205 68.794 82.2079
5.297316 68.849 82.1790
5.335702 68.908 82.1482
5.374367 68.969 82.1170
5.413311 69.029 82.0869
5.452538 69.089 82.0570
5.492050 69.149 82.0266
5.531847 69.209 81.9960
5.571934 69.269 81.9656
5.612310 69.329 81.9350
5.652979 69.389 81.9041
5.693943 69.449 81.8730
5.735204 69.509 81.8416
5.776763 69.569 81.8100
5.818624 69.629 81.7781
5.860788 69.689 81.7460
5.903258 69.749 81.7141
5.946035 69.809 81.6820
5.989123 69.868 81.6496
6.032523 69.928 81.6170
6.076237 69.988 81.5841
6.120268 70.048 81.5510
6.164618 70.108 81.5176
6.209289 70.168 81.4840
6.254284 70.228 81.4501
6.299605 70.288 81.4160
6.345255 70.348 81.3816
6.391235 70.408 81.3470
6.437549 70.468 81.3121
6.484198 70.528 81.2770
6.531185 70.588 81.2421
6.578513 70.648 81.2070
6.626183 70.708 81.1712
6.674199 70.768 81.1350
6.722563 70.828 81.0986
6.771278 70.888 81.0620
6.820345 70.948 81.0256
6.869768 71.008 80.9890
6.919549 71.068 80.9517
6.969691 71.128 80.9140
7.020196 71.188 80.8761
7.071068 71.248 80.8380
7.122308 71.308 80.8001
7.173919 71.368 80.7620
7.225904 71.428 80.7232
7.278266 71.488 80.6840
7.331007 71.548 80.6446
7.384131 71.608 80.6050
7.437639 71.667 80.5651
7.491535 71.727 80.5250
7.545822 71.787 80.4847
7.600502 71.847 80.4440
7.655579 71.907 80.4026
7.711054 71.967 80.3610
7.766932 72.027 80.3196
7.823214 72.087 80.2780
7.879904 72.147 80.2357
7.937005 72.207 80.1930
7.994520 72.267 80.1502
8.052452 72.327 80.1070
8.110803 72.387 80.0631
8.169578 72.447 80.0190
8.228777 72.507 79.9751
8.288406 72.567 79.9310
8.348468 72.627 79.8862
8.408964 72.687 79.8410
8.469899 72.747 79.7957
8.531276 72.807 79.7500
8.593097 72.867 79.7037
8.655366 72.927 79.6570
8.718086 72.987 79.6101
8.781260 73.047 79.5630
8.844893 73.107 79.5156
8.908987 73.167 79.4680
8.973545 73.227 79.4203
9.038571 73.287 79.3720
9.104069 73.346 79.3227
9.170040 73.406 79.2730
9.236490 73.466 79.2236
9.303422 73.526 79.1740
9.370838 73.586 79.1238
9.438744 73.646 79.0730
9.507140 73.706 79.0217
9.576033 73.766 78.9700
9.645425 73.826 78.9182
9.715320 73.886 78.8660
9.785721 73.946 78.8138
9.856632 74.006 78.7610
9.928058 74.066 78.7073
10.000000 74.126 78.6530
10.072464 74.186 78.5987
10.145453 74.246 78.5441
10.218971 74.306 78.4892
10.293022 74.366 78.4340
10.367610 74.426 78.3783
10.442738 74.486 78.3220
10.518411 74.546 78.2653
10.594631 74.606 78.2080
10.671404 74.666 78.1502
10.748734 74.726 78.0920
10.826623 74.786 78.0338
10.905077 74.846 77.9750
10.984100 74.906 77.9153
11.063695 74.966 77.8550
11.143867 75.026 77.7947
11.224621 75.086 77.7340
11.305959 75.145 77.6727
11.387886 75.205 77.6110
11.470407 75.265 77.5493
11.553527 75.325 77.4870
11.637249 75.385 77.4238
11.721577 75.445 77.3601
11.806517 75.505 77.2958
11.892071 75.565 77.2311
11.978246 75.625 77.1658
12.065045 75.685 77.1000
12.152473 75.745 77.0338
12.240536 75.805 76.9670
12.329235 75.865 76.8998
12.418578 75.925 76.8321
12.508568 75.985 76.7638
12.599211 76.045 76.6950
12.690510 76.105 76.6258
12.782471 76.165 76.5561
12.875097 76.225 76.4859
12.968395 76.285 76.4151
13.062370 76.345 76.3434
13.157025 76.405 76.2710
13.252366 76.465 76.1984
13.348398 76.525 76.1251
13.445127 76.585 76.0508
13.542556 76.645 75.9761
13.640691 76.705 75.9014
13.739536 76.765 75.8260
13.839099 76.824 75.7494
13.939383 76.884 75.6721
14.040393 76.944 75.5949
14.142136 77.004 75.5170
14.244616 77.064 75.4379
14.347837 77.124 75.3580
14.451808 77.184 75.2778
14.556532 77.244 75.1970
14.662014 77.304 75.1159
14.768262 77.364 75.0341
14.875278 77.424 74.9510
14.983070 77.484 74.8671
15.091644 77.544 74.7829
15.201005 77.604 74.6981
15.311157 77.664 74.6119
15.422109 77.724 74.5251
15.533863 77.784 74.4379
15.646428 77.844 74.3500
15.759809 77.904 74.2614
15.874010 77.964 74.1721
15.989040 78.024 74.0820
16.104904 78.084 73.9911
16.221605 78.144 73.8990
16.339155 78.204 73.8061
16.457554 78.264 73.7130
16.576813 78.324 73.6191
16.696936 78.384 73.5235
16.817928 78.444 73.4271
16.939798 78.503 73.3305
17.062551 78.563 73.2331
17.186193 78.623 73.1346
17.310732 78.683 73.0351
17.436172 78.743 72.9345
17.562521 78.803 72.8331
17.689787 78.863 72.7310
17.817974 78.923 72.6281
17.947090 78.983 72.5241
18.077143 79.043 72.4191
18.208138 79.103 72.3131
18.340080 79.163 72.2061
18.472980 79.223 72.0982
18.606844 79.283 71.9891
18.741676 79.343 71.8786
18.877487 79.403 71.7671
19.014280 79.463 71.6551
19.152065 79.523 71.5421
19.290850 79.583 71.4275
19.430639 79.643 71.3121
19.571442 79.703 71.1964
19.713264 79.763 71.0801
19.856115 79.823 70.9633
20.000000 79.883 70.8451
20.144928 79.944 70.7252
20.290907 80.005 70.6031
20.437943 80.066 70.4790
20.586044 80.128 70.3501
20.735220 80.191 70.2138
20.885475 80.254 70.0702
21.036821 80.315 69.9167
21.189262 80.374 69.7592
21.342808 80.432 69.6028
21.497467 80.488 69.4472
21.653246 80.544 69.2923
21.810154 80.598 69.1432
21.968201 80.650 69.0047
22.127390 80.702 68.8771
22.287735 80.755 68.7650
22.449242 80.811 68.6601
22.611917 80.870 68.5571
22.775772 80.932 68.4521
22.940815 80.995 68.3406
23.107054 81.060 68.2192
23.274498 81.128 68.0834
23.443153 81.196 67.9322
23.613033 81.263 67.7623
23.784142 81.329 67.5762
23.956491 81.395 67.3731
24.130091 81.458 67.1592
24.304947 81.517 66.9396
24.481071 81.573 66.7163
24.658470 81.629 66.4931
24.837156 81.683 66.2703
25.017136 81.734 66.0481
25.198421 81.783 65.8312
25.381020 81.831 65.6247
25.564941 81.877 65.4272
25.750195 81.923 65.2386
25.936790 81.968 65.0602
26.124741 82.012 64.8938
26.314051 82.057 64.7382
26.504732 82.103 64.5934
26.696796 82.150 64.4572
26.890253 82.198 64.3272
27.085112 82.248 64.2031
27.281382 82.299 64.0862
27.479073 82.353 63.9692
27.678198 82.410 63.8462
27.878765 82.470 63.7142
28.080786 82.530 63.5668
28.284271 82.591 63.4072
28.489231 82.651 63.2365
28.695675 82.711 63.0543
28.903616 82.771 62.8607
29.113064 82.830 62.6553
29.324028 82.888 62.4358
29.536524 82.944 62.2083
29.750557 82.995 61.9753
29.966141 83.044 61.7452
30.183289 83.089 61.5286
30.402010 83.134 61.3222
30.622314 83.180 61.1272
30.844217 83.226 60.9412
31.067726 83.272 60.7627
31.292856 83.318 60.5913
31.519617 83.366 60.4279
31.748020 83.416 60.2672
31.978081 83.468 60.1048
32.209808 83.521 59.9382
32.443211 83.575 59.7650
32.678310 83.631 59.5812
32.915108 83.688 59.3803
33.153625 83.745 59.1673
33.393871 83.798 58.9421
33.635857 83.848 58.7133
33.879597 83.896 58.4908
34.125103 83.943 58.2713
34.372387 83.991 58.0544
34.621464 84.039 57.8413
34.872345 84.085 57.6343
35.125042 84.132 57.4302
35.379574 84.182 57.2280
35.635948 84.232 57.0242
35.894180 84.282 56.8153
36.154285 84.332 56.6013
36.416275 84.383 56.3820
36.680161 84.434 56.1554
36.945961 84.485 55.9180
37.213688 84.536 55.6744
37.483353 84.583 55.4282
37.754974 84.630 55.1784
38.028561 84.678 54.9261
38.304131 84.726 54.6683
38.581699 84.772 54.4001
38.861279 84.816 54.1284
39.142883 84.857 53.8585
39.426529 84.896 53.5904
39.712231 84.935 53.3251
40.000000 84.972 53.0654
40.289856 85.006 52.8130
40.581814 85.038 52.5723
40.875885 85.070 52.3493
41.172089 85.102 52.1413
41.470440 85.135 51.9497
41.770950 85.171 51.7683
42.073643 85.210 51.5928
42.378525 85.252 51.4182
42.685616 85.296 51.2389
42.994934 85.341 51.0533
43.306492 85.388 50.8582
43.620308 85.436 50.6533
43.936401 85.485 50.4374
44.254780 85.534 50.2094
44.575470 85.584 49.9676
44.898483 85.633 49.7124
45.223835 85.681 49.4425
45.551544 85.727 49.1614
45.881630 85.772 48.8725
46.214108 85.815 48.5755
46.548996 85.857 48.2698
46.886307 85.896 47.9595
47.226067 85.932 47.6467
47.568283 85.965 47.3365
47.912983 85.996 47.0351
48.260181 86.025 46.7415
48.609894 86.053 46.4553
48.962143 86.080 46.1804
49.316940 86.104 45.9214
49.674313 86.129 45.6754
50.034271 86.157 45.4431
50.396843 86.186 45.2183
50.762039 86.216 44.9954
51.129883 86.248 44.7734
51.500389 86.281 44.5508
51.873581 86.316 44.3234
52.249481 86.352 44.0857
52.628101 86.388 43.8394
53.009464 86.423 43.5843
53.393593 86.458 43.3214
53.780506 86.492 43.0514
54.170223 86.525 42.7755
54.562763 86.556 42.4935
54.958145 86.586 42.2104
55.356396 86.613 41.9313
55.757530 86.638 41.6564
56.161572 86.663 41.3877
56.568542 86.688 41.1254
56.978462 86.711 40.8696
57.391350 86.734 40.6224
57.807232 86.757 40.3881
58.226128 86.781 40.1614
58.648056 86.808 39.9392
59.073048 86.836 39.7194
59.501114 86.865 39.4999
59.932281 86.895 39.2774
60.366577 86.928 39.0490
60.804020 86.964 38.8104
61.244629 87.001 38.5565
61.688435 87.038 38.2865
62.135452 87.075 37.9980
62.585712 87.112 37.6905
63.039234 87.148 37.3611
63.496040 87.181 37.0146
63.956161 87.211 36.6532
64.419617 87.237 36.2827
64.886421 87.259 35.9087
65.356621 87.278 35.5336
65.830215 87.294 35.1615
66.307251 87.308 34.7937
66.787743 87.319 34.4343
67.271713 87.328 34.0797
67.759193 87.339 33.7283
68.250206 87.348 33.3776
68.744774 87.354 33.0252
69.242928 87.359 32.6687
69.744690 87.364 32.3041
70.250084 87.366 31.9347
70.759148 87.361 31.5588
71.271896 87.351 31.1877
71.788361 87.335 30.8303
72.308571 87.313 30.4926
72.832550 87.286 30.1801
73.360321 87.254 29.9035
73.891922 87.214 29.6739
74.427376 87.171 29.4963
74.966705 87.129 29.3820
75.509949 87.088 29.3231
76.057121 87.051 29.3159
76.608261 87.017 29.3579
77.163399 86.987 29.4475
77.722557 86.964 29.5777
78.285767 86.950 29.7454
78.853058 86.946 29.9366
79.424461 86.952 30.1400
80.000000 86.967 30.3446
80.579712 86.993 30.5385
81.163628 87.027 30.7137
81.751770 87.069 30.8601
82.344177 87.117 30.9728
82.940880 87.171 31.0435
83.541901 87.228 31.0720
84.147285 87.286 31.0548
84.757050 87.345 30.9942
85.371231 87.404 30.8888
85.989868 87.461 30.7463
86.612984 87.514 30.5709
87.240616 87.563 30.3714
87.872803 87.607 30.1583
88.509560 87.649 29.9315
89.150940 87.690 29.6942
89.796967 87.729 29.4475
90.447670 87.763 29.1917
91.103088 87.795 28.9316
91.763260 87.824 28.6722
92.428215 87.851 28.4135
93.097992 87.877 28.1571
93.772614 87.901 27.9035
94.452133 87.923 27.6530
95.136566 87.944 27.4075
95.825966 87.964 27.1695
96.520363 87.983 26.9375
97.219788 88.003 26.7114
97.924286 88.023 26.4895
98.633881 88.044 26.2716
99.348625 88.066 26.0525
100.068542 88.090 25.8281
100.793686 88.115 25.5946
101.524078 88.140 25.3456
102.259766 88.165 25.0837
103.000778 88.188 24.8084
103.747162 88.209 24.5226
104.498962 88.228 24.2280
105.256203 88.244 23.9276
106.018929 88.257 23.6228
106.787186 88.267 23.3196
107.561012 88.273 23.0234
108.340446 88.276 22.7365
109.125526 88.279 22.4635
109.916290 88.280 22.2025
110.712791 88.280 21.9530
111.515060 88.280 21.7145
112.323143 88.280 21.4865
113.137085 88.280 21.2675
113.956924 88.280 21.0552
114.782700 88.280 20.8505
115.614464 88.280 20.6533
116.452255 88.280 20.4634
117.296112 88.281 20.2805
118.146095 88.282 20.1044
119.002228 88.283 19.9354
119.864563 88.286 19.7704
120.733154 88.291 19.6075
121.608040 88.297 19.4434
122.489258 88.304 19.2743
123.376869 88.312 19.1004
124.270905 88.320 18.9206
125.171425 88.328 18.7353
126.078468 88.336 18.5445
126.992081 88.343 18.3484
127.912323 88.349 18.1460
128.839233 88.354 17.9414
129.772842 88.357 17.7382
130.713242 88.358 17.5374
131.660431 88.359 17.3419
132.614502 88.360 17.1505
133.575485 88.360 16.9629
134.543427 88.360 16.7793
135.518387 88.360 16.6002
136.500412 88.360 16.4243
137.489548 88.360 16.2508
138.485855 88.360 16.0794
139.489380 88.360 15.9100
140.500168 88.360 15.7424
141.518295 88.360 15.5761
142.543793 88.360 15.4114
143.576721 88.360 15.2483
144.617142 88.360 15.0864
145.665100 88.360 14.9250
146.720642 88.360 14.7644
147.783844 88.360 14.6046
148.854752 88.360 14.4454
149.933411 88.360 14.2872
151.019897 88.360 14.1294
152.114243 88.360 13.9714
153.216522 88.360 13.8134
154.326797 88.360 13.6560
155.445114 88.360 13.4984
156.571533 88.360 13.3397
157.706116 88.360 13.1804
158.848923 88.360 13.0206
160.000000 88.360 12.8594
161.159424 88.360 12.6961
162.327255 88.360 12.5304
163.503540 88.360 12.3617
164.688354 88.360 12.1894
165.881760 88.359 12.0127
167.083801 88.358 11.8315
168.294571 88.357 11.6444
169.514099 88.354 11.4535
170.742462 88.349 11.2593
171.979736 88.342 11.0645
173.225967 88.334 10.8721
174.481232 88.324 10.6824
175.745605 88.313 10.4959
177.019119 88.300 10.3154
178.301880 88.284 10.1435
179.593933 88.267 9.9824
180.895340 88.250 9.8355
182.206177 88.232 9.7013
183.526520 88.214 9.5803
184.856430 88.197 9.4702
186.195984 88.181 9.3696
187.545227 88.166 9.2762
188.904266 88.152 9.1880
190.273132 88.139 9.1032
191.651932 88.128 9.0197
193.040726 88.117 8.9362
194.439575 88.107 8.8511
195.848572 88.097 8.7642
197.267761 88.087 8.6749
198.697250 88.077 8.5832
200.137085 88.067 8.4886
201.587372 88.057 8.3932
203.048157 88.045 8.2986
204.519531 88.032 8.2063
206.001556 88.019 8.1192
207.494324 88.006 8.0352
208.997925 87.993 7.9528
210.512405 87.979 7.8732
212.037857 87.965 7.7971
213.574371 87.950 7.7252
215.122025 87.935 7.6591
216.680893 87.920 7.5962
218.251053 87.906 7.5331
219.832581 87.891 7.4732
221.425583 87.874 7.4171
223.030121 87.855 7.3701
224.646286 87.836 7.3385
226.274170 87.817 7.3190
227.913849 87.800 7.3106
229.565399 87.783 7.3130
231.228928 87.767 7.3258
232.904510 87.752 7.3479
234.592224 87.740 7.3811
236.292191 87.730 7.4169
238.004456 87.725 7.4477
239.729126 87.721 7.4719
241.466309 87.718 7.4852
243.216080 87.715 7.4890
244.978516 87.713 7.4822
246.753738 87.711 7.4680
248.541809 87.706 7.4480
250.342850 87.700 7.4271
252.156937 87.693 7.4110
253.984161 87.685 7.3990
255.824646 87.677 7.3923
257.678467 87.669 7.3910
259.545685 87.661 7.3958
261.426483 87.654 7.4060
263.320862 87.648 7.4225
265.229004 87.643 7.4409
267.150970 87.640 7.4579
269.086853 87.639 7.4720
271.036774 87.638 7.4806
273.000824 87.637 7.4840
274.979095 87.637 7.4814
276.971710 87.637 7.4730
278.978760 87.636 7.4585
281.000336 87.635 7.4391
283.036591 87.633 7.4148
285.087585 87.630 7.3881
287.153442 87.626 7.3602
289.234283 87.620 7.3351
291.330200 87.612 7.3172
293.441284 87.604 7.3060
295.567688 87.596 7.3024
297.709503 87.589 7.3060
299.866821 87.581 7.3166
302.039795 87.574 7.3339
304.228485 87.568 7.3592
306.433044 87.563 7.3879
308.653595 87.560 7.4161
310.890228 87.558 7.4429
313.143066 87.557 7.4661
315.412231 87.556 7.4859
317.697845 87.556 7.5016
320.000000 87.556 7.5140
322.318848 87.556 7.5233
324.654510 87.556 7.5300
327.007080 87.556 7.5347
329.376709 87.556 7.5370
331.763519 87.556 7.5364
334.167603 87.556 7.5330
336.589142 87.556 7.5267
339.028198 87.556 7.5170
341.484924 87.555 7.5032
343.959473 87.554 7.4861
346.451935 87.553 7.4653
348.962463 87.550 7.4431
351.491211 87.545 7.4201
354.038239 87.539 7.4001
356.603760 87.532 7.3876
359.187866 87.524 7.3810
361.790680 87.516 7.3802
364.412354 87.508 7.3850
367.053040 87.500 7.3955
369.712860 87.492 7.4109
372.391968 87.484 7.4316
375.090454 87.477 7.4549
377.808533 87.471 7.4779
380.546265 87.464 7.5029
383.303864 87.457 7.5308
386.081451 87.449 7.5629
388.879150 87.441 7.6006
391.697144 87.433 7.6439
394.535522 87.425 7.6928
397.394501 87.418 7.7478
400.274170 87.411 7.8106
403.174744 87.405 7.8778
406.096313 87.401 7.9470
409.039062 87.399 8.0168
412.003113 87.397 8.0847
414.988647 87.396 8.1508
417.995850 87.395 8.2141
421.024811 87.395 8.2748
424.075714 87.395 8.3328
427.148743 87.395 8.3888
430.244049 87.395 8.4438
433.361786 87.395 8.4978
436.502106 87.395 8.5510
439.665161 87.395 8.6038
442.851166 87.395 8.6569
446.060242 87.395 8.7098
449.292572 87.395 8.7623
452.548340 87.395 8.8148
455.827698 87.395 8.8681
459.130798 87.395 8.9218
462.457855 87.395 8.9756
465.809021 87.395 9.0298
469.184448 87.395 9.0845
472.584381 87.395 9.1398
476.008911 87.395 9.1964
479.458252 87.395 9.2538
482.932617 87.395 9.3114
486.432159 87.395 9.3698
489.957031 87.395 9.4294
493.507477 87.395 9.4898
497.083618 87.395 9.5507
500.685699 87.395 9.6128
504.313873 87.395 9.6766
507.968323 87.395 9.7418
511.649292 87.395 9.8081
515.356934 87.395 9.8758
519.091370 87.395 9.9450
522.852966 87.395 10.0158
526.641724 87.395 10.0879
530.458008 87.395 10.1618
534.301941 87.395 10.2377
538.173706 87.395 10.3157
542.073547 87.395 10.3960
546.001648 87.395 10.4787
549.958191 87.395 10.5642
553.943420 87.395 10.6527
557.957520 87.395 10.7442
562.000671 87.395 10.8397
566.073181 87.395 10.9400
570.175171 87.395 11.0456
574.306885 87.396 11.1572
578.468567 87.397 11.2746
582.660400 87.399 11.3981
586.882568 87.402 11.5265
591.135376 87.407 11.6598
595.419006 87.413 11.7945
599.733643 87.421 11.9269
604.079590 87.430 12.0575
608.456970 87.439 12.1865
612.866089 87.450 12.3126
617.307190 87.462 12.4355
621.780457 87.476 12.5526
626.286133 87.490 12.6592
630.824463 87.504 12.7607
635.395691 87.516 12.8610
640.000000 87.528 12.9597
644.637695 87.542 13.0587
649.309021 87.557 13.1547
654.014160 87.572 13.2432
658.753418 87.586 13.3287
663.527039 87.600 13.4150
668.335205 87.614 13.4997
673.178284 87.629 13.5822
678.056396 87.645 13.6607
682.969849 87.660 13.7327
687.918945 87.676 13.8008
692.903870 87.691 13.8678
697.924927 87.707 13.9308
702.982422 87.723 13.9871
708.076477 87.739 14.0388
713.207520 87.753 14.0871
718.375732 87.767 14.1318
723.581360 87.782 14.1740
728.824707 87.797 14.2109
734.106079 87.811 14.2390
739.425720 87.824 14.2619
744.783936 87.835 14.2820
750.180908 87.844 14.2999
755.617065 87.853 14.3177
761.092529 87.861 14.3339
766.607727 87.867 14.3469
772.162903 87.872 14.3600
777.758301 87.874 14.3758
783.394287 87.874 14.3949
789.071045 87.873 14.4180
794.789001 87.870 14.4479
800.548340 87.863 14.4859
806.349487 87.854 14.5378
812.192627 87.842 14.6087
818.078125 87.828 14.7016
824.006226 87.813 14.8209
829.977295 87.798 14.9674
835.991699 87.782 15.1433
842.049622 87.767 15.3492
848.151428 87.754 15.5878
854.297485 87.743 15.8550
860.488098 87.737 16.1494
866.723572 87.735 16.4648
873.004211 87.739 16.7968
879.330322 87.748 17.1378
885.702332 87.764 17.4796
892.120483 87.786 17.8188
898.585144 87.811 18.1501
905.096680 87.841 18.4708
911.655396 87.875 18.7778
918.261597 87.913 19.0680
924.915710 87.953 19.3364
931.618042 87.994 19.5861
938.368896 88.035 19.8169
945.168762 88.077 20.0332
952.017822 88.118 20.2386
958.916504 88.159 20.4353
965.865234 88.201 20.6264
972.864319 88.243 20.8123
979.914062 88.285 20.9941
987.014954 88.327 21.1723
994.167236 88.370 21.3489
1001.371399 88.415 21.5204
1008.627747 88.462 21.6842
1015.936646 88.511 21.8394
1023.298584 88.560 21.9830
1030.713867 88.609 22.1186
1038.182739 88.657 22.2491
1045.705933 88.706 22.3725
1053.283447 88.757 22.4868
1060.916016 88.809 22.5946
1068.603882 88.858 22.6964
1076.347412 88.907 22.7966
1084.147095 88.957 22.9024
1092.003296 89.010 23.0057
1099.916382 89.065 23.1015
1107.886841 89.123 23.1877
1115.915039 89.181 23.2599
1124.001343 89.241 23.3188
1132.146362 89.301 23.3642
1140.350342 89.362 23.3949
1148.613770 89.424 23.4107
1156.937134 89.487 23.4090
1165.320801 89.550 23.3861
1173.765137 89.612 23.3452
1182.270752 89.671 23.2873
1190.838013 89.729 23.2163
1199.467285 89.785 23.1372
1208.159180 89.840 23.0474
1216.913940 89.894 22.9447
1225.732178 89.947 22.8334
1234.614380 89.995 22.7147
1243.560913 90.041 22.5954
1252.572266 90.084 22.4827
1261.648926 90.125 22.3774
1270.791382 90.166 22.2849
1280.000000 90.207 22.1993
1289.275391 90.250 22.1168
1298.618042 90.294 22.0363
1308.028320 90.338 21.9565
1317.506836 90.383 21.8754
1327.054077 90.430 21.7939
1336.670410 90.480 21.7014
1346.356567 90.533 21.5863
1356.112793 90.586 21.4515
1365.939697 90.635 21.2938
1375.837891 90.682 21.1207
1385.807739 90.726 20.9391
1395.849854 90.768 20.7488
1405.964844 90.807 20.5496
1416.152954 90.843 20.3487
1426.415039 90.874 20.1513
1436.751465 90.902 19.9627
1447.162720 90.928 19.7900
1457.649414 90.952 19.6326
1468.212158 90.976 19.4930
1478.851440 91.000 19.3685
1489.567871 91.025 19.2590
1500.361816 91.052 19.1584
1511.234131 91.081 19.0614
1522.185059 91.113 18.9654
1533.215454 91.145 18.8673
1544.325806 91.179 18.7635
1555.516602 91.215 18.6492
1566.788574 91.251 18.5255
1578.142090 91.284 18.3904
1589.578003 91.316 18.2486
1601.096680 91.347 18.1043
1612.698975 91.378 17.9576
1624.385254 91.406 17.8090
1636.156250 91.433 17.6616
1648.012451 91.458 17.5192
1659.954590 91.482 17.3805
1671.983398 91.506 17.2463
1684.099243 91.529 17.1145
1696.302856 91.552 16.9823
1708.594971 91.573 16.8536
1720.976196 91.591 16.7299
1733.447144 91.607 16.6155
1746.008423 91.622 16.5135
1758.660645 91.634 16.4283
1771.404663 91.643 16.3633
1784.240967 91.651 16.3251
1797.170288 91.658 16.3223
1810.193359 91.667 16.3518
1823.310791 91.679 16.4166
1836.523193 91.696 16.5076
1849.831421 91.718 16.6194
1863.236084 91.747 16.7434
1876.737793 91.782 16.8720
1890.337524 91.824 16.9975
1904.035645 91.871 17.1107
1917.833008 91.922 17.2077
1931.730469 91.977 17.2799
1945.728638 92.035 17.3308
1959.828125 92.091 17.3584
1974.029907 92.147 17.3700
1988.334473 92.202 17.3709
2002.742798 92.256 17.3660
2017.255493 92.308 17.3610
2031.873291 92.360 17.3590
2046.597168 92.412 17.3651
2061.427734 92.465 17.3789
2076.365479 92.520 17.4024
2091.411865 92.577 17.4329
2106.566895 92.637 17.4695
2121.832031 92.701 17.5078
2137.207764 92.769 17.5442
2152.694824 92.841 17.5749
2168.294189 92.916 17.5950
2184.006592 92.994 17.6040
2199.832764 93.074 17.5997
2215.773682 93.157 17.5821
2231.830078 93.242 17.5502
2248.002686 93.329 17.5052
2264.292725 93.416 17.4478
2280.700684 93.506 17.3793
2297.227539 93.597 17.3022
2313.874268 93.692 17.2134
2330.641602 93.789 17.1122
2347.530273 93.890 16.9945
2364.541504 93.993 16.8570
2381.676025 94.100 16.6968
2398.934570 94.208 16.5101
2416.318359 94.318 16.2970
2433.827881 94.429 16.0556
2451.464355 94.541 15.7882
2469.228760 94.651 15.4954
2487.121826 94.762 15.1804
2505.144531 94.871 14.8464
2523.297852 94.981 14.4936
2541.582764 95.093 14.1235
2560.000000 95.205 13.7358
2578.550781 95.316 13.3313
2597.236084 95.427 12.9090
2616.056641 95.541 12.4699
2635.013672 95.657 12.0080
2654.108154 95.774 11.5163
2673.340820 95.891 10.9993
2692.713135 96.006 10.4596
2712.225586 96.121 9.8957
2731.879395 96.240 9.3083
2751.675781 96.359 8.6929
2771.615479 96.478 8.0439
2791.699707 96.596 7.3651
2811.929688 96.713 6.6606
2832.305908 96.829 5.9245
2852.830078 96.949 5.1525
2873.502930 97.068 4.3446
2894.325439 97.183 3.4991
2915.298828 97.296 2.6171
2936.424316 97.410 1.7018
2957.702881 97.524 0.7453
2979.135742 97.635 -0.2610
3000.723633 97.744 -1.3123
3022.468262 97.845 -2.4068
3044.370117 97.942 -3.5436
3066.430908 98.035 -4.7227
3088.651611 98.123 -5.9414
3111.033203 98.201 -7.2009
3133.577148 98.271 -8.4898
3156.284180 98.331 -9.7989
3179.156006 98.384 -11.1237
3202.193359 98.429 -12.4580
3225.397949 98.467 -13.7976
3248.770508 98.495 -15.1371
3272.312500 98.517 -16.4740
3296.024902 98.534 -17.8023
3319.909180 98.547 -19.1279
3343.966797 98.556 -20.4536
3368.198486 98.560 -21.7817
3392.605713 98.559 -23.1144
3417.189941 98.554 -24.4538
3441.952393 98.545 -25.8039
3466.894287 98.529 -27.1609
3492.016846 98.505 -28.5244
3517.321289 98.473 -29.8877
3542.809326 98.434 -31.2442
3568.481934 98.387 -32.5938
3594.340576 98.334 -33.9367
3620.386719 98.273 -35.2657
3646.621582 98.202 -36.5743
3673.046387 98.123 -37.8609
3699.662842 98.040 -39.1210
3726.472168 97.950 -40.3573
3753.475586 97.855 -41.5732
3780.675049 97.752 -42.7627
3808.071289 97.641 -43.9229
3835.666016 97.523 -45.0487
3863.460938 97.397 -46.1363
3891.457275 97.264 -47.1792
3919.656250 97.122 -48.1728
3948.059814 96.972 -49.1068
3976.668945 96.813 -49.9733
4005.485596 96.648 -50.7604
4034.510986 96.475 -51.4567
4063.746582 96.297 -52.0534
4093.194336 96.116 -52.5378
4122.855469 95.934 -52.9095
4152.730957 95.755 -53.1638
4182.823730 95.580 -53.3006
4213.133789 95.411 -53.3144
4243.664062 95.253 -53.2167
4274.415527 95.112 -53.0100
4305.389648 94.990 -52.7166
4336.588379 94.888 -52.3533
4368.013184 94.810 -51.9401
4399.665527 94.757 -51.4921
4431.547363 94.730 -51.0402
4463.660156 94.733 -50.6108
4496.005371 94.763 -50.2317
4528.585449 94.816 -49.9334
4561.401367 94.890 -49.7347
4594.455078 94.983 -49.6613
4627.748535 95.089 -49.7233
4661.283203 95.204 -49.9422
4695.060547 95.321 -50.3098
4729.083008 95.436 -50.8313
4763.352051 95.545 -51.4876
4797.869141 95.643 -52.2692
4832.636719 95.730 -53.1523
4867.655762 95.802 -54.1172
4902.928711 95.861 -55.1429
4938.457520 95.906 -56.2049
4974.243652 95.940 -57.2938
5010.289062 95.964 -58.3922
5046.595703 95.981 -59.4984
5083.165527 95.992 -60.6018
5120.000000 95.999 -61.7116
5157.101562 96.007 -62.8286
5194.472168 96.014 -63.9674
5232.113281 96.021 -65.1396
5270.027344 96.026 -66.3538
5308.216309 96.030 -67.6215
5346.681641 96.029 -68.9454
5385.426270 96.022 -70.3335
5424.451172 96.006 -71.7808
5463.758789 95.979 -73.2902
5503.351562 95.939 -74.8463
5543.230957 95.882 -76.4409
5583.399414 95.808 -78.0551
5623.859375 95.717 -79.6715
5664.611816 95.609 -81.2772
5705.660156 95.484 -82.8564
5747.005859 95.344 -84.4002
5788.650879 95.188 -85.8937
5830.597656 95.020 -87.3367
5872.848633 94.843 -88.7225
5915.405762 94.656 -90.0553
5958.271484 94.461 -91.3370
6001.447266 94.257 -92.5668
6044.936523 94.044 -93.7473
6088.740234 93.821 -94.8705
6132.861816 93.588 -95.9358
6177.303223 93.343 -96.9243
6222.066406 93.084 -97.8217
6267.154297 92.812 -98.6123
6312.568359 92.531 -99.2793
6358.312012 92.241 -99.8107
6404.386719 91.943 -100.1924
6450.795898 91.641 -100.4143
6497.541016 91.336 -100.4603
6544.625000 91.034 -100.3341
6592.049805 90.743 -100.0288
6639.818359 90.464 -99.5598
6687.933594 90.204 -98.9315
6736.396973 89.966 -98.1702
6785.211426 89.757 -97.2952
6834.379883 89.577 -96.3322
6883.904785 89.427 -95.3027
6933.788574 89.311 -94.2385
6984.033691 89.233 -93.1669
7034.642578 89.190 -92.1231
7085.618652 89.183 -91.1445
7136.963867 89.207 -90.2522
7188.681152 89.258 -89.4760
7240.773438 89.333 -88.8279
7293.243164 89.428 -88.3262
7346.092773 89.541 -87.9823
7399.325684 89.670 -87.8113
7452.944336 89.809 -87.8205
7506.951172 89.956 -88.0219
7561.350098 90.105 -88.4165
7616.142578 90.253 -89.0100
7671.332031 90.397 -89.8004
7726.921875 90.534 -90.7894
7782.914551 90.660 -91.9704
7839.312500 90.771 -93.3412
7896.119629 90.864 -94.8923
7953.337891 90.935 -96.6186
8010.971191 90.982 -98.5046
8069.021973 91.000 -100.5414
8127.493164 90.985 -102.7043
8186.388672 90.935 -104.9781
8245.710938 90.845 -107.3255
8305.461914 90.711 -109.7203
8365.647461 90.532 -112.1124
8426.267578 90.304 -114.4639
8487.328125 90.026 -116.7105
8548.831055 89.694 -118.7978
8610.779297 89.313 -120.6579
8673.176758 88.882 -122.2194
8736.026367 88.409 -123.4384
8799.331055 87.899 -124.2532
8863.094727 87.365 -124.6461
8927.320312 86.812 -124.5748
8992.010742 86.257 -124.0520
9057.170898 85.712 -123.0570
9122.802734 85.196 -121.6485
9188.910156 84.727 -119.8538
9255.497070 84.315 -117.7471
9322.566406 83.971 -115.3850
9390.121094 83.703 -112.8487
9458.166016 83.526 -110.2077
9526.704102 83.434 -107.5549
9595.738281 83.433 -104.9828
9665.273438 83.510 -102.5623
9735.311523 83.660 -100.3805
9805.857422 83.867 -98.4814
9876.915039 84.120 -96.9334
9948.487305 84.403 -95.7494
10020.578125 84.703 -94.9732
10093.191406 85.006 -94.5801
10166.331055 85.300 -94.5718
10240.000000 85.579 -94.9123
10314.203125 85.836 -95.5807
10388.944336 86.066 -96.5339
10464.226562 86.262 -97.7364
10540.054688 86.424 -99.1421
10616.432617 86.550 -100.7076
10693.363281 86.638 -102.3907
10770.852539 86.686 -104.1505
10848.902344 86.695 -105.9423
10927.517578 86.665 -107.7225
11006.703125 86.599 -109.4469
11086.461914 86.497 -111.0666
11166.798828 86.367 -112.5522
11247.718750 86.213 -113.8553
11329.223633 86.048 -114.9836
11411.320312 85.879 -115.9147
11494.011719 85.718 -116.6922
11577.301758 85.575 -117.3326
11661.195312 85.455 -117.8950
11745.697266 85.362 -118.4228
11830.811523 85.298 -118.9808
11916.542969 85.268 -119.6332
12002.894531 85.260 -120.4261
12089.873047 85.267 -121.4222
12177.480469 85.279 -122.6354
12265.723633 85.289 -124.1023
12354.606445 85.287 -125.8180
12444.132812 85.262 -127.8023
12534.308594 85.205 -130.0174
12625.136719 85.105 -132.4547
12716.624023 84.954 -135.0460
12808.773438 84.745 -137.7543
12901.591797 84.471 -140.4757
12995.082031 84.120 -143.1339
13089.250000 83.694 -145.6072
13184.099609 83.188 -147.7736
13279.636719 82.611 -149.5579
13375.867188 81.969 -150.8562
13472.793945 81.270 -151.6332
13570.422852 80.518 -151.8311
13668.759766 79.728 -151.4134
13767.809570 78.906 -150.3401
13867.577148 78.075 -148.5645
13968.067383 77.246 -146.0148
14069.285156 76.451 -142.7258
14171.237305 75.717 -138.6771
14273.927734 75.067 -133.9636
14377.362305 74.521 -128.6266
14481.546875 74.122 -122.8090
14586.486328 73.910 -116.5743
14692.185547 73.909 -110.2030
14798.651367 74.180 -103.9341
14905.888672 74.652 -97.9654
15013.902344 75.281 -92.5445
15122.700195 76.045 -87.7601
15232.285156 76.922 -83.7481
15342.664062 77.875 -80.6102
15453.843750 78.873 -78.5116
15565.829102 79.879 -77.4003
15678.625000 80.848 -77.3129
15792.239258 81.772 -78.1412
15906.675781 82.627 -79.8059
16021.942383 83.410 -82.2557
16138.043945 84.114 -85.4474
16254.986328 84.733 -89.2770
16372.777344 85.257 -93.6713
16491.421875 85.687 -98.4963
16610.923828 86.018 -103.6251
16731.294922 86.258 -108.9606
16852.535156 86.412 -114.3759
16974.656250 86.489 -119.8329
17097.662109 86.498 -125.2518
17221.558594 86.441 -130.6305
17346.353516 86.322 -135.9391
17472.052734 86.144 -141.1814
17598.662109 85.913 -146.3519
17726.189453 85.625 -151.4496
17854.640625 85.282 -156.4869
17984.021484 84.877 -161.4190
18114.341797 84.409 -166.2421
18245.605469 83.868 -170.8446
18377.820312 83.246 -175.1634
18510.994141 82.542 -179.0480
18645.132812 81.752 177.6337
18780.242188 80.882 175.0022
18916.332031 79.928 173.2165
19053.408203 78.911 172.2917
19191.476562 77.836 172.3320
19330.546875 76.746 173.2279
19470.623047 75.670 174.9660
19611.714844 74.653 177.3568
19753.830078 73.739 -179.7274
19896.974609 72.950 -176.4873
