* Measurement data measured by REW V5.20.13
* Source: C:\Users\kurin\Desktop\Targets and Curves\Resolve\Img\Files\Grado R2Se_SPL.txt
* Format: Comma/Tab/Space delimited data
* Dated: Aug 14, 2023 4:19:52 PM
* REW Settings:
*  C-weighting compensation: Off
*  Target level: 75.0 dB
* Note: ; Measurement imported from C:\Users\kurin\Desktop\Targets and Curves\Resolve\Img\Files\Grado R2Se_SPL.txt Format: Comma/Tab/Space delimited data 623 values loaded, 5 Hz to 39,792 Hz log spaced 
* Measurement: Grado R2Se_SPL
* Smoothing: 1/48 octave
* Frequency Step: 1/96 octave
* Start Frequency: 5.000 Hz
*
* Freq(Hz) SPL(dB) Phase(degrees)
5.000000 57.524 90.8690
5.036232 57.554 90.8545
5.072727 57.586 90.8390
5.109486 57.623 90.8211
5.146511 57.665 90.8010
5.183805 57.717 90.7776
5.221369 57.773 90.7530
5.259205 57.831 90.7297
5.297316 57.891 90.7060
5.335702 57.956 90.6806
5.374367 58.022 90.6550
5.413311 58.087 90.6304
5.452538 58.152 90.6060
5.492050 58.217 90.5815
5.531847 58.283 90.5570
5.571934 58.348 90.5326
5.612310 58.414 90.5080
5.652979 58.480 90.4831
5.693943 58.545 90.4580
5.735204 58.610 90.4331
5.776763 58.675 90.4080
5.818624 58.740 90.3826
5.860788 58.806 90.3570
5.903258 58.872 90.3311
5.946035 58.937 90.3050
5.989123 59.002 90.2791
6.032523 59.067 90.2530
6.076237 59.132 90.2266
6.120268 59.198 90.2000
6.164618 59.263 90.1736
6.209289 59.329 90.1470
6.254284 59.395 90.1201
6.299605 59.460 90.0930
6.345255 59.525 90.0656
6.391235 59.590 90.0380
6.437549 59.655 90.0101
6.484198 59.721 89.9820
6.531185 59.787 89.9541
6.578513 59.852 89.9260
6.626183 59.917 89.8976
6.674199 59.982 89.8690
6.722563 60.047 89.8401
6.771278 60.113 89.8110
6.820345 60.178 89.7821
6.869768 60.244 89.7530
6.919549 60.310 89.7237
6.969691 60.375 89.6940
7.020196 60.440 89.6636
7.071068 60.505 89.6330
7.122308 60.570 89.6025
7.173919 60.636 89.5720
7.225904 60.702 89.5416
7.278266 60.767 89.5110
7.331007 60.832 89.4796
7.384131 60.897 89.4480
7.437639 60.962 89.4166
7.491535 61.028 89.3850
7.545822 61.093 89.3532
7.600502 61.159 89.3210
7.655579 61.225 89.2881
7.711054 61.290 89.2550
7.766932 61.355 89.2221
7.823214 61.420 89.1890
7.879904 61.485 89.1556
7.937005 61.551 89.1220
7.994520 61.616 89.0881
8.052452 61.682 89.0540
8.110803 61.748 89.0201
8.169578 61.813 88.9860
8.228777 61.878 88.9512
8.288406 61.943 88.9160
8.348468 62.008 88.8806
8.408964 62.074 88.8450
8.469899 62.140 88.8091
8.531276 62.205 88.7730
8.593097 62.270 88.7366
8.655366 62.335 88.7000
8.718086 62.400 88.6631
8.781260 62.466 88.6260
8.844893 62.531 88.5886
8.908987 62.597 88.5510
8.973545 62.663 88.5131
9.038571 62.728 88.4750
9.104069 62.793 88.4366
9.170040 62.858 88.3980
9.236490 62.923 88.3591
9.303422 62.989 88.3200
9.370838 63.055 88.2806
9.438744 63.120 88.2410
9.507140 63.185 88.2012
9.576033 63.250 88.1610
9.645425 63.315 88.1202
9.715320 63.381 88.0790
9.785721 63.446 88.0376
9.856632 63.512 87.9960
9.928058 63.578 87.9546
10.000000 63.643 87.9130
10.072464 63.708 87.8708
10.145453 63.773 87.8280
10.218971 63.838 87.7847
10.293022 63.904 87.7410
10.367610 63.970 87.6976
10.442738 64.035 87.6540
10.518411 64.100 87.6097
10.594631 64.165 87.5650
10.671404 64.230 87.5201
10.748734 64.296 87.4750
10.826623 64.361 87.4297
10.905077 64.427 87.3840
10.984100 64.493 87.3377
11.063695 64.558 87.2910
11.143867 64.623 87.2441
11.224621 64.688 87.1970
11.305959 64.753 87.1497
11.387886 64.819 87.1020
11.470407 64.885 87.0537
11.553527 64.950 87.0050
11.637249 65.015 86.9562
11.721577 65.080 86.9070
11.806517 65.145 86.8572
11.892071 65.211 86.8070
11.978246 65.276 86.7567
12.065045 65.342 86.7060
12.152473 65.408 86.6552
12.240536 65.473 86.6040
12.329235 65.538 86.5522
12.418578 65.603 86.5000
12.508568 65.668 86.4477
12.599211 65.734 86.3950
12.690510 65.800 86.3418
12.782471 65.865 86.2881
12.875097 65.930 86.2337
12.968395 65.995 86.1790
13.062370 66.060 86.1242
13.157025 66.126 86.0690
13.252366 66.191 86.0137
13.348398 66.257 85.9580
13.445127 66.323 85.9018
13.542556 66.388 85.8451
13.640691 66.453 85.7878
13.739536 66.518 85.7300
13.839099 66.583 85.6717
13.939383 66.649 85.6131
14.040393 66.714 85.5542
14.142136 66.780 85.4950
14.244616 66.846 85.4352
14.347837 66.911 85.3750
14.451808 66.976 85.3147
14.556532 67.041 85.2540
14.662014 67.106 85.1929
14.768262 67.172 85.1311
14.875278 67.237 85.0683
14.983070 67.303 85.0051
15.091644 67.368 84.9417
15.201005 67.433 84.8780
15.311157 67.498 84.8143
15.422109 67.564 84.7500
15.533863 67.629 84.6849
15.646428 67.695 84.6190
15.759809 67.761 84.5527
15.874010 67.826 84.4860
15.989040 67.891 84.4192
16.104904 67.956 84.3521
16.221605 68.021 84.2843
16.339155 68.087 84.2161
16.457554 68.152 84.1473
16.576813 68.218 84.0781
16.696936 68.283 84.0082
16.817928 68.348 83.9380
16.939798 68.413 83.8678
17.062551 68.479 83.7971
17.186193 68.544 83.7258
17.310732 68.610 83.6540
17.436172 68.676 83.5818
17.562521 68.741 83.5091
17.689787 68.806 83.4358
17.817974 68.871 83.3621
17.947090 68.936 83.2882
18.077143 69.002 83.2140
18.208138 69.068 83.1397
18.340080 69.133 83.0651
18.472980 69.198 82.9897
18.606844 69.263 82.9140
18.741676 69.328 82.8387
18.877487 69.394 82.7631
19.014280 69.459 82.6867
19.152065 69.525 82.6101
19.290850 69.590 82.5335
19.430639 69.656 82.4571
19.571442 69.721 82.3809
19.713264 69.786 82.3051
19.856115 69.851 82.2293
20.000000 69.917 82.1541
20.144928 69.982 82.0794
20.290907 70.048 82.0061
20.437943 70.113 81.9347
20.586044 70.179 81.8650
20.735220 70.245 81.7972
20.885475 70.312 81.7311
21.036821 70.379 81.6668
21.189262 70.447 81.6031
21.342808 70.515 81.5390
21.497467 70.585 81.4741
21.653246 70.655 81.4080
21.810154 70.727 81.3401
21.968201 70.799 81.2708
22.127390 70.873 81.1971
22.287735 70.948 81.1166
22.449242 71.025 81.0281
22.611917 71.103 80.9300
22.775772 71.181 80.8211
22.940815 71.260 80.7002
23.107054 71.339 80.5652
23.274498 71.418 80.4137
23.443153 71.497 80.2452
23.613033 71.575 80.0568
23.784142 71.651 79.8532
23.956491 71.723 79.6365
24.130091 71.791 79.4113
24.304947 71.857 79.1815
24.481071 71.919 78.9503
24.658470 71.977 78.7190
24.837156 72.031 78.4973
25.017136 72.080 78.2945
25.198421 72.126 78.1132
25.381020 72.172 77.9598
25.564941 72.217 77.8311
25.750195 72.263 77.7260
25.936790 72.311 77.6451
26.124741 72.360 77.5912
26.314051 72.412 77.5560
26.504732 72.471 77.5363
26.696796 72.536 77.5200
26.890253 72.606 77.4955
27.085112 72.680 77.4591
27.281382 72.757 77.4041
27.479073 72.836 77.3281
27.678198 72.918 77.2265
27.878765 73.000 77.0992
28.080786 73.082 76.9419
28.284271 73.161 76.7623
28.489231 73.236 76.5635
28.695675 73.307 76.3553
28.903616 73.374 76.1472
29.113064 73.438 75.9423
29.324028 73.500 75.7472
29.536524 73.562 75.5612
29.750557 73.623 75.3864
29.966141 73.685 75.2202
30.183289 73.748 75.0618
30.402010 73.812 74.9072
30.622314 73.878 74.7536
30.844217 73.946 74.5962
31.067726 74.016 74.4292
31.292856 74.086 74.2523
31.519617 74.156 74.0619
31.748020 74.225 73.8613
31.978081 74.293 73.6520
32.209808 74.361 73.4353
32.443211 74.427 73.2123
32.678310 74.491 72.9843
32.915108 74.554 72.7520
33.153625 74.616 72.5183
33.393871 74.675 72.2865
33.635857 74.734 72.0564
33.879597 74.792 71.8286
34.125103 74.850 71.6033
34.372387 74.906 71.3802
34.621464 74.962 71.1613
34.872345 75.017 70.9492
35.125042 75.071 70.7422
35.379574 75.126 70.5406
35.635948 75.181 70.3422
35.894180 75.237 70.1449
36.154285 75.293 69.9493
36.416275 75.349 69.7555
36.680161 75.405 69.5633
36.945961 75.461 69.3729
37.213688 75.518 69.1833
37.483353 75.575 68.9942
37.754974 75.633 68.8043
38.028561 75.692 68.6123
38.304131 75.751 68.4183
38.581699 75.810 68.2215
38.861279 75.869 68.0223
39.142883 75.929 67.8218
39.426529 75.989 67.6173
39.712231 76.050 67.4059
40.000000 76.112 67.1893
40.289856 76.172 66.9686
40.581814 76.232 66.7433
40.875885 76.293 66.5135
41.172089 76.354 66.2784
41.470440 76.414 66.0374
41.770950 76.475 65.7904
42.073643 76.536 65.5374
42.378525 76.596 65.2774
42.685616 76.656 65.0089
42.994934 76.715 64.7334
43.306492 76.772 64.4518
43.620308 76.829 64.1644
43.936401 76.885 63.8719
44.254780 76.940 63.5745
44.575470 76.993 63.2716
44.898483 77.044 62.9665
45.223835 77.093 62.6623
45.551544 77.142 62.3584
45.881630 77.190 62.0554
46.214108 77.238 61.7525
46.548996 77.284 61.4486
46.886307 77.329 61.1445
47.226067 77.373 60.8402
47.568283 77.416 60.5365
47.912983 77.457 60.2334
48.260181 77.497 59.9325
48.609894 77.535 59.6355
48.962143 77.573 59.3424
49.316940 77.610 59.0537
49.674313 77.645 58.7704
50.034271 77.679 58.4937
50.396843 77.712 58.2244
50.762039 77.745 57.9642
51.129883 77.777 57.7124
51.500389 77.809 57.4687
51.873581 77.840 57.2344
52.249481 77.871 57.0116
52.628101 77.902 56.7983
53.009464 77.935 56.5933
53.393593 77.969 56.3963
53.780506 78.002 56.2071
54.170223 78.037 56.0243
54.562763 78.074 55.8484
54.958145 78.114 55.6733
55.356396 78.156 55.4927
55.757530 78.200 55.3073
56.161572 78.243 55.1149
56.568542 78.287 54.9173
56.978462 78.332 54.7158
57.391350 78.377 54.5094
57.807232 78.422 54.2971
58.226128 78.467 54.0804
58.648056 78.512 53.8613
59.073048 78.557 53.6374
59.501114 78.604 53.4068
59.932281 78.651 53.1694
60.366577 78.697 52.9250
60.804020 78.744 52.6724
61.244629 78.791 52.4108
61.688435 78.838 52.1395
62.135452 78.884 51.8557
62.585712 78.928 51.5645
63.039234 78.969 51.2700
63.496040 79.009 50.9725
63.956161 79.049 50.6738
64.419617 79.088 50.3735
64.886421 79.125 50.0713
65.356621 79.161 49.7685
65.830215 79.196 49.4664
66.307251 79.230 49.1646
66.787743 79.263 48.8623
67.271713 79.295 48.5616
67.759193 79.325 48.2646
68.250206 79.355 47.9705
68.744774 79.385 47.6791
69.242928 79.415 47.3905
69.744690 79.443 47.1049
70.250084 79.470 46.8225
70.759148 79.498 46.5451
71.271896 79.527 46.2685
71.788361 79.557 45.9890
72.308571 79.586 45.7065
72.832550 79.614 45.4192
73.360321 79.642 45.1285
73.891922 79.669 44.8354
74.427376 79.694 44.5406
74.966705 79.718 44.2443
75.509949 79.741 43.9485
76.057121 79.762 43.6542
76.608261 79.782 43.3646
77.163399 79.800 43.0826
77.722557 79.816 42.8095
78.285767 79.832 42.5489
78.853058 79.848 42.2975
79.424461 79.865 42.0533
80.000000 79.882 41.8165
80.579712 79.899 41.5877
81.163628 79.917 41.3634
81.751770 79.938 41.1410
82.344177 79.960 40.9175
82.940880 79.982 40.6884
83.541901 80.004 40.4555
84.147285 80.026 40.2192
84.757050 80.049 39.9785
85.371231 80.071 39.7315
85.989868 80.093 39.4805
86.612984 80.113 39.2269
87.240616 80.132 38.9715
87.872803 80.150 38.7153
88.509560 80.168 38.4595
89.150940 80.184 38.2052
89.796967 80.199 37.9535
90.447670 80.214 37.7066
91.103088 80.228 37.4625
91.763260 80.243 37.2194
92.428215 80.257 36.9795
93.097992 80.269 36.7447
93.772614 80.280 36.5145
94.452133 80.293 36.2900
95.136566 80.307 36.0675
95.825966 80.321 35.8421
96.520363 80.334 35.6175
97.219788 80.345 35.3962
97.924286 80.357 35.1765
98.633881 80.370 34.9583
99.348625 80.384 34.7385
100.068542 80.397 34.5125
100.793686 80.409 34.2846
101.524078 80.418 34.0571
102.259766 80.427 33.8316
103.000778 80.436 33.6101
103.747162 80.444 33.3924
104.498962 80.451 33.1775
105.256203 80.456 32.9694
106.018929 80.460 32.7723
106.787186 80.464 32.5844
107.561012 80.470 32.4062
108.340446 80.477 32.2343
109.125526 80.485 32.0652
109.916290 80.493 31.8983
110.712791 80.502 31.7330
111.515060 80.512 31.5664
112.323143 80.524 31.3960
113.137085 80.537 31.2194
113.956924 80.550 31.0318
114.782700 80.562 30.8375
115.614464 80.572 30.6390
116.452255 80.581 30.4374
117.296112 80.589 30.2345
118.146095 80.597 30.0304
119.002228 80.603 29.8246
119.864563 80.608 29.6206
120.733154 80.611 29.4217
121.608040 80.612 29.2284
122.489258 80.613 29.0422
123.376869 80.613 28.8624
124.270905 80.613 28.6889
125.171425 80.613 28.5213
126.078468 80.613 28.3598
126.992081 80.613 28.2033
127.912323 80.613 28.0508
128.839233 80.613 27.9023
129.772842 80.613 27.7575
130.713242 80.613 27.6163
131.660431 80.613 27.4782
132.614502 80.613 27.3434
133.575485 80.613 27.2118
134.543427 80.613 27.0832
135.518387 80.613 26.9578
136.500412 80.613 26.8352
137.489548 80.613 26.7150
138.485855 80.613 26.5973
139.489380 80.613 26.4824
140.500168 80.613 26.3702
141.518295 80.613 26.2609
142.543793 80.613 26.1543
143.576721 80.613 26.0500
144.617142 80.613 25.9482
145.665100 80.613 25.8490
146.720642 80.613 25.7523
147.783844 80.613 25.6579
148.854752 80.613 25.5662
149.933411 80.613 25.4774
151.019897 80.613 25.3912
152.114243 80.613 25.3073
153.216522 80.613 25.2262
154.326797 80.613 25.1481
155.445114 80.613 25.0732
156.571533 80.613 25.0017
157.706116 80.613 24.9342
158.848923 80.613 24.8710
160.000000 80.613 24.8121
161.159424 80.614 24.7578
162.327255 80.615 24.7081
163.503540 80.617 24.6642
164.688354 80.620 24.6231
165.881760 80.624 24.5833
167.083801 80.630 24.5421
168.294571 80.637 24.4959
169.514099 80.645 24.4451
170.742462 80.652 24.3888
171.979736 80.659 24.3282
173.225967 80.667 24.2638
174.481232 80.674 24.1962
175.745605 80.680 24.1247
177.019119 80.686 24.0532
178.301880 80.690 23.9855
179.593933 80.694 23.9202
180.895340 80.700 23.8583
182.206177 80.707 23.7962
183.526520 80.714 23.7302
184.856430 80.721 23.6602
186.195984 80.728 23.5850
187.545227 80.736 23.5042
188.904266 80.744 23.4170
190.273132 80.751 23.3232
191.651932 80.757 23.2211
193.040726 80.761 23.1143
194.439575 80.763 23.0059
195.848572 80.764 22.8963
197.267761 80.764 22.7870
198.697250 80.763 22.6783
200.137085 80.760 22.5701
201.587372 80.756 22.4642
203.048157 80.749 22.3624
204.519531 80.741 22.2653
206.001556 80.733 22.1738
207.494324 80.723 22.0892
208.997925 80.711 22.0121
210.512405 80.697 21.9451
212.037857 80.682 21.8919
213.574371 80.667 21.8501
215.122025 80.652 21.8186
216.680893 80.637 21.7970
218.251053 80.621 21.7850
219.832581 80.605 21.7820
221.425583 80.590 21.7882
223.030121 80.575 21.8020
224.646286 80.560 21.8211
226.274170 80.544 21.8469
227.913849 80.528 21.8802
229.565399 80.511 21.9209
231.228928 80.494 21.9689
232.904510 80.477 22.0248
234.592224 80.459 22.0887
236.292191 80.439 22.1628
238.004456 80.419 22.2483
239.729126 80.397 22.3477
241.466309 80.373 22.4621
243.216080 80.348 22.5966
244.978516 80.321 22.7556
246.753738 80.293 22.9424
248.541809 80.264 23.1608
250.342850 80.235 23.4142
252.156937 80.206 23.7064
253.984161 80.178 24.0410
255.824646 80.152 24.4236
257.678467 80.130 24.8529
259.545685 80.113 25.3314
261.426483 80.103 25.8536
263.320862 80.102 26.4168
265.229004 80.111 27.0143
267.150970 80.130 27.6424
269.086853 80.163 28.2891
271.036774 80.211 28.9462
273.000824 80.274 29.5981
274.979095 80.353 30.2335
276.971710 80.448 30.8313
278.978760 80.561 31.3728
281.000336 80.689 31.8389
283.036591 80.829 32.2066
285.087585 80.979 32.4684
287.153442 81.133 32.6099
289.234283 81.290 32.6281
291.330200 81.446 32.5118
293.441284 81.596 32.2718
295.567688 81.734 31.9061
297.709503 81.858 31.4423
299.866821 81.964 30.9000
302.039795 82.053 30.3018
304.228485 82.125 29.6709
306.433044 82.181 29.0258
308.653595 82.220 28.3882
310.890228 82.244 27.7717
313.143066 82.255 27.1964
315.412231 82.257 26.6644
317.697845 82.253 26.1859
320.000000 82.243 25.7562
322.318848 82.230 25.3762
324.654510 82.215 25.0400
327.007080 82.200 24.7439
329.376709 82.184 24.4828
331.763519 82.169 24.2511
334.167603 82.154 24.0466
336.589142 82.140 23.8665
339.028198 82.128 23.7064
341.484924 82.118 23.5618
343.959473 82.108 23.4303
346.451935 82.098 23.3081
348.962463 82.089 23.1953
351.491211 82.081 23.0912
354.038239 82.073 22.9953
356.603760 82.065 22.9059
359.187866 82.057 22.8252
361.790680 82.048 22.7549
364.412354 82.040 22.6942
367.053040 82.032 22.6424
369.712860 82.025 22.6001
372.391968 82.017 22.5678
375.090454 82.010 22.5451
377.808533 82.004 22.5326
380.546265 82.000 22.5270
383.303864 81.998 22.5251
386.081451 81.996 22.5260
388.879150 81.995 22.5274
391.697144 81.994 22.5300
394.535522 81.994 22.5334
397.394501 81.994 22.5380
400.274170 81.994 22.5439
403.174744 81.994 22.5520
406.096313 81.994 22.5632
409.039062 81.994 22.5779
412.003113 81.994 22.5967
414.988647 81.994 22.6199
417.995850 81.994 22.6481
421.024811 81.994 22.6819
424.075714 81.995 22.7224
427.148743 81.996 22.7688
430.244049 81.997 22.8216
433.361786 82.000 22.8788
436.502106 82.004 22.9398
439.665161 82.010 23.0018
442.851166 82.017 23.0615
446.060242 82.025 23.1198
449.292572 82.033 23.1764
452.548340 82.041 23.2318
455.827698 82.049 23.2869
459.130798 82.058 23.3408
462.457855 82.067 23.3923
465.809021 82.076 23.4438
469.184448 82.084 23.4975
472.584381 82.093 23.5528
476.008911 82.102 23.6103
479.458252 82.111 23.6698
482.932617 82.120 23.7321
486.432159 82.130 23.7958
489.957031 82.141 23.8601
493.507477 82.153 23.9238
497.083618 82.165 23.9844
500.685699 82.176 24.0448
504.313873 82.187 24.1072
507.968323 82.198 24.1708
511.649292 82.211 24.2362
515.356934 82.224 24.3008
519.091370 82.238 24.3611
522.852966 82.251 24.4208
526.641724 82.262 24.4829
530.458008 82.274 24.5468
534.301941 82.287 24.6138
538.173706 82.301 24.6818
542.073547 82.315 24.7473
546.001648 82.328 24.8148
549.958191 82.339 24.8875
553.943420 82.351 24.9647
557.957520 82.365 25.0483
562.000671 82.381 25.1337
566.073181 82.397 25.2165
570.175171 82.414 25.2987
574.306885 82.431 25.3817
578.468567 82.449 25.4627
582.660400 82.469 25.5399
586.882568 82.490 25.6118
591.135376 82.510 25.6746
595.419006 82.530 25.7328
599.733643 82.548 25.7894
604.079590 82.566 25.8448
608.456970 82.585 25.9006
612.866089 82.603 25.9568
617.307190 82.620 26.0135
621.780457 82.636 26.0728
626.286133 82.652 26.1377
630.824463 82.669 26.2058
635.395691 82.687 26.2763
640.000000 82.705 26.3478
644.637695 82.723 26.4184
649.309021 82.742 26.4888
654.014160 82.761 26.5588
658.753418 82.780 26.6288
663.527039 82.799 26.6987
668.335205 82.819 26.7688
673.178284 82.837 26.8388
678.056396 82.856 26.9098
682.969849 82.876 26.9825
687.918945 82.896 27.0567
692.903870 82.915 27.1323
697.924927 82.935 27.2097
702.982422 82.955 27.2903
708.076477 82.975 27.3717
713.207520 82.997 27.4521
718.375732 83.019 27.5317
723.581360 83.041 27.6098
728.824707 83.064 27.6867
734.106079 83.087 27.7630
739.425720 83.110 27.8377
744.783936 83.134 27.9097
750.180908 83.157 27.9807
755.617065 83.179 28.0523
761.092529 83.201 28.1237
766.607727 83.225 28.1950
772.162903 83.249 28.2657
777.758301 83.272 28.3352
783.394287 83.294 28.4048
789.071045 83.317 28.4762
794.789001 83.340 28.5477
800.548340 83.363 28.6171
806.349487 83.387 28.6868
812.192627 83.409 28.7587
818.078125 83.432 28.8317
824.006226 83.455 28.9052
829.977295 83.479 28.9787
835.991699 83.502 29.0517
842.049622 83.525 29.1247
848.151428 83.548 29.1989
854.297485 83.571 29.2727
860.488098 83.594 29.3445
866.723572 83.616 29.4167
873.004211 83.637 29.4904
879.330322 83.657 29.5677
885.702332 83.676 29.6503
892.120483 83.695 29.7407
898.585144 83.712 29.8417
905.096680 83.729 29.9546
911.655396 83.747 30.0828
918.261597 83.766 30.2225
924.915710 83.788 30.3719
931.618042 83.811 30.5284
938.368896 83.835 30.6901
945.168762 83.862 30.8534
952.017822 83.892 31.0155
958.916504 83.925 31.1724
965.865234 83.959 31.3190
972.864319 83.994 31.4555
979.914062 84.029 31.5794
987.014954 84.063 31.6946
994.167236 84.095 31.8024
1001.371399 84.126 31.9076
1008.627747 84.155 32.0148
1015.936646 84.183 32.1265
1023.298584 84.209 32.2457
1030.713867 84.234 32.3756
1038.182739 84.258 32.5204
1045.705933 84.282 32.6793
1053.283447 84.307 32.8536
1060.916016 84.334 33.0402
1068.603882 84.362 33.2366
1076.347412 84.392 33.4421
1084.147095 84.423 33.6562
1092.003296 84.456 33.8763
1099.916382 84.492 34.0993
1107.886841 84.529 34.3260
1115.915039 84.567 34.5557
1124.001343 84.606 34.7891
1132.146362 84.646 35.0274
1140.350342 84.689 35.2691
1148.613770 84.734 35.5133
1156.937134 84.780 35.7600
1165.320801 84.827 36.0086
1173.765137 84.876 36.2589
1182.270752 84.927 36.5112
1190.838013 84.980 36.7630
1199.467285 85.035 37.0113
1208.159180 85.091 37.2580
1216.913940 85.147 37.5036
1225.732178 85.205 37.7491
1234.614380 85.264 37.9957
1243.560913 85.324 38.2441
1252.572266 85.384 38.4945
1261.648926 85.446 38.7490
1270.791382 85.509 39.0100
1280.000000 85.574 39.2760
1289.275391 85.641 39.5465
1298.618042 85.711 39.8209
1308.028320 85.782 40.0985
1317.506836 85.857 40.3788
1327.054077 85.934 40.6615
1336.670410 86.014 40.9449
1346.356567 86.096 41.2279
1356.112793 86.182 41.5090
1365.939697 86.271 41.7865
1375.837891 86.363 42.0599
1385.807739 86.456 42.3280
1395.849854 86.553 42.5910
1405.964844 86.652 42.8487
1416.152954 86.754 43.1011
1426.415039 86.857 43.3472
1436.751465 86.963 43.5901
1447.162720 87.070 43.8323
1457.649414 87.181 44.0740
1468.212158 87.295 44.3182
1478.851440 87.414 44.5591
1489.567871 87.538 44.7940
1500.361816 87.667 45.0172
1511.234131 87.803 45.2231
1522.185059 87.942 45.4082
1533.215454 88.086 45.5662
1544.325806 88.231 45.7005
1555.516602 88.378 45.8123
1566.788574 88.526 45.9017
1578.142090 88.678 45.9686
1589.578003 88.832 46.0148
1601.096680 88.987 46.0407
1612.698975 89.142 46.0510
1624.385254 89.300 46.0529
1636.156250 89.460 46.0401
1648.012451 89.627 46.0099
1659.954590 89.796 45.9582
1671.983398 89.967 45.8782
1684.099243 90.140 45.7755
1696.302856 90.314 45.6530
1708.594971 90.490 45.5117
1720.976196 90.669 45.3529
1733.447144 90.851 45.1778
1746.008423 91.035 44.9871
1758.660645 91.222 44.7839
1771.404663 91.413 44.5734
1784.240967 91.611 44.3490
1797.170288 91.818 44.1110
1810.193359 92.034 43.8431
1823.310791 92.263 43.5318
1836.523193 92.501 43.1686
1849.831421 92.746 42.7452
1863.236084 92.999 42.2474
1876.737793 93.264 41.6627
1890.337524 93.536 40.9772
1904.035645 93.810 40.1717
1917.833008 94.085 39.2509
1931.730469 94.357 38.2144
1945.728638 94.626 37.0592
1959.828125 94.894 35.7820
1974.029907 95.156 34.3832
1988.334473 95.408 32.8576
2002.742798 95.649 31.2188
2017.255493 95.876 29.4783
2031.873291 96.089 27.6375
2046.597168 96.291 25.6974
2061.427734 96.475 23.6702
2076.365479 96.638 21.5608
2091.411865 96.779 19.3901
2106.566895 96.901 17.1769
2121.832031 97.002 14.9334
2137.207764 97.081 12.6724
2152.694824 97.139 10.4109
2168.294189 97.176 8.1668
2184.006592 97.194 5.9500
2199.832764 97.194 3.7735
2215.773682 97.177 1.6466
2231.830078 97.144 -0.4186
2248.002686 97.097 -2.4168
2264.292725 97.039 -4.3377
2280.700684 96.971 -6.1852
2297.227539 96.898 -7.9593
2313.874268 96.817 -9.6622
2330.641602 96.731 -11.2941
2347.530273 96.640 -12.8614
2364.541504 96.550 -14.3680
2381.676025 96.458 -15.8215
2398.934570 96.364 -17.2314
2416.318359 96.268 -18.5960
2433.827881 96.170 -19.9166
2451.464355 96.069 -21.1938
2469.228760 95.969 -22.4282
2487.121826 95.866 -23.6210
2505.144531 95.762 -24.7742
2523.297852 95.657 -25.8860
2541.582764 95.552 -26.9533
2560.000000 95.447 -27.9825
2578.550781 95.347 -28.9779
2597.236084 95.247 -29.9436
2616.056641 95.149 -30.8849
2635.013672 95.051 -31.8032
2654.108154 94.957 -32.6998
2673.340820 94.865 -33.5802
2692.713135 94.775 -34.4500
2712.225586 94.686 -35.3100
2731.879395 94.599 -36.1614
2751.675781 94.512 -37.0081
2771.615479 94.429 -37.8530
2791.699707 94.346 -38.7002
2811.929688 94.264 -39.5548
2832.305908 94.182 -40.4169
2852.830078 94.100 -41.2866
2873.502930 94.016 -42.1691
2894.325439 93.933 -43.0693
2915.298828 93.848 -43.9888
2936.424316 93.759 -44.9309
2957.702881 93.665 -45.8947
2979.135742 93.568 -46.8800
3000.723633 93.463 -47.8885
3022.468262 93.352 -48.9262
3044.370117 93.230 -49.9811
3066.430908 93.092 -51.0497
3088.651611 92.939 -52.1143
3111.033203 92.770 -53.1650
3133.577148 92.582 -54.1743
3156.284180 92.371 -55.1280
3179.156006 92.135 -55.9753
3202.193359 91.871 -56.6716
3225.397949 91.586 -57.1841
3248.770508 91.287 -57.4660
3272.312500 90.979 -57.5143
3296.024902 90.667 -57.3055
3319.909180 90.359 -56.8546
3343.966797 90.066 -56.1540
3368.198486 89.795 -55.2487
3392.605713 89.561 -54.1651
3417.189941 89.361 -52.9528
3441.952393 89.200 -51.6606
3466.894287 89.075 -50.3181
3492.016846 88.986 -48.9691
3517.321289 88.925 -47.6192
3542.809326 88.887 -46.2937
3568.481934 88.869 -44.9771
3594.340576 88.867 -43.6664
3620.386719 88.883 -42.3483
3646.621582 88.916 -41.0102
3673.046387 88.971 -39.6476
3699.662842 89.049 -38.2443
3726.472168 89.159 -36.8226
3753.475586 89.313 -35.3816
3780.675049 89.511 -33.9742
3808.071289 89.762 -32.6334
3835.666016 90.062 -31.4184
3863.460938 90.415 -30.3773
3891.457275 90.811 -29.5771
3919.656250 91.252 -29.0898
3948.059814 91.718 -28.9498
3976.668945 92.193 -29.2176
4005.485596 92.669 -29.8857
4034.510986 93.133 -30.9710
4063.746582 93.581 -32.4600
4093.194336 94.005 -34.3596
4122.855469 94.395 -36.6241
4152.730957 94.738 -39.2300
4182.823730 95.034 -42.1157
4213.133789 95.279 -45.2247
4243.664062 95.473 -48.5190
4274.415527 95.618 -51.9560
4305.389648 95.711 -55.4925
4336.588379 95.746 -59.0898
4368.013184 95.726 -62.6919
4399.665527 95.650 -66.2433
4431.547363 95.521 -69.7034
4463.660156 95.343 -73.0269
4496.005371 95.117 -76.1727
4528.585449 94.843 -79.0930
4561.401367 94.531 -81.7629
4594.455078 94.187 -84.1407
4627.748535 93.817 -86.2305
4661.283203 93.428 -88.0239
4695.060547 93.024 -89.5174
4729.083008 92.609 -90.7005
4763.352051 92.194 -91.5865
4797.869141 91.788 -92.1739
4832.636719 91.397 -92.4980
4867.655762 91.028 -92.5823
4902.928711 90.685 -92.4601
4938.457520 90.368 -92.1579
4974.243652 90.084 -91.7194
5010.289062 89.841 -91.1821
5046.595703 89.635 -90.5900
5083.165527 89.464 -89.9908
5120.000000 89.326 -89.4107
5157.101562 89.218 -88.8898
5194.472168 89.133 -88.4340
5232.113281 89.063 -88.0683
5270.027344 89.003 -87.7763
5308.216309 88.947 -87.5581
5346.681641 88.892 -87.3887
5385.426270 88.836 -87.2485
5424.451172 88.779 -87.1216
5463.758789 88.724 -86.9869
5503.351562 88.671 -86.8418
5543.230957 88.625 -86.6745
5583.399414 88.586 -86.4919
5623.859375 88.558 -86.2923
5664.611816 88.542 -86.0890
5705.660156 88.540 -85.8884
5747.005859 88.552 -85.7098
5788.650879 88.582 -85.5692
5830.597656 88.627 -85.4833
5872.848633 88.685 -85.4710
5915.405762 88.755 -85.5414
5958.271484 88.833 -85.7067
6001.447266 88.920 -85.9763
6044.936523 89.012 -86.3648
6088.740234 89.106 -86.8692
6132.861816 89.195 -87.4950
6177.303223 89.280 -88.2310
6222.066406 89.356 -89.0707
6267.154297 89.424 -90.0051
6312.568359 89.481 -91.0281
6358.312012 89.525 -92.1243
6404.386719 89.552 -93.2825
6450.795898 89.564 -94.4837
6497.541016 89.559 -95.7106
6544.625000 89.538 -96.9478
6592.049805 89.501 -98.1791
6639.818359 89.447 -99.3898
6687.933594 89.378 -100.5646
6736.396973 89.295 -101.6894
6785.211426 89.199 -102.7493
6834.379883 89.092 -103.7321
6883.904785 88.974 -104.6237
6933.788574 88.849 -105.4152
6984.033691 88.718 -106.0962
7034.642578 88.586 -106.6585
7085.618652 88.452 -107.0890
7136.963867 88.325 -107.3918
7188.681152 88.207 -107.5593
7240.773438 88.106 -107.6140
7293.243164 88.028 -107.5648
7346.092773 87.975 -107.4457
7399.325684 87.953 -107.2791
7452.944336 87.962 -107.1088
7506.951172 88.007 -106.9741
7561.350098 88.084 -106.9111
7616.142578 88.188 -106.9622
7671.332031 88.315 -107.1477
7726.921875 88.462 -107.4989
7782.914551 88.622 -108.0248
7839.312500 88.790 -108.7483
7896.119629 88.960 -109.6587
7953.337891 89.125 -110.7589
8010.971191 89.282 -112.0309
8069.021973 89.429 -113.4605
8127.493164 89.565 -115.0373
8186.388672 89.689 -116.7506
8245.710938 89.797 -118.5860
8305.461914 89.889 -120.5292
8365.647461 89.966 -122.5690
8426.267578 90.026 -124.6902
8487.328125 90.072 -126.8902
8548.831055 90.102 -129.1611
8610.779297 90.116 -131.5034
8673.176758 90.115 -133.9146
8736.026367 90.098 -136.3964
8799.331055 90.063 -138.9510
8863.094727 90.008 -141.5740
8927.320312 89.932 -144.2646
8992.010742 89.832 -147.0133
9057.170898 89.704 -149.8206
9122.802734 89.546 -152.6560
9188.910156 89.351 -155.5013
9255.497070 89.119 -158.3199
9322.566406 88.852 -161.0896
9390.121094 88.542 -163.7483
9458.166016 88.182 -166.2490
9526.704102 87.779 -168.5237
9595.738281 87.335 -170.4986
9665.273438 86.859 -172.1442
9735.311523 86.356 -173.4132
9805.857422 85.836 -174.2854
9876.915039 85.300 -174.7091
9948.487305 84.776 -174.7319
10020.578125 84.285 -174.3465
10093.191406 83.841 -173.6683
10166.331055 83.469 -172.7815
10240.000000 83.161 -171.7755
10314.203125 82.921 -170.7416
10388.944336 82.747 -169.7584
10464.226562 82.647 -168.9240
10540.054688 82.594 -168.2702
10616.432617 82.568 -167.8756
10693.363281 82.557 -167.6994
10770.852539 82.546 -167.7464
10848.902344 82.530 -167.9565
10927.517578 82.497 -168.2869
11006.703125 82.452 -168.6897
11086.461914 82.395 -169.1061
11166.798828 82.332 -169.5257
11247.718750 82.271 -169.9106
11329.223633 82.219 -170.2861
11411.320312 82.184 -170.6489
11494.011719 82.168 -171.0477
11577.301758 82.179 -171.5143
11661.195312 82.211 -172.0964
11745.697266 82.266 -172.8440
11830.811523 82.334 -173.7823
11916.542969 82.407 -174.9547
12002.894531 82.478 -176.3566
12089.873047 82.538 -178.0068
12177.480469 82.580 -179.8788
12265.723633 82.595 178.0331
12354.606445 82.579 175.7736
12444.132812 82.524 173.3734
12534.308594 82.431 170.8827
12625.136719 82.294 168.3498
12716.624023 82.118 165.8113
12808.773438 81.904 163.3112
12901.591797 81.652 160.8756
12995.082031 81.361 158.5351
13089.250000 81.036 156.3207
13184.099609 80.677 154.2698
13279.636719 80.290 152.3942
13375.867188 79.882 150.7064
13472.793945 79.449 149.2416
13570.422852 78.984 148.0292
13668.759766 78.501 147.0996
13767.809570 78.006 146.4974
13867.577148 77.506 146.2108
13968.067383 77.009 146.2367
14069.285156 76.518 146.5920
14171.237305 76.027 147.2998
14273.927734 75.563 148.3396
14377.362305 75.147 149.7300
14481.546875 74.790 151.3760
14586.486328 74.511 153.2091
14692.185547 74.309 155.1664
14798.651367 74.180 157.2003
14905.888672 74.145 159.1947
15013.902344 74.232 161.0563
15122.700195 74.410 162.6668
15232.285156 74.659 163.8881
15342.664062 74.966 164.6855
15453.843750 75.313 164.9937
15565.829102 75.689 164.7678
15678.625000 76.083 163.9341
15792.239258 76.469 162.5153
15906.675781 76.817 160.4807
16021.942383 77.122 157.9172
16138.043945 77.373 154.8860
16254.986328 77.569 151.4352
16372.777344 77.709 147.6081
16491.421875 77.783 143.4786
16610.923828 77.776 139.1075
16731.294922 77.693 134.5786
16852.535156 77.536 129.9748
16974.656250 77.303 125.3619
17097.662109 76.990 120.8085
17221.558594 76.602 116.3903
17346.353516 76.137 112.1824
17472.052734 75.600 108.2549
17598.662109 74.993 104.6854
17726.189453 74.322 101.5261
17854.640625 73.592 98.8470
17984.021484 72.814 96.6706
18114.341797 71.995 95.0487
18245.605469 71.151 93.9626
18377.820312 70.296 93.4307
18510.994141 69.446 93.3929
18645.132812 68.617 93.8146
18780.242188 67.819 94.6366
18916.332031 67.067 95.8117
19053.408203 66.370 97.2671
19191.476562 65.741 98.9415
19330.546875 65.180 100.7530
19470.623047 64.692 102.6102
19611.714844 64.264 104.4794
19753.830078 63.886 106.3044
19896.974609 63.557 108.0626
