* Measurement data measured by REW V5.20.13
* Source: C:\Users\kurin\Desktop\Targets and Curves\Resolve\Img\Files\HiFiMAN_HE-6_Sundara_Pads_5128_SPL.txt
* Format: Comma/Tab/Space delimited data
* Dated: Aug 14, 2023 5:25:49 PM
* REW Settings:
*  C-weighting compensation: Off
*  Target level: 75.0 dB
* Note: ; Measurement imported from C:\Users\kurin\Desktop\Targets and Curves\Resolve\Img\Files\HiFiMAN_HE-6_Sundara_Pads_5128_SPL.txt Format: Comma/Tab/Space delimited data 623 values loaded, 5 Hz to 39,792 Hz log spaced 
* Measurement: HiFiMAN_HE-6_Sundara_Pads
* Smoothing: 1/48 octave
* Frequency Step: 1/96 octave
* Start Frequency: 5.000 Hz
*
* Freq(Hz) SPL(dB) Phase(degrees)
5.000000 86.413 17.1690
5.036232 86.419 17.1643
5.072727 86.425 17.1590
5.109486 86.432 17.1524
5.146511 86.440 17.1450
5.183805 86.450 17.1367
5.221369 86.461 17.1280
5.259205 86.472 17.1197
5.297316 86.484 17.1110
5.335702 86.497 17.1011
5.374367 86.510 17.0910
5.413311 86.523 17.0814
5.452538 86.536 17.0720
5.492050 86.549 17.0626
5.531847 86.561 17.0530
5.571934 86.574 17.0431
5.612310 86.587 17.0330
5.652979 86.599 17.0230
5.693943 86.612 17.0130
5.735204 86.625 17.0031
5.776763 86.638 16.9930
5.818624 86.651 16.9825
5.860788 86.664 16.9720
5.903258 86.676 16.9620
5.946035 86.689 16.9520
5.989123 86.702 16.9416
6.032523 86.715 16.9310
6.076237 86.727 16.9206
6.120268 86.740 16.9100
6.164618 86.753 16.8991
6.209289 86.766 16.8880
6.254284 86.779 16.8770
6.299605 86.792 16.8660
6.345255 86.804 16.8550
6.391235 86.817 16.8440
6.437549 86.830 16.8331
6.484198 86.843 16.8220
6.531185 86.855 16.8106
6.578513 86.868 16.7990
6.626183 86.881 16.7876
6.674199 86.894 16.7760
6.722563 86.907 16.7640
6.771278 86.920 16.7520
6.820345 86.932 16.7405
6.869768 86.945 16.7290
6.919549 86.958 16.7171
6.969691 86.971 16.7050
7.020196 86.983 16.6926
7.071068 86.996 16.6800
7.122308 87.009 16.6675
7.173919 87.022 16.6550
7.225904 87.035 16.6425
7.278266 87.048 16.6300
7.331007 87.060 16.6176
7.384131 87.073 16.6050
7.437639 87.086 16.5921
7.491535 87.099 16.5790
7.545822 87.111 16.5661
7.600502 87.124 16.5530
7.655579 87.137 16.5396
7.711054 87.150 16.5260
7.766932 87.163 16.5125
7.823214 87.176 16.4990
7.879904 87.188 16.4856
7.937005 87.201 16.4720
7.994520 87.214 16.4581
8.052452 87.227 16.4440
8.110803 87.239 16.4301
8.169578 87.252 16.4160
8.228777 87.265 16.4016
8.288406 87.278 16.3870
8.348468 87.291 16.3725
8.408964 87.304 16.3580
8.469899 87.316 16.3436
8.531276 87.329 16.3290
8.593097 87.342 16.3141
8.655366 87.355 16.2990
8.718086 87.368 16.2841
8.781260 87.381 16.2690
8.844893 87.393 16.2536
8.908987 87.406 16.2380
8.973545 87.419 16.2226
9.038571 87.432 16.2070
9.104069 87.444 16.1911
9.170040 87.457 16.1750
9.236490 87.470 16.1590
9.303422 87.483 16.1430
9.370838 87.496 16.1271
9.438744 87.509 16.1110
9.507140 87.521 16.0946
9.576033 87.534 16.0780
9.645425 87.547 16.0611
9.715320 87.560 16.0440
9.785721 87.572 16.0271
9.856632 87.585 16.0100
9.928058 87.598 15.9926
10.000000 87.611 15.9750
10.072464 87.624 15.9575
10.145453 87.637 15.9400
10.218971 87.649 15.9226
10.293022 87.662 15.9050
10.367610 87.675 15.8871
10.442738 87.688 15.8690
10.518411 87.701 15.8506
10.594631 87.713 15.8320
10.671404 87.726 15.8136
10.748734 87.739 15.7950
10.826623 87.752 15.7761
10.905077 87.765 15.7570
10.984100 87.777 15.7381
11.063695 87.790 15.7190
11.143867 87.803 15.6996
11.224621 87.816 15.6800
11.305959 87.828 15.6601
11.387886 87.841 15.6400
11.470407 87.854 15.6200
11.553527 87.867 15.6000
11.637249 87.880 15.5801
11.721577 87.893 15.5600
11.806517 87.905 15.5391
11.892071 87.918 15.5180
11.978246 87.931 15.4970
12.065045 87.944 15.4760
12.152473 87.956 15.4551
12.240536 87.969 15.4340
12.329235 87.982 15.4126
12.418578 87.995 15.3910
12.508568 88.008 15.3691
12.599211 88.021 15.3470
12.690510 88.033 15.3251
12.782471 88.046 15.3030
12.875097 88.059 15.2806
12.968395 88.072 15.2580
13.062370 88.084 15.2351
13.157025 88.097 15.2120
13.252366 88.110 15.1886
13.348398 88.123 15.1650
13.445127 88.136 15.1415
13.542556 88.149 15.1180
13.640691 88.161 15.0946
13.739536 88.174 15.0710
13.839099 88.187 15.0466
13.939383 88.200 15.0220
14.040393 88.212 14.9976
14.142136 88.225 14.9730
14.244616 88.238 14.9481
14.347837 88.251 14.9230
14.451808 88.264 14.8976
14.556532 88.277 14.8720
14.662014 88.289 14.8466
14.768262 88.302 14.8210
14.875278 88.315 14.7952
14.983070 88.328 14.7690
15.091644 88.340 14.7426
15.201005 88.353 14.7160
15.311157 88.366 14.6891
15.422109 88.379 14.6620
15.533863 88.392 14.6346
15.646428 88.405 14.6070
15.759809 88.417 14.5796
15.874010 88.430 14.5520
15.989040 88.443 14.5241
16.104904 88.456 14.4960
16.221605 88.468 14.4676
16.339155 88.481 14.4390
16.457554 88.494 14.4106
16.576813 88.507 14.3820
16.696936 88.520 14.3531
16.817928 88.533 14.3240
16.939798 88.545 14.2945
17.062551 88.558 14.2650
17.186193 88.571 14.2361
17.310732 88.584 14.2070
17.436172 88.596 14.1771
17.562521 88.609 14.1470
17.689787 88.622 14.1175
17.817974 88.635 14.0880
17.947090 88.648 14.0585
18.077143 88.661 14.0290
18.208138 88.673 13.9995
18.340080 88.686 13.9700
18.472980 88.699 13.9408
18.606844 88.712 13.9120
18.741676 88.724 13.8836
18.877487 88.737 13.8560
19.014280 88.750 13.8295
19.152065 88.763 13.8040
19.290850 88.776 13.7799
19.430639 88.789 13.7570
19.571442 88.803 13.7356
19.713264 88.817 13.7150
19.856115 88.832 13.6951
20.000000 88.848 13.6740
20.144928 88.864 13.6494
20.290907 88.881 13.6220
20.437943 88.898 13.5922
20.586044 88.915 13.5590
20.735220 88.932 13.5213
20.885475 88.950 13.4800
21.036821 88.967 13.4356
21.189262 88.985 13.3881
21.342808 89.002 13.3380
21.497467 89.020 13.2851
21.653246 89.037 13.2291
21.810154 89.055 13.1701
21.968201 89.073 13.1087
22.127390 89.091 13.0421
22.287735 89.110 12.9675
22.449242 89.129 12.8851
22.611917 89.147 12.7928
22.775772 89.163 12.6941
22.940815 89.177 12.5911
23.107054 89.190 12.4851
23.274498 89.201 12.3769
23.443153 89.211 12.2701
23.613033 89.217 12.1676
23.784142 89.222 12.0731
23.956491 89.225 11.9913
24.130091 89.228 11.9221
24.304947 89.231 11.8679
24.481071 89.234 11.8260
24.658470 89.239 11.7958
24.837156 89.246 11.7730
25.017136 89.255 11.7542
25.198421 89.265 11.7370
25.381020 89.276 11.7178
25.564941 89.289 11.6970
25.750195 89.302 11.6743
25.936790 89.316 11.6490
26.124741 89.331 11.6202
26.314051 89.347 11.5880
26.504732 89.363 11.5522
26.696796 89.379 11.5140
26.890253 89.395 11.4749
27.085112 89.412 11.4340
27.281382 89.430 11.3927
27.479073 89.449 11.3471
27.678198 89.470 11.2938
27.878765 89.492 11.2321
28.080786 89.514 11.1592
28.284271 89.536 11.0771
28.489231 89.558 10.9872
28.695675 89.579 10.8881
28.903616 89.600 10.7789
29.113064 89.621 10.6602
29.324028 89.640 10.5319
29.536524 89.659 10.3962
29.750557 89.677 10.2550
29.966141 89.693 10.1082
30.183289 89.708 9.9557
30.402010 89.722 9.7992
30.622314 89.734 9.6391
30.844217 89.744 9.4782
31.067726 89.752 9.3190
31.292856 89.759 9.1622
31.519617 89.764 9.0090
31.748020 89.768 8.8612
31.978081 89.771 8.7208
32.209808 89.773 8.5882
32.443211 89.775 8.4654
32.678310 89.778 8.3491
32.915108 89.782 8.2378
33.153625 89.786 8.1281
33.393871 89.792 8.0162
33.635857 89.798 7.9022
33.879597 89.803 7.7850
34.125103 89.809 7.6642
34.372387 89.815 7.5387
34.621464 89.821 7.4092
34.872345 89.826 7.2752
35.125042 89.829 7.1392
35.379574 89.831 7.0030
35.635948 89.832 6.8672
35.894180 89.833 6.7332
36.154285 89.834 6.6002
36.416275 89.833 6.4679
36.680161 89.832 6.3362
36.945961 89.831 6.2046
37.213688 89.829 6.0742
37.483353 89.826 5.9454
37.754974 89.821 5.8202
38.028561 89.815 5.7012
38.304131 89.809 5.5871
38.581699 89.803 5.4777
38.861279 89.797 5.3732
39.142883 89.790 5.2736
39.426529 89.783 5.1791
39.712231 89.776 5.0903
40.000000 89.769 5.0061
40.289856 89.762 4.9257
40.581814 89.756 4.8491
40.875885 89.749 4.7764
41.172089 89.743 4.7071
41.470440 89.737 4.6408
41.770950 89.731 4.5771
42.073643 89.726 4.5160
42.378525 89.721 4.4561
42.685616 89.717 4.3963
42.994934 89.713 4.3361
43.306492 89.709 4.2738
43.620308 89.705 4.2111
43.936401 89.700 4.1481
44.254780 89.695 4.0871
44.575470 89.689 4.0307
44.898483 89.683 3.9781
45.223835 89.677 3.9294
45.551544 89.671 3.8851
45.881630 89.666 3.8463
46.214108 89.661 3.8111
46.548996 89.658 3.7783
46.886307 89.655 3.7461
47.226067 89.654 3.7121
47.568283 89.653 3.6761
47.912983 89.652 3.6370
48.260181 89.652 3.5951
48.609894 89.652 3.5500
48.962143 89.652 3.5021
49.316940 89.652 3.4513
49.674313 89.652 3.3981
50.034271 89.652 3.3430
50.396843 89.652 3.2851
50.762039 89.652 3.2238
51.129883 89.652 3.1591
51.500389 89.652 3.0908
51.873581 89.651 3.0191
52.249481 89.649 2.9438
52.628101 89.647 2.8661
53.009464 89.643 2.7868
53.393593 89.639 2.7081
53.780506 89.634 2.6328
54.170223 89.628 2.5601
54.562763 89.622 2.4904
54.958145 89.615 2.4231
55.356396 89.608 2.3577
55.757530 89.600 2.2951
56.161572 89.592 2.2363
56.568542 89.583 2.1811
56.978462 89.575 2.1297
57.391350 89.566 2.0811
57.807232 89.558 2.0338
58.226128 89.549 1.9901
58.648056 89.539 1.9509
59.073048 89.528 1.9180
59.501114 89.518 1.8945
59.932281 89.509 1.8770
60.366577 89.501 1.8640
60.804020 89.494 1.8540
61.244629 89.487 1.8460
61.688435 89.481 1.8380
62.135452 89.477 1.8287
62.585712 89.474 1.8160
63.039234 89.472 1.7976
63.496040 89.470 1.7730
63.956161 89.468 1.7404
64.419617 89.466 1.7021
64.886421 89.462 1.6587
65.356621 89.457 1.6131
65.830215 89.451 1.5681
66.307251 89.444 1.5241
66.787743 89.437 1.4819
67.271713 89.429 1.4431
67.759193 89.419 1.4091
68.250206 89.408 1.3810
68.744774 89.398 1.3619
69.242928 89.389 1.3480
69.744690 89.380 1.3370
70.250084 89.372 1.3280
70.759148 89.364 1.3189
71.271896 89.357 1.3110
71.788361 89.349 1.3053
72.308571 89.341 1.3010
72.832550 89.333 1.2977
73.360321 89.326 1.2950
73.891922 89.319 1.2923
74.427376 89.313 1.2900
74.966705 89.306 1.2881
75.509949 89.299 1.2870
76.057121 89.291 1.2871
76.608261 89.284 1.2880
77.163399 89.277 1.2897
77.722557 89.271 1.2920
78.285767 89.264 1.2942
78.853058 89.257 1.2970
79.424461 89.250 1.3004
80.000000 89.243 1.3050
80.579712 89.236 1.3112
81.163628 89.228 1.3200
81.751770 89.220 1.3329
82.344177 89.213 1.3490
82.940880 89.206 1.3680
83.541901 89.199 1.3890
84.147285 89.192 1.4106
84.757050 89.186 1.4330
85.371231 89.180 1.4561
85.989868 89.175 1.4790
86.612984 89.170 1.5006
87.240616 89.166 1.5210
87.872803 89.161 1.5388
88.509560 89.156 1.5570
89.150940 89.150 1.5778
89.796967 89.144 1.6009
90.447670 89.138 1.6269
91.103088 89.132 1.6559
91.763260 89.126 1.6884
92.428215 89.120 1.7239
93.097992 89.115 1.7632
93.772614 89.112 1.8029
94.452133 89.110 1.8401
95.136566 89.109 1.8739
95.825966 89.108 1.9023
96.520363 89.106 1.9260
97.219788 89.105 1.9445
97.924286 89.103 1.9600
98.633881 89.100 1.9729
99.348625 89.095 1.9870
100.068542 89.089 2.0063
100.793686 89.083 2.0299
101.524078 89.077 2.0584
102.259766 89.071 2.0919
103.000778 89.065 2.1315
103.747162 89.060 2.1759
104.498962 89.056 2.2252
105.256203 89.052 2.2769
106.018929 89.050 2.3289
106.787186 89.048 2.3799
107.561012 89.047 2.4276
108.340446 89.047 2.4729
109.125526 89.047 2.5160
109.916290 89.047 2.5569
110.712791 89.047 2.5958
111.515060 89.047 2.6329
112.323143 89.047 2.6684
113.137085 89.047 2.7029
113.956924 89.047 2.7373
114.782700 89.047 2.7709
115.614464 89.047 2.8033
116.452255 89.047 2.8349
117.296112 89.047 2.8662
118.146095 89.047 2.8969
119.002228 89.047 2.9271
119.864563 89.047 2.9569
120.733154 89.047 2.9866
121.608040 89.047 3.0159
122.489258 89.047 3.0447
123.376869 89.047 3.0729
124.270905 89.047 3.1007
125.171425 89.047 3.1280
126.078468 89.047 3.1548
126.992081 89.047 3.1809
127.912323 89.047 3.2061
128.839233 89.047 3.2300
129.772842 89.047 3.2523
130.713242 89.047 3.2730
131.660431 89.046 3.2913
132.614502 89.045 3.3080
133.575485 89.044 3.3230
134.543427 89.042 3.3380
135.518387 89.039 3.3533
136.500412 89.034 3.3720
137.489548 89.028 3.3973
138.485855 89.022 3.4289
139.489380 89.017 3.4676
140.500168 89.011 3.5129
141.518295 89.005 3.5647
142.543793 88.999 3.6228
143.576721 88.994 3.6882
144.617142 88.991 3.7578
145.665100 88.989 3.8294
146.720642 88.988 3.9018
147.783844 88.987 3.9727
148.854752 88.986 4.0438
149.933411 88.986 4.1158
151.019897 88.986 4.1888
152.114243 88.987 4.2629
153.216522 88.988 4.3388
154.326797 88.989 4.4180
155.445114 88.991 4.4988
156.571533 88.994 4.5809
157.706116 88.999 4.6618
158.848923 89.005 4.7391
160.000000 89.012 4.8128
161.159424 89.019 4.8828
162.327255 89.027 4.9479
163.503540 89.037 5.0073
164.688354 89.047 5.0589
165.881760 89.057 5.0987
167.083801 89.067 5.1309
168.294571 89.075 5.1578
169.514099 89.082 5.1809
170.742462 89.089 5.2026
171.979736 89.095 5.2229
173.225967 89.100 5.2418
174.481232 89.104 5.2620
175.745605 89.107 5.2866
177.019119 89.111 5.3139
178.301880 89.115 5.3444
179.593933 89.120 5.3749
180.895340 89.126 5.4027
182.206177 89.132 5.4279
183.526520 89.138 5.4498
184.856430 89.144 5.4680
186.195984 89.150 5.4815
187.545227 89.155 5.4910
188.904266 89.159 5.4958
190.273132 89.163 5.4990
191.651932 89.165 5.5032
193.040726 89.166 5.5090
194.439575 89.167 5.5180
195.848572 89.168 5.5300
197.267761 89.168 5.5455
198.697250 89.168 5.5640
200.137085 89.168 5.5853
201.587372 89.168 5.6089
203.048157 89.168 5.6341
204.519531 89.168 5.6609
206.001556 89.168 5.6897
207.494324 89.168 5.7199
208.997925 89.168 5.7512
210.512405 89.168 5.7839
212.037857 89.168 5.8183
213.574371 89.168 5.8539
215.122025 89.168 5.8903
216.680893 89.168 5.9279
218.251053 89.168 5.9668
219.832581 89.168 6.0069
221.425583 89.168 6.0483
223.030121 89.168 6.0909
224.646286 89.168 6.1348
226.274170 89.168 6.1799
227.913849 89.168 6.2263
229.565399 89.168 6.2739
231.228928 89.168 6.3227
232.904510 89.168 6.3728
234.592224 89.168 6.4245
236.292191 89.168 6.4779
238.004456 89.168 6.5330
239.729126 89.168 6.5898
241.466309 89.168 6.6479
243.216080 89.168 6.7078
244.978516 89.168 6.7701
246.753738 89.168 6.8348
248.541809 89.168 6.9019
250.342850 89.168 6.9718
252.156937 89.168 7.0450
253.984161 89.168 7.1218
255.824646 89.168 7.2028
257.678467 89.169 7.2878
259.545685 89.170 7.3771
261.426483 89.172 7.4698
263.320862 89.174 7.5657
265.229004 89.178 7.6627
267.150970 89.183 7.7587
269.086853 89.189 7.8537
271.036774 89.194 7.9472
273.000824 89.200 8.0397
274.979095 89.206 8.1316
276.971710 89.213 8.2237
278.978760 89.219 8.3169
281.000336 89.226 8.4117
283.036591 89.233 8.5095
285.087585 89.240 8.6097
287.153442 89.248 8.7128
289.234283 89.257 8.8177
291.330200 89.267 8.9242
293.441284 89.279 9.0297
295.567688 89.291 9.1320
297.709503 89.305 9.2307
299.866821 89.320 9.3248
302.039795 89.335 9.4147
304.228485 89.349 9.5003
306.433044 89.364 9.5828
308.653595 89.379 9.6630
310.890228 89.395 9.7418
313.143066 89.411 9.8200
315.412231 89.427 9.8978
317.697845 89.443 9.9765
320.000000 89.461 10.0538
322.318848 89.480 10.1287
324.654510 89.501 10.1988
327.007080 89.522 10.2619
329.376709 89.545 10.3168
331.763519 89.569 10.3623
334.167603 89.593 10.3969
336.589142 89.618 10.4183
339.028198 89.642 10.4280
341.484924 89.665 10.4265
343.959473 89.688 10.4140
346.451935 89.711 10.3905
348.962463 89.732 10.3571
351.491211 89.750 10.3137
354.038239 89.767 10.2641
356.603760 89.782 10.2118
359.187866 89.795 10.1582
361.790680 89.806 10.1050
364.412354 89.816 10.0541
367.053040 89.823 10.0072
369.712860 89.829 9.9671
372.391968 89.833 9.9379
375.090454 89.837 9.9180
377.808533 89.841 9.9081
380.546265 89.846 9.9050
383.303864 89.851 9.9062
386.081451 89.857 9.9110
388.879150 89.863 9.9177
391.697144 89.870 9.9260
394.535522 89.877 9.9352
397.394501 89.885 9.9440
400.274170 89.893 9.9505
403.174744 89.902 9.9550
406.096313 89.910 9.9566
409.039062 89.917 9.9570
412.003113 89.924 9.9576
414.988647 89.930 9.9580
417.995850 89.936 9.9581
421.024811 89.942 9.9590
424.075714 89.947 9.9606
427.148743 89.950 9.9660
430.244049 89.952 9.9775
433.361786 89.953 9.9969
436.502106 89.954 10.0273
439.665161 89.956 10.0679
442.851166 89.958 10.1196
446.060242 89.961 10.1808
449.292572 89.965 10.2512
452.548340 89.972 10.3268
455.827698 89.982 10.4040
459.130798 89.994 10.4808
462.457855 90.008 10.5545
465.809021 90.023 10.6228
469.184448 90.041 10.6835
472.584381 90.060 10.7329
476.008911 90.082 10.7669
479.458252 90.104 10.7850
482.932617 90.126 10.7847
486.432159 90.147 10.7681
489.957031 90.167 10.7359
493.507477 90.186 10.6892
497.083618 90.203 10.6277
500.685699 90.217 10.5553
504.313873 90.229 10.4744
507.968323 90.237 10.3883
511.649292 90.242 10.2991
515.356934 90.243 10.2123
519.091370 90.240 10.1324
522.852966 90.233 10.0642
526.641724 90.223 10.0130
530.458008 90.211 9.9821
534.301941 90.196 9.9757
538.173706 90.179 9.9959
542.073547 90.162 10.0462
546.001648 90.145 10.1257
549.958191 90.129 10.2354
553.943420 90.116 10.3725
557.957520 90.106 10.5364
562.000671 90.099 10.7213
566.073181 90.098 10.9239
570.175171 90.102 11.1373
574.306885 90.111 11.3554
578.468567 90.126 11.5733
582.660400 90.145 11.7853
586.882568 90.169 11.9873
591.135376 90.197 12.1744
595.419006 90.230 12.3425
599.733643 90.267 12.4864
604.079590 90.306 12.6046
608.456970 90.346 12.6939
612.866089 90.387 12.7538
617.307190 90.428 12.7824
621.780457 90.469 12.7820
626.286133 90.507 12.7525
630.824463 90.543 12.7002
635.395691 90.574 12.6292
640.000000 90.601 12.5463
644.637695 90.623 12.4578
649.309021 90.642 12.3693
654.014160 90.657 12.2870
658.753418 90.668 12.2152
663.527039 90.676 12.1608
668.335205 90.683 12.1231
673.178284 90.691 12.1058
678.056396 90.699 12.1030
682.969849 90.709 12.1106
687.918945 90.720 12.1259
692.903870 90.733 12.1457
697.924927 90.747 12.1679
702.982422 90.762 12.1898
708.076477 90.779 12.2099
713.207520 90.796 12.2251
718.375732 90.814 12.2380
723.581360 90.831 12.2497
728.824707 90.848 12.2620
734.106079 90.865 12.2768
739.425720 90.883 12.2939
744.783936 90.901 12.3132
750.180908 90.919 12.3359
755.617065 90.938 12.3641
761.092529 90.958 12.3949
766.607727 90.981 12.4260
772.162903 91.005 12.4569
777.758301 91.030 12.4873
783.394287 91.058 12.5149
789.071045 91.089 12.5388
794.789001 91.122 12.5540
800.548340 91.158 12.5558
806.349487 91.196 12.5421
812.192627 91.236 12.5111
818.078125 91.279 12.4572
824.006226 91.324 12.3755
829.977295 91.371 12.2625
835.991699 91.417 12.1127
842.049622 91.461 11.9277
848.151428 91.503 11.7067
854.297485 91.542 11.4520
860.488098 91.576 11.1629
866.723572 91.605 10.8482
873.004211 91.625 10.5123
879.330322 91.637 10.1682
885.702332 91.639 9.8271
892.120483 91.634 9.4991
898.585144 91.621 9.1963
905.096680 91.603 8.9239
911.655396 91.579 8.6915
918.261597 91.553 8.4986
924.915710 91.526 8.3505
931.618042 91.500 8.2393
938.368896 91.477 8.1620
945.168762 91.457 8.1102
952.017822 91.440 8.0761
958.916504 91.427 8.0541
965.865234 91.417 8.0361
972.864319 91.409 8.0211
979.914062 91.402 8.0041
987.014954 91.396 7.9891
994.167236 91.390 7.9777
1001.371399 91.384 7.9710
1008.627747 91.379 7.9704
1015.936646 91.375 7.9760
1023.298584 91.373 7.9894
1030.713867 91.373 8.0069
1038.182739 91.376 8.0269
1045.705933 91.381 8.0439
1053.283447 91.390 8.0542
1060.916016 91.402 8.0520
1068.603882 91.416 8.0313
1076.347412 91.432 7.9902
1084.147095 91.448 7.9240
1092.003296 91.464 7.8353
1099.916382 91.477 7.7242
1107.886841 91.489 7.5936
1115.915039 91.499 7.4449
1124.001343 91.505 7.2826
1132.146362 91.507 7.1094
1140.350342 91.505 6.9317
1148.613770 91.498 6.7568
1156.937134 91.489 6.5847
1165.320801 91.478 6.4188
1173.765137 91.466 6.2557
1182.270752 91.452 6.0939
1190.838013 91.437 5.9307
1199.467285 91.421 5.7635
1208.159180 91.402 5.5907
1216.913940 91.381 5.4098
1225.732178 91.356 5.2207
1234.614380 91.327 5.0197
1243.560913 91.292 4.8158
1252.572266 91.248 4.6112
1261.648926 91.194 4.4227
1270.791382 91.130 4.2621
1280.000000 91.055 4.1463
1289.275391 90.972 4.0930
1298.618042 90.881 4.1127
1308.028320 90.785 4.2211
1317.506836 90.685 4.4209
1327.054077 90.587 4.7238
1336.670410 90.492 5.1193
1346.356567 90.406 5.6068
1356.112793 90.330 6.1678
1365.939697 90.269 6.7903
1375.837891 90.221 7.4542
1385.807739 90.189 8.1398
1395.849854 90.171 8.8342
1405.964844 90.165 9.5195
1416.152954 90.170 10.1915
1426.415039 90.184 10.8404
1436.751465 90.205 11.4657
1447.162720 90.233 12.0623
1457.649414 90.266 12.6347
1468.212158 90.302 13.1851
1478.851440 90.342 13.7150
1489.567871 90.386 14.2280
1500.361816 90.435 14.7211
1511.234131 90.489 15.1934
1522.185059 90.548 15.6420
1533.215454 90.611 16.0659
1544.325806 90.679 16.4593
1555.516602 90.752 16.8190
1566.788574 90.830 17.1368
1578.142090 90.912 17.4052
1589.578003 90.998 17.6182
1601.096680 91.084 17.7671
1612.698975 91.170 17.8518
1624.385254 91.252 17.8663
1636.156250 91.328 17.8193
1648.012451 91.395 17.7120
1659.954590 91.452 17.5616
1671.983398 91.495 17.3786
1684.099243 91.524 17.1858
1696.302856 91.537 17.0015
1708.594971 91.536 16.8496
1720.976196 91.521 16.7566
1733.447144 91.497 16.7329
1746.008423 91.466 16.7982
1758.660645 91.432 16.9512
1771.404663 91.399 17.2013
1784.240967 91.369 17.5365
1797.170288 91.348 17.9544
1810.193359 91.336 18.4350
1823.310791 91.338 18.9634
1836.523193 91.353 19.5217
1849.831421 91.381 20.0922
1863.236084 91.422 20.6595
1876.737793 91.474 21.2046
1890.337524 91.535 21.7208
1904.035645 91.602 22.1942
1917.833008 91.673 22.6274
1931.730469 91.745 23.0145
1945.728638 91.816 23.3675
1959.828125 91.882 23.6908
1974.029907 91.944 24.0017
1988.334473 91.999 24.3136
2002.742798 92.050 24.6426
2017.255493 92.095 25.0052
2031.873291 92.138 25.4143
2046.597168 92.178 25.8875
2061.427734 92.222 26.4275
2076.365479 92.272 27.0471
2091.411865 92.333 27.7330
2106.566895 92.409 28.4825
2121.832031 92.503 29.2756
2137.207764 92.617 30.1000
2152.694824 92.752 30.9307
2168.294189 92.913 31.7488
2184.006592 93.096 32.5246
2199.832764 93.304 33.2310
2215.773682 93.534 33.8417
2231.830078 93.784 34.3271
2248.002686 94.048 34.6699
2264.292725 94.322 34.8447
2280.700684 94.601 34.8464
2297.227539 94.878 34.6568
2313.874268 95.148 34.2899
2330.641602 95.403 33.7434
2347.530273 95.641 33.0483
2364.541504 95.855 32.2218
2381.676025 96.044 31.3033
2398.934570 96.206 30.3247
2416.318359 96.342 29.3255
2433.827881 96.452 28.3461
2451.464355 96.540 27.4157
2469.228760 96.609 26.5741
2487.121826 96.666 25.8300
2505.144531 96.716 25.2095
2523.297852 96.766 24.7001
2541.582764 96.822 24.3065
2560.000000 96.888 24.0022
2578.550781 96.970 23.7732
2597.236084 97.069 23.5858
2616.056641 97.191 23.4140
2635.013672 97.332 23.2199
2654.108154 97.495 22.9659
2673.340820 97.674 22.6257
2692.713135 97.865 22.1625
2712.225586 98.062 21.5701
2731.879395 98.258 20.8259
2751.675781 98.447 19.9434
2771.615479 98.624 18.9183
2791.699707 98.784 17.7822
2811.929688 98.922 16.5535
2832.305908 99.038 15.2681
2852.830078 99.130 13.9584
2873.502930 99.201 12.6546
2894.325439 99.250 11.3912
2915.298828 99.282 10.1873
2936.424316 99.300 9.0736
2957.702881 99.310 8.0503
2979.135742 99.317 7.1314
3000.723633 99.323 6.3054
3022.468262 99.333 5.5698
3044.370117 99.350 4.9119
3066.430908 99.377 4.3242
3088.651611 99.416 3.7873
3111.033203 99.471 3.2884
3133.577148 99.544 2.7993
3156.284180 99.636 2.2984
3179.156006 99.747 1.7537
3202.193359 99.880 1.1377
3225.397949 100.028 0.4157
3248.770508 100.193 -0.4498
3272.312500 100.364 -1.4770
3296.024902 100.537 -2.6989
3319.909180 100.702 -4.1070
3343.966797 100.851 -5.7133
3368.198486 100.979 -7.4892
3392.605713 101.081 -9.4248
3417.189941 101.151 -11.4753
3441.952393 101.183 -13.6082
3466.894287 101.179 -15.7753
3492.016846 101.137 -17.9288
3517.321289 101.059 -20.0344
3542.809326 100.948 -22.0516
3568.481934 100.806 -23.9515
3594.340576 100.633 -25.7001
3620.386719 100.436 -27.2730
3646.621582 100.217 -28.6374
3673.046387 99.983 -29.7841
3699.662842 99.738 -30.6910
3726.472168 99.490 -31.3634
3753.475586 99.244 -31.7914
3780.675049 99.009 -31.9995
3808.071289 98.793 -31.9938
3835.666016 98.603 -31.8212
3863.460938 98.447 -31.5124
3891.457275 98.325 -31.1220
3919.656250 98.244 -30.7015
3948.059814 98.195 -30.2908
3976.668945 98.178 -29.9430
4005.485596 98.183 -29.6701
4034.510986 98.204 -29.5089
4063.746582 98.234 -29.4381
4093.194336 98.262 -29.4603
4122.855469 98.288 -29.5405
4152.730957 98.308 -29.6553
4182.823730 98.324 -29.7725
4213.133789 98.334 -29.8533
4243.664062 98.349 -29.8939
4274.415527 98.376 -29.8621
4305.389648 98.425 -29.8043
4336.588379 98.505 -29.7327
4368.013184 98.615 -29.7188
4399.665527 98.763 -29.8234
4431.547363 98.933 -30.0922
4463.660156 99.119 -30.5925
4496.005371 99.306 -31.3207
4528.585449 99.482 -32.3102
4561.401367 99.639 -33.5168
4594.455078 99.767 -34.9302
4627.748535 99.862 -36.4802
4661.283203 99.915 -38.1122
4695.060547 99.934 -39.7679
4729.083008 99.919 -41.3737
4763.352051 99.880 -42.9218
4797.869141 99.827 -44.3732
4832.636719 99.761 -45.7493
4867.655762 99.690 -47.0533
4902.928711 99.613 -48.3020
4938.457520 99.533 -49.5148
4974.243652 99.445 -50.6875
5010.289062 99.346 -51.8313
5046.595703 99.235 -52.9197
5083.165527 99.106 -53.9413
5120.000000 98.964 -54.8618
5157.101562 98.805 -55.6504
5194.472168 98.636 -56.2853
5232.113281 98.460 -56.7296
5270.027344 98.288 -56.9971
5308.216309 98.130 -57.0763
5346.681641 97.993 -57.0077
5385.426270 97.883 -56.8119
5424.451172 97.805 -56.5375
5463.758789 97.765 -56.2213
5503.351562 97.761 -55.9184
5543.230957 97.796 -55.6842
5583.399414 97.861 -55.5543
5623.859375 97.949 -55.5799
5664.611816 98.053 -55.7686
5705.660156 98.166 -56.1480
5747.005859 98.280 -56.7086
5788.650879 98.389 -57.4591
5830.597656 98.487 -58.3719
5872.848633 98.565 -59.4345
5915.405762 98.623 -60.6107
5958.271484 98.657 -61.8711
6001.447266 98.667 -63.1822
6044.936523 98.651 -64.5115
6088.740234 98.611 -65.8255
6132.861816 98.546 -67.0869
6177.303223 98.461 -68.2743
6222.066406 98.359 -69.3561
6267.154297 98.245 -70.3254
6312.568359 98.122 -71.1621
6358.312012 97.997 -71.8737
6404.386719 97.874 -72.4540
6450.795898 97.759 -72.9248
6497.541016 97.655 -73.2971
6544.625000 97.566 -73.5976
6592.049805 97.495 -73.8488
6639.818359 97.440 -74.0749
6687.933594 97.403 -74.3029
6736.396973 97.379 -74.5467
6785.211426 97.368 -74.8279
6834.379883 97.367 -75.1502
6883.904785 97.373 -75.5242
6933.788574 97.384 -75.9507
6984.033691 97.400 -76.4355
7034.642578 97.417 -76.9742
7085.618652 97.432 -77.5675
7136.963867 97.445 -78.2047
7188.681152 97.455 -78.8769
7240.773438 97.462 -79.5784
7293.243164 97.465 -80.3021
7346.092773 97.465 -81.0432
7399.325684 97.462 -81.7935
7452.944336 97.458 -82.5561
7506.951172 97.453 -83.3301
7561.350098 97.448 -84.1199
7616.142578 97.442 -84.9294
7671.332031 97.434 -85.7597
7726.921875 97.424 -86.6155
7782.914551 97.408 -87.4895
7839.312500 97.386 -88.3818
7896.119629 97.355 -89.2743
7953.337891 97.314 -90.1563
8010.971191 97.263 -91.0046
8069.021973 97.202 -91.7982
8127.493164 97.133 -92.5194
8186.388672 97.060 -93.1448
8245.710938 96.988 -93.6715
8305.461914 96.921 -94.0836
8365.647461 96.865 -94.3966
8426.267578 96.827 -94.6103
8487.328125 96.810 -94.7554
8548.831055 96.822 -94.8496
8610.779297 96.863 -94.9315
8673.176758 96.937 -95.0318
8736.026367 97.044 -95.1919
8799.331055 97.186 -95.4508
8863.094727 97.356 -95.8465
8927.320312 97.553 -96.4224
8992.010742 97.771 -97.2003
9057.170898 98.002 -98.2123
9122.802734 98.243 -99.4697
9188.910156 98.486 -100.9940
9255.497070 98.727 -102.7866
9322.566406 98.958 -104.8600
9390.121094 99.173 -107.2019
9458.166016 99.366 -109.8103
9526.704102 99.533 -112.6653
9595.738281 99.669 -115.7549
9665.273438 99.770 -119.0540
9735.311523 99.832 -122.5461
9805.857422 99.851 -126.1939
9876.915039 99.820 -129.9700
9948.487305 99.740 -133.8280
10020.578125 99.606 -137.7254
10093.191406 99.421 -141.6220
10166.331055 99.183 -145.4780
10240.000000 98.892 -149.2494
10314.203125 98.544 -152.8980
10388.944336 98.143 -156.3660
10464.226562 97.687 -159.5983
10540.054688 97.182 -162.5484
10616.432617 96.632 -165.1707
10693.363281 96.037 -167.4060
10770.852539 95.394 -169.1930
10848.902344 94.719 -170.4953
10927.517578 94.020 -171.2487
11006.703125 93.313 -171.4772
11086.461914 92.610 -171.1641
11166.798828 91.930 -170.3687
11247.718750 91.288 -169.1112
11329.223633 90.704 -167.4922
11411.320312 90.203 -165.5842
11494.011719 89.786 -163.4926
11577.301758 89.464 -161.3254
11661.195312 89.225 -159.1470
11745.697266 89.066 -157.0456
11830.811523 88.977 -155.0574
11916.542969 88.950 -153.2440
12002.894531 88.974 -151.6165
12089.873047 89.035 -150.2050
12177.480469 89.130 -149.0121
12265.723633 89.256 -148.0466
12354.606445 89.407 -147.3203
12444.132812 89.580 -146.8418
12534.308594 89.769 -146.6294
12625.136719 89.973 -146.7022
12716.624023 90.182 -147.0663
12808.773438 90.387 -147.7414
12901.591797 90.581 -148.7047
12995.082031 90.755 -149.9531
13089.250000 90.904 -151.4479
13184.099609 91.023 -153.1658
13279.636719 91.108 -155.0559
13375.867188 91.153 -157.0746
13472.793945 91.163 -159.1759
13570.422852 91.137 -161.3062
13668.759766 91.080 -163.4443
13767.809570 90.996 -165.5518
13867.577148 90.888 -167.6271
13968.067383 90.762 -169.6533
14069.285156 90.619 -171.6388
14171.237305 90.462 -173.5867
14273.927734 90.292 -175.4970
14377.362305 90.108 -177.3754
14481.546875 89.910 -179.2077
14586.486328 89.695 179.0118
14692.185547 89.463 177.3027
14798.651367 89.216 175.6836
14905.888672 88.956 174.1655
15013.902344 88.684 172.7704
15122.700195 88.409 171.4840
15232.285156 88.136 170.3122
15342.664062 87.871 169.2155
15453.843750 87.618 168.1729
15565.829102 87.378 167.1337
15678.625000 87.159 166.0513
15792.239258 86.950 164.8915
15906.675781 86.748 163.6046
16021.942383 86.541 162.1910
16138.043945 86.324 160.6168
16254.986328 86.082 158.9360
16372.777344 85.804 157.1575
16491.421875 85.481 155.3847
16610.923828 85.103 153.6771
16731.294922 84.668 152.1769
16852.535156 84.163 151.0075
16974.656250 83.604 150.2858
17097.662109 82.992 150.1714
17221.558594 82.359 150.6601
17346.353516 81.724 151.8431
17472.052734 81.128 153.5898
17598.662109 80.609 155.8758
17726.189453 80.200 158.4704
17854.640625 79.951 161.2148
17984.021484 79.847 163.8650
18114.341797 79.907 166.1628
18245.605469 80.072 167.9902
18377.820312 80.302 169.1362
18510.994141 80.559 169.6241
18645.132812 80.805 169.3481
18780.242188 81.006 168.4880
18916.332031 81.115 167.1201
19053.408203 81.146 165.4570
19191.476562 81.092 163.7073
19330.546875 80.970 161.9602
19470.623047 80.790 160.3630
19611.714844 80.562 158.9474
19753.830078 80.292 157.8064
19896.974609 80.005 156.9018
