* Measurement data measured by REW V5.20.13
* Source: C:\Users\kurin\Desktop\Targets and Curves\Resolve\Img\Files\Ananda 2021_SPL.txt
* Format: Comma/Tab/Space delimited data
* Dated: Aug 14, 2023 2:44:37 PM
* REW Settings:
*  C-weighting compensation: Off
*  Target level: 75.0 dB
* Note: ; Measurement imported from C:\Users\kurin\Desktop\Targets and Curves\Resolve\Img\Files\Ananda 2021_SPL.txt Format: Comma/Tab/Space delimited data 623 values loaded, 5 Hz to 39,792 Hz log spaced 
* Measurement: Ananda 2021_SPL
* Smoothing: 1/48 octave
* Frequency Step: 1/96 octave
* Start Frequency: 5.000 Hz
*
* Freq(Hz) SPL(dB) Phase(degrees)
5.000000 87.257 17.2070
5.036232 87.262 17.2031
5.072727 87.268 17.1990
5.109486 87.275 17.1943
5.146511 87.284 17.1890
5.183805 87.294 17.1827
5.221369 87.304 17.1760
5.259205 87.315 17.1696
5.297316 87.327 17.1630
5.335702 87.339 17.1561
5.374367 87.352 17.1490
5.413311 87.364 17.1421
5.452538 87.377 17.1350
5.492050 87.390 17.1275
5.531847 87.403 17.1200
5.571934 87.416 17.1129
5.612310 87.428 17.1060
5.652979 87.441 17.0991
5.693943 87.453 17.0920
5.735204 87.465 17.0846
5.776763 87.478 17.0770
5.818624 87.490 17.0695
5.860788 87.503 17.0620
5.903258 87.515 17.0545
5.946035 87.528 17.0470
5.989123 87.541 17.0395
6.032523 87.554 17.0320
6.076237 87.567 17.0246
6.120268 87.579 17.0170
6.164618 87.591 17.0091
6.209289 87.604 17.0010
6.254284 87.616 16.9930
6.299605 87.629 16.9850
6.345255 87.641 16.9770
6.391235 87.654 16.9690
6.437549 87.667 16.9611
6.484198 87.680 16.9530
6.531185 87.693 16.9445
6.578513 87.705 16.9360
6.626183 87.717 16.9280
6.674199 87.730 16.9200
6.722563 87.743 16.9116
6.771278 87.755 16.9030
6.820345 87.767 16.8940
6.869768 87.780 16.8850
6.919549 87.792 16.8765
6.969691 87.805 16.8680
7.020196 87.818 16.8591
7.071068 87.831 16.8500
7.122308 87.844 16.8410
7.173919 87.856 16.8320
7.225904 87.868 16.8231
7.278266 87.881 16.8140
7.331007 87.893 16.8045
7.384131 87.906 16.7950
7.437639 87.918 16.7860
7.491535 87.931 16.7770
7.545822 87.944 16.7676
7.600502 87.957 16.7580
7.655579 87.970 16.7480
7.711054 87.982 16.7380
7.766932 87.994 16.7285
7.823214 88.007 16.7190
7.879904 88.019 16.7091
7.937005 88.032 16.6990
7.994520 88.044 16.6891
8.052452 88.057 16.6790
8.110803 88.069 16.6686
8.169578 88.082 16.6580
8.228777 88.095 16.6475
8.288406 88.108 16.6370
8.348468 88.121 16.6265
8.408964 88.133 16.6160
8.469899 88.145 16.6056
8.531276 88.158 16.5950
8.593097 88.170 16.5841
8.655366 88.183 16.5730
8.718086 88.195 16.5620
8.781260 88.208 16.5510
8.844893 88.221 16.5401
8.908987 88.234 16.5290
8.973545 88.247 16.5176
9.038571 88.259 16.5060
9.104069 88.271 16.4946
9.170040 88.284 16.4830
9.236490 88.296 16.4711
9.303422 88.309 16.4590
9.370838 88.321 16.4470
9.438744 88.334 16.4350
9.507140 88.346 16.4230
9.576033 88.359 16.4110
9.645425 88.372 16.3991
9.715320 88.385 16.3870
9.785721 88.398 16.3746
9.856632 88.410 16.3620
9.928058 88.422 16.3490
10.000000 88.435 16.3360
10.072464 88.447 16.3235
10.145453 88.460 16.3110
10.218971 88.472 16.2981
10.293022 88.485 16.2850
10.367610 88.498 16.2716
10.442738 88.511 16.2580
10.518411 88.524 16.2445
10.594631 88.536 16.2310
10.671404 88.549 16.2176
10.748734 88.561 16.2040
10.826623 88.573 16.1901
10.905077 88.586 16.1760
10.984100 88.598 16.1615
11.063695 88.611 16.1470
11.143867 88.623 16.1331
11.224621 88.636 16.1190
11.305959 88.649 16.1041
11.387886 88.662 16.0890
11.470407 88.675 16.0745
11.553527 88.687 16.0600
11.637249 88.699 16.0451
11.721577 88.712 16.0300
11.806517 88.724 16.0146
11.892071 88.737 15.9990
11.978246 88.749 15.9836
12.065045 88.762 15.9680
12.152473 88.774 15.9521
12.240536 88.787 15.9360
12.329235 88.800 15.9201
12.418578 88.813 15.9040
12.508568 88.826 15.8876
12.599211 88.838 15.8710
12.690510 88.850 15.8546
12.782471 88.863 15.8380
12.875097 88.875 15.8211
12.968395 88.888 15.8040
13.062370 88.900 15.7866
13.157025 88.913 15.7690
13.252366 88.926 15.7516
13.348398 88.939 15.7340
13.445127 88.952 15.7161
13.542556 88.964 15.6980
13.640691 88.976 15.6801
13.739536 88.989 15.6620
13.839099 89.001 15.6436
13.939383 89.014 15.6250
14.040393 89.026 15.6061
14.142136 89.039 15.5870
14.244616 89.051 15.5681
14.347837 89.064 15.5490
14.451808 89.077 15.5296
14.556532 89.090 15.5100
14.662014 89.103 15.4901
14.768262 89.115 15.4700
14.875278 89.127 15.4496
14.983070 89.140 15.4290
15.091644 89.152 15.4086
15.201005 89.165 15.3880
15.311157 89.177 15.3666
15.422109 89.190 15.3450
15.533863 89.203 15.3236
15.646428 89.216 15.3020
15.759809 89.229 15.2801
15.874010 89.241 15.2580
15.989040 89.253 15.2356
16.104904 89.266 15.2130
16.221605 89.278 15.1901
16.339155 89.291 15.1670
16.457554 89.303 15.1437
16.576813 89.316 15.1200
16.696936 89.328 15.0956
16.817928 89.341 15.0710
16.939798 89.354 15.0466
17.062551 89.367 15.0220
17.186193 89.380 14.9972
17.310732 89.392 14.9720
17.436172 89.404 14.9467
17.562521 89.417 14.9210
17.689787 89.429 14.8947
17.817974 89.442 14.8680
17.947090 89.454 14.8411
18.077143 89.467 14.8140
18.208138 89.480 14.7867
18.340080 89.493 14.7590
18.472980 89.506 14.7308
18.606844 89.518 14.7020
18.741676 89.530 14.6726
18.877487 89.543 14.6430
19.014280 89.555 14.6138
19.152065 89.568 14.5840
19.290850 89.581 14.5527
19.430639 89.594 14.5200
19.571442 89.607 14.4861
19.713264 89.620 14.4500
19.856115 89.634 14.4108
20.000000 89.647 14.3690
20.144928 89.658 14.3237
20.290907 89.668 14.2790
20.437943 89.678 14.2398
20.586044 89.688 14.2030
20.735220 89.699 14.1668
20.885475 89.709 14.1330
21.036821 89.718 14.1020
21.189262 89.726 14.0760
21.342808 89.734 14.0600
21.497467 89.744 14.0470
21.653246 89.757 14.0306
21.810154 89.771 14.0150
21.968201 89.781 14.0033
22.127390 89.793 13.9920
22.287735 89.810 13.9828
22.449242 89.829 13.9640
22.611917 89.850 13.9215
22.775772 89.871 13.8651
22.940815 89.886 13.7985
23.107054 89.899 13.7251
23.274498 89.913 13.6494
23.443153 89.926 13.5721
23.613033 89.934 13.4931
23.784142 89.941 13.4191
23.956491 89.947 13.3585
24.130091 89.953 13.3051
24.304947 89.961 13.2556
24.481071 89.970 13.2091
24.658470 89.977 13.1637
24.837156 89.985 13.1181
25.017136 89.995 13.0727
25.198421 90.006 13.0201
25.381020 90.018 12.9498
25.564941 90.027 12.8711
25.750195 90.030 12.7840
25.936790 90.029 12.7061
26.124741 90.022 12.6559
26.314051 90.013 12.6300
26.504732 90.009 12.6350
26.696796 90.006 12.6600
26.890253 90.005 12.6938
27.085112 90.006 12.7429
27.281382 90.006 12.8130
27.479073 90.009 12.8949
27.678198 90.022 12.9844
27.878765 90.040 13.0719
28.080786 90.059 13.1472
28.284271 90.081 13.2079
28.489231 90.108 13.2480
28.695675 90.137 13.2680
28.903616 90.164 13.2625
29.113064 90.190 13.2430
29.324028 90.213 13.2226
29.536524 90.237 13.1920
29.750557 90.266 13.1464
29.966141 90.295 13.0861
30.183289 90.318 13.0055
30.402010 90.339 12.9181
30.622314 90.358 12.8399
30.844217 90.377 12.7581
31.067726 90.402 12.6662
31.292856 90.427 12.5612
31.519617 90.449 12.4351
31.748020 90.468 12.2962
31.978081 90.485 12.1496
32.209808 90.499 11.9962
32.443211 90.511 11.8374
32.678310 90.520 11.6762
32.915108 90.526 11.5141
33.153625 90.529 11.3572
33.393871 90.527 11.2098
33.635857 90.522 11.0782
33.879597 90.514 10.9706
34.125103 90.505 10.8861
34.372387 90.497 10.8281
34.621464 90.491 10.7910
34.872345 90.487 10.7726
35.125042 90.485 10.7670
35.379574 90.487 10.7694
35.635948 90.492 10.7740
35.894180 90.500 10.7736
36.154285 90.511 10.7680
36.416275 90.522 10.7552
36.680161 90.534 10.7340
36.945961 90.549 10.7038
37.213688 90.565 10.6611
37.483353 90.582 10.6013
37.754974 90.598 10.5271
38.028561 90.612 10.4390
38.304131 90.625 10.3391
38.581699 90.637 10.2293
38.861279 90.647 10.1112
39.142883 90.654 9.9851
39.426529 90.659 9.8572
39.712231 90.660 9.7322
40.000000 90.657 9.6152
40.289856 90.652 9.5116
40.581814 90.644 9.4251
40.875885 90.635 9.3621
41.172089 90.626 9.3191
41.470440 90.620 9.2968
41.770950 90.616 9.2880
42.073643 90.616 9.2869
42.378525 90.618 9.2890
42.685616 90.622 9.2889
42.994934 90.629 9.2840
43.306492 90.638 9.2704
43.620308 90.648 9.2470
43.936401 90.659 9.2117
44.254780 90.670 9.1641
44.575470 90.681 9.1021
44.898483 90.691 9.0291
45.223835 90.699 8.9462
45.551544 90.705 8.8581
45.881630 90.708 8.7694
46.214108 90.709 8.6821
46.548996 90.709 8.5997
46.886307 90.708 8.5231
47.226067 90.705 8.4543
47.568283 90.701 8.3941
47.912983 90.697 8.3453
48.260181 90.694 8.3041
48.609894 90.692 8.2682
48.962143 90.691 8.2360
49.316940 90.690 8.2053
49.674313 90.690 8.1760
50.034271 90.690 8.1476
50.396843 90.690 8.1200
50.762039 90.690 8.0929
51.129883 90.690 8.0670
51.500389 90.690 8.0430
51.873581 90.690 8.0210
52.249481 90.690 8.0018
52.628101 90.690 7.9850
53.009464 90.691 7.9713
53.393593 90.693 7.9590
53.780506 90.696 7.9480
54.170223 90.701 7.9340
54.562763 90.707 7.9137
54.958145 90.714 7.8841
55.356396 90.722 7.8405
55.757530 90.729 7.7841
56.161572 90.735 7.7136
56.568542 90.739 7.6321
56.978462 90.740 7.5397
57.391350 90.738 7.4452
57.807232 90.730 7.3552
58.226128 90.719 7.2761
58.648056 90.705 7.2168
59.073048 90.690 7.1770
59.501114 90.674 7.1606
59.932281 90.658 7.1650
60.366577 90.643 7.1909
60.804020 90.629 7.2329
61.244629 90.619 7.2876
61.688435 90.612 7.3489
62.135452 90.607 7.4095
62.585712 90.604 7.4699
63.039234 90.601 7.5269
63.496040 90.598 7.5849
63.956161 90.594 7.6460
64.419617 90.589 7.7139
64.886421 90.584 7.7942
65.356621 90.581 7.8838
65.830215 90.580 7.9826
66.307251 90.582 8.0868
66.787743 90.585 8.1935
67.271713 90.591 8.2998
67.759193 90.599 8.4028
68.250206 90.609 8.4998
68.744774 90.621 8.5859
69.242928 90.633 8.6659
69.744690 90.643 8.7410
70.250084 90.652 8.8169
70.759148 90.661 8.8995
71.271896 90.671 8.9878
71.788361 90.682 9.0833
72.308571 90.695 9.1838
72.832550 90.710 9.2889
73.360321 90.727 9.3948
73.891922 90.748 9.4984
74.427376 90.771 9.5968
74.966705 90.797 9.6864
75.509949 90.825 9.7659
76.057121 90.855 9.8338
76.608261 90.886 9.8869
77.163399 90.920 9.9201
77.722557 90.955 9.9380
78.285767 90.987 9.9441
78.853058 91.020 9.9360
79.424461 91.057 9.9152
80.000000 91.095 9.8741
80.579712 91.133 9.8031
81.163628 91.170 9.7102
81.751770 91.202 9.5997
82.344177 91.232 9.4733
82.940880 91.262 9.3342
83.541901 91.291 9.1823
84.147285 91.316 9.0170
84.757050 91.338 8.8433
85.371231 91.357 8.6669
85.989868 91.374 8.4854
86.612984 91.390 8.2963
87.240616 91.402 8.1064
87.872803 91.408 7.9199
88.509560 91.411 7.7414
89.150940 91.413 7.5774
89.796967 91.414 7.4263
90.447670 91.413 7.2877
91.103088 91.411 7.1632
91.763260 91.408 7.0560
92.428215 91.406 6.9622
93.097992 91.407 6.8818
93.772614 91.410 6.8072
94.452133 91.415 6.7307
95.136566 91.422 6.6512
95.825966 91.429 6.5649
96.520363 91.436 6.4722
97.219788 91.444 6.3721
97.924286 91.452 6.2652
98.633881 91.459 6.1518
99.348625 91.465 6.0323
100.068542 91.471 5.9079
100.793686 91.477 5.7763
101.524078 91.482 5.6360
102.259766 91.487 5.4854
103.000778 91.491 5.3202
103.747162 91.492 5.1473
104.498962 91.487 4.9696
105.256203 91.477 4.7953
106.018929 91.464 4.6342
106.787186 91.449 4.4853
107.561012 91.432 4.3477
108.340446 91.412 4.2302
109.125526 91.386 4.1401
109.916290 91.359 4.0801
110.712791 91.334 4.0599
111.515060 91.312 4.0660
112.323143 91.295 4.0889
113.137085 91.282 4.1249
113.956924 91.270 4.1680
114.782700 91.262 4.2149
115.614464 91.259 4.2626
116.452255 91.259 4.3049
117.296112 91.262 4.3346
118.146095 91.266 4.3510
119.002228 91.272 4.3504
119.864563 91.278 4.3351
120.733154 91.282 4.3043
121.608040 91.285 4.2631
122.489258 91.286 4.2143
123.376869 91.285 4.1631
124.270905 91.281 4.1147
125.171425 91.276 4.0721
126.078468 91.269 4.0403
126.992081 91.261 4.0180
127.912323 91.254 4.0059
128.839233 91.248 4.0030
129.772842 91.242 4.0093
130.713242 91.237 4.0230
131.660431 91.233 4.0435
132.614502 91.231 4.0669
133.575485 91.231 4.0896
134.543427 91.233 4.1100
135.518387 91.236 4.1252
136.500412 91.239 4.1360
137.489548 91.242 4.1421
138.485855 91.246 4.1440
139.489380 91.250 4.1421
140.500168 91.254 4.1370
141.518295 91.258 4.1291
142.543793 91.262 4.1190
143.576721 91.265 4.1075
144.617142 91.269 4.0940
145.665100 91.273 4.0784
146.720642 91.277 4.0610
147.783844 91.280 4.0427
148.854752 91.284 4.0231
149.933411 91.288 4.0018
151.019897 91.292 3.9791
152.114243 91.295 3.9548
153.216522 91.299 3.9291
154.326797 91.303 3.9018
155.445114 91.307 3.8731
156.571533 91.311 3.8429
157.706116 91.315 3.8111
158.848923 91.318 3.7776
160.000000 91.322 3.7421
161.159424 91.326 3.7042
162.327255 91.330 3.6641
163.503540 91.333 3.6224
164.688354 91.337 3.5781
165.881760 91.341 3.5304
167.083801 91.345 3.4791
168.294571 91.348 3.4246
169.514099 91.352 3.3652
170.742462 91.356 3.2997
171.979736 91.360 3.2272
173.225967 91.363 3.1459
174.481232 91.365 3.0562
175.745605 91.366 2.9572
177.019119 91.364 2.8513
178.301880 91.360 2.7376
179.593933 91.352 2.6253
180.895340 91.339 2.5206
182.206177 91.322 2.4312
183.526520 91.303 2.3671
184.856430 91.283 2.3271
186.195984 91.263 2.3157
187.545227 91.245 2.3260
188.904266 91.231 2.3566
190.273132 91.221 2.3939
191.651932 91.217 2.4263
193.040726 91.217 2.4460
194.439575 91.219 2.4400
195.848572 91.220 2.4121
197.267761 91.219 2.3570
198.697250 91.214 2.2882
200.137085 91.202 2.2109
201.587372 91.183 2.1451
203.048157 91.156 2.1124
204.519531 91.126 2.1129
206.001556 91.099 2.1576
207.494324 91.073 2.2368
208.997925 91.050 2.3466
210.512405 91.030 2.4797
212.037857 91.017 2.6317
213.574371 91.009 2.7886
215.122025 91.009 2.9361
216.680893 91.014 3.0707
218.251053 91.019 3.1810
219.832581 91.025 3.2757
221.425583 91.029 3.3576
223.030121 91.032 3.4328
224.646286 91.034 3.5082
226.274170 91.036 3.5848
227.913849 91.037 3.6655
229.565399 91.039 3.7518
231.228928 91.041 3.8472
232.904510 91.045 3.9477
234.592224 91.052 4.0538
236.292191 91.062 4.1557
238.004456 91.077 4.2420
239.729126 91.092 4.3178
241.466309 91.104 4.3841
243.216080 91.116 4.4419
244.978516 91.132 4.4938
246.753738 91.149 4.5359
248.541809 91.164 4.5597
250.342850 91.177 4.5809
252.156937 91.184 4.6142
253.984161 91.191 4.6549
255.824646 91.205 4.7072
257.678467 91.222 4.7589
259.545685 91.240 4.7984
261.426483 91.260 4.8279
263.320862 91.281 4.8485
265.229004 91.304 4.8530
267.150970 91.330 4.8349
269.086853 91.357 4.7932
271.036774 91.381 4.7197
273.000824 91.402 4.6293
274.979095 91.415 4.5307
276.971710 91.425 4.4343
278.978760 91.432 4.3563
281.000336 91.438 4.2882
283.036591 91.448 4.2280
285.087585 91.459 4.1722
287.153442 91.468 4.1170
289.234283 91.479 4.0612
291.330200 91.493 4.0074
293.441284 91.511 3.9402
295.567688 91.534 3.8442
297.709503 91.557 3.7214
299.866821 91.575 3.5665
302.039795 91.591 3.3866
304.228485 91.605 3.1856
306.433044 91.615 2.9666
308.653595 91.619 2.7318
310.890228 91.618 2.4877
313.143066 91.613 2.2386
315.412231 91.602 1.9937
317.697845 91.583 1.7634
320.000000 91.560 1.5476
322.318848 91.537 1.3525
324.654510 91.512 1.1696
327.007080 91.486 0.9909
329.376709 91.456 0.8215
331.763519 91.421 0.6625
334.167603 91.383 0.5184
336.589142 91.342 0.3932
339.028198 91.297 0.2903
341.484924 91.248 0.2116
343.959473 91.194 0.1651
346.451935 91.136 0.1580
348.962463 91.076 0.1948
351.491211 91.015 0.2821
354.038239 90.953 0.4215
356.603760 90.891 0.6192
359.187866 90.833 0.8682
361.790680 90.783 1.1667
364.412354 90.738 1.5050
367.053040 90.700 1.8733
369.712860 90.668 2.2697
372.391968 90.643 2.6916
375.090454 90.627 3.1307
377.808533 90.620 3.5827
380.546265 90.623 4.0337
383.303864 90.637 4.4709
386.081451 90.659 4.8858
388.879150 90.687 5.2637
391.697144 90.720 5.6110
394.535522 90.753 5.9279
397.394501 90.789 6.2182
400.274170 90.827 6.4839
403.174744 90.866 6.7302
406.096313 90.903 6.9637
409.039062 90.943 7.1823
412.003113 90.988 7.3873
414.988647 91.037 7.5754
417.995850 91.085 7.7459
421.024811 91.137 7.8926
424.075714 91.195 8.0112
427.148743 91.255 8.0948
430.244049 91.315 8.1335
433.361786 91.375 8.1321
436.502106 91.434 8.0897
439.665161 91.490 8.0133
442.851166 91.541 7.9079
446.060242 91.588 7.7784
449.292572 91.633 7.6307
452.548340 91.674 7.4665
455.827698 91.711 7.2876
459.130798 91.744 7.0996
462.457855 91.773 6.9074
465.809021 91.799 6.7146
469.184448 91.821 6.5300
472.584381 91.843 6.3436
476.008911 91.868 6.1489
479.458252 91.893 5.9437
482.932617 91.913 5.7214
486.432159 91.930 5.4888
489.957031 91.944 5.2508
493.507477 91.955 5.0058
497.083618 91.963 4.7526
500.685699 91.968 4.4939
504.313873 91.968 4.2286
507.968323 91.962 3.9668
511.649292 91.949 3.7159
515.356934 91.931 3.4837
519.091370 91.909 3.2809
522.852966 91.883 3.1065
526.641724 91.856 2.9647
530.458008 91.828 2.8503
534.301941 91.801 2.7577
538.173706 91.773 2.6922
542.073547 91.741 2.6555
546.001648 91.709 2.6529
549.958191 91.678 2.6948
553.943420 91.651 2.7677
557.957520 91.632 2.8622
562.000671 91.617 2.9766
566.073181 91.602 3.1062
570.175171 91.591 3.2505
574.306885 91.588 3.4138
578.468567 91.592 3.5775
582.660400 91.605 3.7228
586.882568 91.623 3.8536
591.135376 91.639 3.9669
595.419006 91.659 4.0637
599.733643 91.684 4.1479
604.079590 91.714 4.2078
608.456970 91.747 4.2300
612.866089 91.781 4.2241
617.307190 91.811 4.1954
621.780457 91.841 4.1432
626.286133 91.875 4.0722
630.824463 91.911 3.9704
635.395691 91.947 3.8251
640.000000 91.982 3.6427
644.637695 92.011 3.4228
649.309021 92.036 3.1729
654.014160 92.056 2.8978
658.753418 92.071 2.6060
663.527039 92.077 2.3056
668.335205 92.077 2.0030
673.178284 92.073 1.7081
678.056396 92.066 1.4190
682.969849 92.055 1.1385
687.918945 92.041 0.8620
692.903870 92.027 0.5885
697.924927 92.012 0.3090
702.982422 91.996 0.0131
708.076477 91.975 -0.2959
713.207520 91.947 -0.6214
718.375732 91.912 -0.9528
723.581360 91.868 -1.2870
728.824707 91.813 -1.6049
734.106079 91.744 -1.8941
739.425720 91.663 -2.1313
744.783936 91.570 -2.2909
750.180908 91.469 -2.3669
755.617065 91.366 -2.3453
761.092529 91.260 -2.2246
766.607727 91.153 -1.9964
772.162903 91.050 -1.6683
777.758301 90.958 -1.2389
783.394287 90.876 -0.7279
789.071045 90.810 -0.1506
794.789001 90.757 0.4797
800.548340 90.719 1.1501
806.349487 90.698 1.8435
812.192627 90.696 2.5442
818.078125 90.710 3.2345
824.006226 90.740 3.8942
829.977295 90.785 4.5149
835.991699 90.841 5.0842
842.049622 90.908 5.5942
848.151428 90.986 6.0343
854.297485 91.071 6.3998
860.488098 91.160 6.6804
866.723572 91.251 6.8834
873.004211 91.340 7.0098
879.330322 91.427 7.0689
885.702332 91.511 7.0687
892.120483 91.592 7.0143
898.585144 91.669 6.9111
905.096680 91.743 6.7656
911.655396 91.811 6.5874
918.261597 91.877 6.3729
924.915710 91.943 6.1232
931.618042 92.007 5.8341
938.368896 92.065 5.4997
945.168762 92.119 5.1255
952.017822 92.167 4.7132
958.916504 92.208 4.2678
965.865234 92.241 3.7922
972.864319 92.266 3.2939
979.914062 92.282 2.7778
987.014954 92.290 2.2540
994.167236 92.287 1.7313
1001.371399 92.276 1.2178
1008.627747 92.257 0.7245
1015.936646 92.231 0.2520
1023.298584 92.201 -0.1955
1030.713867 92.167 -0.6187
1038.182739 92.129 -1.0163
1045.705933 92.089 -1.3904
1053.283447 92.047 -1.7389
1060.916016 92.005 -2.0726
1068.603882 91.966 -2.3951
1076.347412 91.929 -2.7256
1084.147095 91.895 -3.0830
1092.003296 91.860 -3.4726
1099.916382 91.821 -3.9109
1107.886841 91.773 -4.3829
1115.915039 91.712 -4.8834
1124.001343 91.638 -5.3991
1132.146362 91.553 -5.9239
1140.350342 91.451 -6.4311
1148.613770 91.325 -6.9028
1156.937134 91.179 -7.3055
1165.320801 91.015 -7.6018
1173.765137 90.838 -7.7855
1182.270752 90.652 -7.8435
1190.838013 90.456 -7.7587
1199.467285 90.247 -7.5115
1208.159180 90.037 -7.0960
1216.913940 89.833 -6.4921
1225.732178 89.640 -5.7231
1234.614380 89.461 -4.7978
1243.560913 89.302 -3.7402
1252.572266 89.165 -2.5622
1261.648926 89.057 -1.3091
1270.791382 88.987 -0.0174
1280.000000 88.947 1.2730
1289.275391 88.935 2.5151
1298.618042 88.946 3.6933
1308.028320 88.978 4.7758
1317.506836 89.023 5.7630
1327.054077 89.074 6.6388
1336.670410 89.129 7.4211
1346.356567 89.182 8.1178
1356.112793 89.233 8.7428
1365.939697 89.282 9.3105
1375.837891 89.327 9.8279
1385.807739 89.367 10.3045
1395.849854 89.404 10.7473
1405.964844 89.436 11.1634
1416.152954 89.464 11.5625
1426.415039 89.484 11.9540
1436.751465 89.500 12.3465
1447.162720 89.512 12.7514
1457.649414 89.520 13.1703
1468.212158 89.526 13.6048
1478.851440 89.530 14.0652
1489.567871 89.529 14.5652
1500.361816 89.530 15.0959
1511.234131 89.540 15.6606
1522.185059 89.557 16.2354
1533.215454 89.581 16.7953
1544.325806 89.608 17.3466
1555.516602 89.631 17.8859
1566.788574 89.654 18.4178
1578.142090 89.680 18.9463
1589.578003 89.705 19.4688
1601.096680 89.728 19.9769
1612.698975 89.746 20.4918
1624.385254 89.754 21.0249
1636.156250 89.757 21.5983
1648.012451 89.755 22.2369
1659.954590 89.751 22.9442
1671.983398 89.750 23.7329
1684.099243 89.754 24.6002
1696.302856 89.766 25.5535
1708.594971 89.792 26.5753
1720.976196 89.836 27.6610
1733.447144 89.899 28.7791
1746.008423 89.985 29.9038
1758.660645 90.092 31.0135
1771.404663 90.215 32.0825
1784.240967 90.354 33.0980
1797.170288 90.509 34.0406
1810.193359 90.674 34.9037
1823.310791 90.847 35.6700
1836.523193 91.022 36.3525
1849.831421 91.196 36.9566
1863.236084 91.370 37.4888
1876.737793 91.546 37.9547
1890.337524 91.720 38.3613
1904.035645 91.888 38.7120
1917.833008 92.050 39.0228
1931.730469 92.208 39.3084
1945.728638 92.362 39.5769
1959.828125 92.514 39.8422
1974.029907 92.665 40.1009
1988.334473 92.820 40.3554
2002.742798 92.977 40.6020
2017.255493 93.135 40.8405
2031.873291 93.296 41.0632
2046.597168 93.464 41.2653
2061.427734 93.635 41.4383
2076.365479 93.807 41.5680
2091.411865 93.977 41.6657
2106.566895 94.143 41.7342
2121.832031 94.306 41.7848
2137.207764 94.469 41.8291
2152.694824 94.631 41.8688
2168.294189 94.795 41.9084
2184.006592 94.961 41.9508
2199.832764 95.129 42.0055
2215.773682 95.303 42.0578
2231.830078 95.489 42.1012
2248.002686 95.683 42.1200
2264.292725 95.883 42.0979
2280.700684 96.088 42.0294
2297.227539 96.301 41.9025
2313.874268 96.516 41.7209
2330.641602 96.729 41.4854
2347.530273 96.943 41.1934
2364.541504 97.164 40.8439
2381.676025 97.386 40.4330
2398.934570 97.604 39.9524
2416.318359 97.819 39.4145
2433.827881 98.030 38.8304
2451.464355 98.239 38.1958
2469.228760 98.449 37.5095
2487.121826 98.656 36.7723
2505.144531 98.857 35.9824
2523.297852 99.053 35.1449
2541.582764 99.248 34.2635
2560.000000 99.438 33.3402
2578.550781 99.622 32.3773
2597.236084 99.801 31.3777
2616.056641 99.977 30.3494
2635.013672 100.150 29.2796
2654.108154 100.324 28.1563
2673.340820 100.492 26.9852
2692.713135 100.648 25.7634
2712.225586 100.794 24.5050
2731.879395 100.933 23.2236
2751.675781 101.063 21.9171
2771.615479 101.187 20.5832
2791.699707 101.302 19.2350
2811.929688 101.403 17.8822
2832.305908 101.497 16.5333
2852.830078 101.584 15.2017
2873.502930 101.667 13.8827
2894.325439 101.746 12.5799
2915.298828 101.823 11.2809
2936.424316 101.902 9.9765
2957.702881 101.979 8.6608
2979.135742 102.051 7.3222
3000.723633 102.119 5.9679
3022.468262 102.179 4.6016
3044.370117 102.234 3.2234
3066.430908 102.285 1.8324
3088.651611 102.330 0.4333
3111.033203 102.365 -0.9743
3133.577148 102.393 -2.3764
3156.284180 102.411 -3.7561
3179.156006 102.424 -5.1215
3202.193359 102.439 -6.4741
3225.397949 102.449 -7.8166
3248.770508 102.451 -9.1567
3272.312500 102.446 -10.4811
3296.024902 102.436 -11.7757
3319.909180 102.423 -13.0501
3343.966797 102.411 -14.3095
3368.198486 102.397 -15.5531
3392.605713 102.376 -16.7837
3417.189941 102.352 -17.9964
3441.952393 102.327 -19.1840
3466.894287 102.301 -20.3568
3492.016846 102.277 -21.5225
3517.321289 102.251 -22.6826
3542.809326 102.223 -23.8434
3568.481934 102.191 -24.9987
3594.340576 102.156 -26.1445
3620.386719 102.117 -27.2806
3646.621582 102.077 -28.4042
3673.046387 102.035 -29.5197
3699.662842 101.993 -30.6342
3726.472168 101.946 -31.7369
3753.475586 101.890 -32.8206
3780.675049 101.831 -33.8823
3808.071289 101.775 -34.9139
3835.666016 101.718 -35.9242
3863.460938 101.660 -36.9233
3891.457275 101.599 -37.8994
3919.656250 101.533 -38.8407
3948.059814 101.468 -39.7568
3976.668945 101.413 -40.6478
4005.485596 101.361 -41.5317
4034.510986 101.313 -42.4275
4063.746582 101.266 -43.3327
4093.194336 101.220 -44.2484
4122.855469 101.174 -45.1814
4152.730957 101.132 -46.1392
4182.823730 101.088 -47.1203
4213.133789 101.038 -48.1321
4243.664062 100.982 -49.1551
4274.415527 100.917 -50.1744
4305.389648 100.845 -51.1831
4336.588379 100.771 -52.1679
4368.013184 100.693 -53.1335
4399.665527 100.615 -54.0827
4431.547363 100.533 -55.0085
4463.660156 100.446 -55.9027
4496.005371 100.359 -56.7707
4528.585449 100.278 -57.6068
4561.401367 100.202 -58.4360
4594.455078 100.134 -59.2818
4627.748535 100.068 -60.1447
4661.283203 99.999 -61.0355
4695.060547 99.929 -61.9465
4729.083008 99.858 -62.8692
4763.352051 99.785 -63.8164
4797.869141 99.716 -64.7999
4832.636719 99.643 -65.8148
4867.655762 99.560 -66.8655
4902.928711 99.468 -67.9367
4938.457520 99.369 -69.0111
4974.243652 99.263 -70.0998
5010.289062 99.155 -71.2116
5046.595703 99.037 -72.3363
5083.165527 98.901 -73.4753
5120.000000 98.750 -74.6026
5157.101562 98.585 -75.6946
5194.472168 98.405 -76.7440
5232.113281 98.212 -77.7444
5270.027344 98.003 -78.6686
5308.216309 97.772 -79.4957
5346.681641 97.526 -80.1989
5385.426270 97.268 -80.7458
5424.451172 97.002 -81.1315
5463.758789 96.733 -81.3415
5503.351562 96.463 -81.3733
5543.230957 96.196 -81.2150
5583.399414 95.940 -80.8801
5623.859375 95.703 -80.3679
5664.611816 95.488 -79.7095
5705.660156 95.302 -78.9220
5747.005859 95.148 -78.0477
5788.650879 95.033 -77.1204
5830.597656 94.956 -76.1838
5872.848633 94.918 -75.2817
5915.405762 94.913 -74.4471
5958.271484 94.941 -73.7213
6001.447266 94.994 -73.1227
6044.936523 95.067 -72.6803
6088.740234 95.155 -72.4030
6132.861816 95.253 -72.3133
6177.303223 95.354 -72.3991
6222.066406 95.448 -72.6663
6267.154297 95.533 -73.0836
6312.568359 95.601 -73.6296
6358.312012 95.655 -74.2795
6404.386719 95.692 -75.0115
6450.795898 95.711 -75.7949
6497.541016 95.709 -76.6005
6544.625000 95.689 -77.4020
6592.049805 95.654 -78.1652
6639.818359 95.607 -78.8854
6687.933594 95.555 -79.5465
6736.396973 95.498 -80.1491
6785.211426 95.438 -80.6860
6834.379883 95.379 -81.1637
6883.904785 95.327 -81.5792
6933.788574 95.284 -81.9532
6984.033691 95.253 -82.3003
7034.642578 95.233 -82.6363
7085.618652 95.225 -82.9735
7136.963867 95.232 -83.3361
7188.681152 95.257 -83.7460
7240.773438 95.296 -84.2224
7293.243164 95.344 -84.7869
7346.092773 95.402 -85.4544
7399.325684 95.471 -86.2390
7452.944336 95.547 -87.1650
7506.951172 95.627 -88.2580
7561.350098 95.707 -89.5270
7616.142578 95.779 -90.9918
7671.332031 95.839 -92.6440
7726.921875 95.878 -94.4880
7782.914551 95.894 -96.5052
7839.312500 95.881 -98.6904
7896.119629 95.833 -101.0094
7953.337891 95.744 -103.4496
8010.971191 95.608 -105.9408
8069.021973 95.413 -108.4287
8127.493164 95.167 -110.8515
8186.388672 94.872 -113.1410
8245.710938 94.529 -115.2613
8305.461914 94.143 -117.1728
8365.647461 93.712 -118.8191
8426.267578 93.233 -120.1465
8487.328125 92.718 -121.1070
8548.831055 92.175 -121.6409
8610.779297 91.613 -121.7298
8673.176758 91.040 -121.3294
8736.026367 90.470 -120.4580
8799.331055 89.914 -119.1009
8863.094727 89.392 -117.3135
8927.320312 88.919 -115.1173
8992.010742 88.512 -112.6010
9057.170898 88.189 -109.8198
9122.802734 87.958 -106.8966
9188.910156 87.839 -103.9446
9255.497070 87.814 -101.0503
9322.566406 87.873 -98.3239
9390.121094 88.005 -95.8076
9458.166016 88.200 -93.5710
9526.704102 88.445 -91.6423
9595.738281 88.725 -90.0785
9665.273438 89.026 -88.8625
9735.311523 89.332 -88.0064
9805.857422 89.638 -87.4780
9876.915039 89.938 -87.2560
9948.487305 90.229 -87.3199
10020.578125 90.508 -87.6544
10093.191406 90.770 -88.2223
10166.331055 91.005 -88.9934
10240.000000 91.218 -89.9317
10314.203125 91.409 -90.9964
10388.944336 91.580 -92.1712
10464.226562 91.733 -93.4301
10540.054688 91.868 -94.7609
10616.432617 91.987 -96.1438
10693.363281 92.092 -97.5753
10770.852539 92.187 -99.0451
10848.902344 92.271 -100.5567
10927.517578 92.346 -102.1062
11006.703125 92.414 -103.7062
11086.461914 92.478 -105.3637
11166.798828 92.536 -107.0922
11247.718750 92.585 -108.9080
11329.223633 92.624 -110.8100
11411.320312 92.649 -112.8055
11494.011719 92.658 -114.8845
11577.301758 92.647 -117.0490
11661.195312 92.613 -119.2705
11745.697266 92.552 -121.5266
11830.811523 92.468 -123.8007
11916.542969 92.363 -126.0745
12002.894531 92.237 -128.3315
12089.873047 92.083 -130.5505
12177.480469 91.910 -132.7278
12265.723633 91.726 -134.8413
12354.606445 91.533 -136.9258
12444.132812 91.337 -139.0082
12534.308594 91.129 -141.0907
12625.136719 90.903 -143.1844
12716.624023 90.662 -145.2879
12808.773438 90.412 -147.4019
12901.591797 90.145 -149.5299
12995.082031 89.856 -151.6858
13089.250000 89.541 -153.8392
13184.099609 89.190 -155.9747
13279.636719 88.808 -158.0604
13375.867188 88.395 -160.0673
13472.793945 87.949 -161.9715
13570.422852 87.468 -163.7528
13668.759766 86.951 -165.3719
13767.809570 86.397 -166.8042
13867.577148 85.803 -167.9850
13968.067383 85.164 -168.8617
14069.285156 84.488 -169.3732
14171.237305 83.776 -169.4441
14273.927734 83.039 -169.0643
14377.362305 82.290 -168.2043
14481.546875 81.528 -166.8483
14586.486328 80.748 -164.9684
14692.185547 79.981 -162.5724
14798.651367 79.252 -159.6289
14905.888672 78.572 -156.2290
15013.902344 77.960 -152.4403
15122.700195 77.420 -148.3054
15232.285156 76.954 -143.8737
15342.664062 76.579 -139.1912
15453.843750 76.311 -134.2817
15565.829102 76.159 -129.2593
15678.625000 76.142 -124.2124
15792.239258 76.251 -119.2445
15906.675781 76.489 -114.4445
16021.942383 76.846 -109.9463
16138.043945 77.327 -105.8846
16254.986328 77.889 -102.3459
16372.777344 78.496 -99.4581
16491.421875 79.127 -97.2324
16610.923828 79.758 -95.7337
16731.294922 80.368 -94.9247
16852.535156 80.931 -94.8394
16974.656250 81.436 -95.3295
17097.662109 81.858 -96.3086
17221.558594 82.207 -97.6223
17346.353516 82.482 -99.1178
17472.052734 82.694 -100.7023
17598.662109 82.849 -102.2480
17726.189453 82.959 -103.7089
17854.640625 83.035 -104.9936
17984.021484 83.092 -106.1113
18114.341797 83.142 -107.0203
18245.605469 83.200 -107.7830
18377.820312 83.285 -108.4178
18510.994141 83.396 -109.0165
18645.132812 83.542 -109.6536
18780.242188 83.713 -110.4005
18916.332031 83.907 -111.3507
19053.408203 84.106 -112.5117
19191.476562 84.290 -113.9363
19330.546875 84.454 -115.5815
19470.623047 84.587 -117.4392
19611.714844 84.687 -119.4552
19753.830078 84.746 -121.5961
19896.974609 84.764 -123.7916
