* Measurement data measured by REW V5.20.13
* Source: C:\Users\kurin\Desktop\Targets and Curves\Resolve\Img\Files\HarmonicDyne Zeus_SPL.txt
* Format: Comma/Tab/Space delimited data
* Dated: Aug 14, 2023 4:43:34 PM
* REW Settings:
*  C-weighting compensation: Off
*  Target level: 75.0 dB
* Note: ; Measurement imported from C:\Users\kurin\Desktop\Targets and Curves\Resolve\Img\Files\HarmonicDyne Zeus_SPL.txt Format: Comma/Tab/Space delimited data 623 values loaded, 5 Hz to 39,792 Hz log spaced 
* Measurement: HarmonicDyne Zeus_SPL
* Smoothing: 1/48 octave
* Frequency Step: 1/96 octave
* Start Frequency: 5.000 Hz
*
* Freq(Hz) SPL(dB) Phase(degrees)
5.000000 67.328 87.7450
5.036232 67.357 87.7267
5.072727 67.388 87.7070
5.109486 67.424 87.6840
5.146511 67.466 87.6580
5.183805 67.516 87.6279
5.221369 67.571 87.5960
5.259205 67.628 87.5649
5.297316 67.687 87.5330
5.335702 67.750 87.4987
5.374367 67.815 87.4640
5.413311 67.879 87.4304
5.452538 67.943 87.3970
5.492050 68.007 87.3636
5.531847 68.071 87.3300
5.571934 68.135 87.2961
5.612310 68.199 87.2620
5.652979 68.263 87.2276
5.693943 68.327 87.1930
5.735204 68.391 87.1581
5.776763 68.455 87.1230
5.818624 68.519 87.0876
5.860788 68.583 87.0520
5.903258 68.647 87.0166
5.946035 68.711 86.9810
5.989123 68.775 86.9452
6.032523 68.839 86.9090
6.076237 68.903 86.8721
6.120268 68.967 86.8350
6.164618 69.031 86.7981
6.209289 69.095 86.7610
6.254284 69.159 86.7237
6.299605 69.223 86.6860
6.345255 69.287 86.6476
6.391235 69.351 86.6090
6.437549 69.415 86.5706
6.484198 69.479 86.5320
6.531185 69.543 86.4926
6.578513 69.607 86.4530
6.626183 69.671 86.4136
6.674199 69.735 86.3740
6.722563 69.799 86.3337
6.771278 69.863 86.2930
6.820345 69.927 86.2521
6.869768 69.991 86.2110
6.919549 70.055 86.1701
6.969691 70.119 86.1290
7.020196 70.183 86.0873
7.071068 70.247 86.0450
7.122308 70.311 86.0021
7.173919 70.375 85.9590
7.225904 70.439 85.9161
7.278266 70.503 85.8730
7.331007 70.567 85.8292
7.384131 70.631 85.7850
7.437639 70.695 85.7406
7.491535 70.759 85.6960
7.545822 70.823 85.6511
7.600502 70.887 85.6060
7.655579 70.951 85.5607
7.711054 71.015 85.5150
7.766932 71.079 85.4687
7.823214 71.143 85.4220
7.879904 71.207 85.3752
7.937005 71.271 85.3280
7.994520 71.335 85.2802
8.052452 71.399 85.2320
8.110803 71.463 85.1836
8.169578 71.527 85.1350
8.228777 71.591 85.0862
8.288406 71.655 85.0370
8.348468 71.719 84.9872
8.408964 71.783 84.9370
8.469899 71.847 84.8867
8.531276 71.911 84.8360
8.593097 71.975 84.7847
8.655366 72.039 84.7330
8.718086 72.103 84.6812
8.781260 72.167 84.6290
8.844893 72.231 84.5762
8.908987 72.295 84.5230
8.973545 72.359 84.4697
9.038571 72.423 84.4160
9.104069 72.487 84.3618
9.170040 72.551 84.3070
9.236490 72.615 84.2517
9.303422 72.679 84.1960
9.370838 72.743 84.1402
9.438744 72.807 84.0840
9.507140 72.871 84.0273
9.576033 72.935 83.9700
9.645425 72.999 83.9122
9.715320 73.063 83.8540
9.785721 73.127 83.7957
9.856632 73.191 83.7370
9.928058 73.255 83.6778
10.000000 73.319 83.6180
10.072464 73.383 83.5577
10.145453 73.447 83.4971
10.218971 73.511 83.4363
10.293022 73.575 83.3750
10.367610 73.639 83.3128
10.442738 73.703 83.2500
10.518411 73.767 83.1873
10.594631 73.831 83.1240
10.671404 73.895 83.0598
10.748734 73.959 82.9950
10.826623 74.023 82.9302
10.905077 74.087 82.8651
10.984100 74.151 82.7994
11.063695 74.215 82.7330
11.143867 74.279 82.6658
11.224621 74.343 82.5980
11.305959 74.407 82.5303
11.387886 74.471 82.4621
11.470407 74.535 82.3928
11.553527 74.599 82.3230
11.637249 74.663 82.2533
11.721577 74.727 82.1831
11.806517 74.791 82.1119
11.892071 74.855 82.0401
11.978246 74.919 81.9673
12.065045 74.983 81.8940
12.152473 75.047 81.8208
12.240536 75.111 81.7470
12.329235 75.175 81.6724
12.418578 75.239 81.5971
12.508568 75.303 81.5214
12.599211 75.367 81.4450
12.690510 75.431 81.3679
12.782471 75.495 81.2901
12.875097 75.559 81.2118
12.968395 75.623 81.1331
13.062370 75.687 81.0539
13.157025 75.751 80.9740
13.252366 75.815 80.8934
13.348398 75.879 80.8121
13.445127 75.943 80.7299
13.542556 76.007 80.6471
13.640691 76.071 80.5639
13.739536 76.135 80.4800
13.839099 76.199 80.3949
13.939383 76.263 80.3091
14.040393 76.327 80.2228
14.142136 76.391 80.1360
14.244616 76.455 80.0489
14.347837 76.519 79.9610
14.451808 76.583 79.8720
14.556532 76.647 79.7820
14.662014 76.711 79.6915
14.768262 76.775 79.6001
14.875278 76.839 79.5075
14.983070 76.903 79.4141
15.091644 76.967 79.3205
15.201005 77.031 79.2261
15.311157 77.095 79.1305
15.422109 77.159 79.0341
15.533863 77.223 78.9370
15.646428 77.287 78.8391
15.759809 77.351 78.7400
15.874010 77.415 78.6401
15.989040 77.479 78.5395
16.104904 77.543 78.4381
16.221605 77.607 78.3356
16.339155 77.671 78.2321
16.457554 77.735 78.1276
16.576813 77.799 78.0221
16.696936 77.863 77.9156
16.817928 77.927 77.8081
16.939798 77.991 77.6992
17.062551 78.055 77.5891
17.186193 78.119 77.4782
17.310732 78.183 77.3661
17.436172 78.247 77.2527
17.562521 78.311 77.1381
17.689787 78.375 77.0224
17.817974 78.439 76.9051
17.947090 78.503 76.7859
18.077143 78.567 76.6651
18.208138 78.631 76.5435
18.340080 78.695 76.4201
18.472980 78.759 76.2942
18.606844 78.823 76.1661
18.741676 78.887 76.0360
18.877487 78.951 75.9031
19.014280 79.015 75.7671
19.152065 79.079 75.6272
19.290850 79.142 75.4823
19.430639 79.205 75.3331
19.571442 79.267 75.1792
19.713264 79.329 75.0222
19.856115 79.389 74.8621
20.000000 79.447 74.7032
20.144928 79.503 74.5490
20.290907 79.558 74.4011
20.437943 79.612 74.2620
20.586044 79.666 74.1321
20.735220 79.719 74.0124
20.885475 79.772 73.9041
21.036821 79.826 73.8108
21.189262 79.881 73.7271
21.342808 79.940 73.6506
21.497467 80.001 73.5761
21.653246 80.064 73.4979
21.810154 80.130 73.4151
21.968201 80.197 73.3262
22.127390 80.265 73.2281
22.287735 80.335 73.1170
22.449242 80.406 72.9941
22.611917 80.475 72.8580
22.775772 80.544 72.7122
22.940815 80.612 72.5598
23.107054 80.679 72.4002
23.274498 80.746 72.2331
23.443153 80.812 72.0612
23.613033 80.875 71.8870
23.784142 80.937 71.7122
23.956491 80.999 71.5397
24.130091 81.061 71.3682
24.304947 81.122 71.1963
24.481071 81.182 71.0262
24.658470 81.241 70.8591
24.837156 81.300 70.6962
25.017136 81.359 70.5403
25.198421 81.418 70.3882
25.381020 81.479 70.2376
25.564941 81.540 70.0881
25.750195 81.601 69.9381
25.936790 81.663 69.7882
26.124741 81.725 69.6389
26.314051 81.787 69.4892
26.504732 81.850 69.3386
26.696796 81.914 69.1862
26.890253 81.979 69.0312
27.085112 82.044 68.8732
27.281382 82.109 68.7110
27.479073 82.175 68.5452
27.678198 82.242 68.3769
27.878765 82.309 68.2032
28.080786 82.377 68.0216
28.284271 82.445 67.8323
28.489231 82.513 67.6340
28.695675 82.580 67.4293
28.903616 82.646 67.2204
29.113064 82.712 67.0073
29.324028 82.778 66.7906
29.536524 82.844 66.5703
29.750557 82.909 66.3459
29.966141 82.973 66.1192
30.183289 83.037 65.8923
30.402010 83.101 65.6633
30.622314 83.166 65.4315
30.844217 83.231 65.1953
31.067726 83.296 64.9528
31.292856 83.361 64.7044
31.519617 83.425 64.4494
31.748020 83.488 64.1893
31.978081 83.551 63.9258
32.209808 83.614 63.6583
32.443211 83.676 63.3865
32.678310 83.737 63.1114
32.915108 83.798 62.8342
33.153625 83.858 62.5543
33.393871 83.918 62.2723
33.635857 83.979 61.9854
33.879597 84.040 61.6916
34.125103 84.101 61.3904
34.372387 84.161 61.0810
34.621464 84.219 60.7635
34.872345 84.276 60.4362
35.125042 84.331 60.1034
35.379574 84.384 59.7675
35.635948 84.434 59.4324
35.894180 84.481 59.1022
36.154285 84.527 58.7795
36.416275 84.572 58.4682
36.680161 84.616 58.1675
36.945961 84.660 57.8796
37.213688 84.706 57.5984
37.483353 84.754 57.3192
37.754974 84.803 57.0404
38.028561 84.852 56.7593
38.304131 84.901 56.4754
38.581699 84.951 56.1882
38.861279 85.002 55.8955
39.142883 85.054 55.5937
39.426529 85.105 55.2854
39.712231 85.154 54.9716
40.000000 85.203 54.6535
40.289856 85.252 54.3336
40.581814 85.301 54.0095
40.875885 85.349 53.6784
41.172089 85.397 53.3435
41.470440 85.443 53.0069
41.770950 85.488 52.6686
42.073643 85.534 52.3292
42.378525 85.579 51.9895
42.685616 85.622 51.6510
42.994934 85.665 51.3115
43.306492 85.711 50.9714
43.620308 85.759 50.6245
43.936401 85.806 50.2636
44.254780 85.853 49.8916
44.575470 85.898 49.5097
44.898483 85.943 49.1157
45.223835 85.989 48.7079
45.551544 86.034 48.2856
45.881630 86.075 47.8457
46.214108 86.114 47.3937
46.548996 86.149 46.9344
46.886307 86.181 46.4677
47.226067 86.212 45.9951
47.568283 86.239 45.5178
47.912983 86.262 45.0366
48.260181 86.281 44.5548
48.609894 86.297 44.0754
48.962143 86.310 43.6007
49.316940 86.318 43.1327
49.674313 86.322 42.6757
50.034271 86.323 42.2340
50.396843 86.320 41.8096
50.762039 86.315 41.4066
51.129883 86.307 41.0236
51.500389 86.298 40.6604
51.873581 86.288 40.3176
52.249481 86.276 39.9952
52.628101 86.264 39.6945
53.009464 86.251 39.4178
53.393593 86.238 39.1614
53.780506 86.227 38.9229
54.170223 86.216 38.7004
54.562763 86.205 38.4902
54.958145 86.195 38.2943
55.356396 86.184 38.1133
55.757530 86.174 37.9473
56.161572 86.165 37.7968
56.568542 86.156 37.6612
56.978462 86.148 37.5395
57.391350 86.140 37.4332
57.807232 86.133 37.3431
58.226128 86.126 37.2701
58.648056 86.121 37.2158
59.073048 86.117 37.1781
59.501114 86.116 37.1560
59.932281 86.117 37.1480
60.366577 86.121 37.1523
60.804020 86.128 37.1680
61.244629 86.137 37.1939
61.688435 86.149 37.2289
62.135452 86.165 37.2728
62.585712 86.184 37.3219
63.039234 86.207 37.3737
63.496040 86.234 37.4249
63.956161 86.265 37.4721
64.419617 86.300 37.5129
64.886421 86.338 37.5444
65.356621 86.380 37.5650
65.830215 86.424 37.5726
66.307251 86.471 37.5660
66.787743 86.520 37.5441
67.271713 86.572 37.5041
67.759193 86.626 37.4428
68.250206 86.682 37.3602
68.744774 86.738 37.2545
69.242928 86.794 37.1283
69.744690 86.850 36.9834
70.250084 86.905 36.8203
70.759148 86.960 36.6400
71.271896 87.015 36.4424
71.788361 87.069 36.2271
72.308571 87.122 35.9964
72.832550 87.173 35.7527
73.360321 87.222 35.4955
73.891922 87.271 35.2251
74.427376 87.319 34.9426
74.966705 87.364 34.6476
75.509949 87.407 34.3435
76.057121 87.448 34.0335
76.608261 87.486 33.7186
77.163399 87.522 33.4002
77.722557 87.556 33.0807
78.285767 87.588 32.7630
78.853058 87.618 32.4476
79.424461 87.647 32.1366
80.000000 87.675 31.8286
80.579712 87.702 31.5242
81.163628 87.729 31.2206
81.751770 87.756 30.9150
82.344177 87.783 30.6086
82.940880 87.808 30.3007
83.541901 87.831 29.9936
84.147285 87.854 29.6903
84.757050 87.876 29.3886
85.371231 87.898 29.0868
85.989868 87.920 28.7856
86.612984 87.940 28.4850
87.240616 87.959 28.1856
87.872803 87.978 27.8877
88.509560 87.997 27.5916
89.150940 88.014 27.2982
89.796967 88.031 27.0066
90.447670 88.048 26.7159
91.103088 88.065 26.4266
91.763260 88.081 26.1390
92.428215 88.096 25.8536
93.097992 88.111 25.5716
93.772614 88.127 25.2906
94.452133 88.143 25.0089
95.136566 88.159 24.7256
95.825966 88.175 24.4396
96.520363 88.191 24.1496
97.219788 88.207 23.8538
97.924286 88.222 23.5526
98.633881 88.235 23.2448
99.348625 88.247 22.9336
100.068542 88.257 22.6220
100.793686 88.266 22.3108
101.524078 88.273 22.0012
102.259766 88.278 21.6957
103.000778 88.281 21.3973
103.747162 88.282 21.1066
104.498962 88.283 20.8258
105.256203 88.283 20.5535
106.018929 88.283 20.2889
106.787186 88.283 20.0315
107.561012 88.283 19.7806
108.340446 88.283 19.5354
109.125526 88.283 19.2950
109.916290 88.283 19.0594
110.712791 88.283 18.8289
111.515060 88.283 18.6025
112.323143 88.283 18.3791
113.137085 88.283 18.1595
113.956924 88.283 17.9442
114.782700 88.283 17.7325
115.614464 88.283 17.5237
116.452255 88.283 17.3184
117.296112 88.283 17.1171
118.146095 88.283 16.9194
119.002228 88.283 16.7247
119.864563 88.283 16.5335
120.733154 88.283 16.3462
121.608040 88.283 16.1634
122.489258 88.283 15.9858
123.376869 88.283 15.8134
124.270905 88.284 15.6462
125.171425 88.285 15.4843
126.078468 88.286 15.3284
126.992081 88.289 15.1763
127.912323 88.293 15.0273
128.839233 88.299 14.8783
129.772842 88.306 14.7260
130.713242 88.314 14.5713
131.660431 88.322 14.4141
132.614502 88.330 14.2545
133.575485 88.339 14.0930
134.543427 88.348 13.9283
135.518387 88.358 13.7591
136.500412 88.369 13.5863
137.489548 88.379 13.4100
138.485855 88.388 13.2315
139.489380 88.398 13.0530
140.500168 88.408 12.8724
141.518295 88.420 12.6889
142.543793 88.432 12.5005
143.576721 88.444 12.3036
144.617142 88.455 12.1015
145.665100 88.465 11.8959
146.720642 88.475 11.6876
147.783844 88.485 11.4785
148.854752 88.496 11.2666
149.933411 88.507 11.0504
151.019897 88.517 10.8296
152.114243 88.527 10.6030
153.216522 88.536 10.3717
154.326797 88.545 10.1362
155.445114 88.553 9.8966
156.571533 88.560 9.6524
157.706116 88.567 9.4046
158.848923 88.573 9.1529
160.000000 88.577 8.8996
161.159424 88.579 8.6468
162.327255 88.581 8.3956
163.503540 88.582 8.1478
164.688354 88.583 7.9025
165.881760 88.583 7.6598
167.083801 88.583 7.4186
168.294571 88.583 7.1784
169.514099 88.583 6.9376
170.742462 88.583 6.6949
171.979736 88.583 6.4497
173.225967 88.582 6.2011
174.481232 88.581 5.9486
175.745605 88.580 5.6904
177.019119 88.577 5.4286
178.301880 88.572 5.1641
179.593933 88.565 4.8997
180.895340 88.557 4.6382
182.206177 88.547 4.3806
183.526520 88.536 4.1279
184.856430 88.523 3.8825
186.195984 88.508 3.6480
187.545227 88.492 3.4225
188.904266 88.478 3.2059
190.273132 88.464 2.9965
191.651932 88.449 2.7921
193.040726 88.433 2.5935
194.439575 88.418 2.4015
195.848572 88.403 2.2145
197.267761 88.389 2.0308
198.697250 88.375 1.8514
200.137085 88.359 1.6769
201.587372 88.342 1.5074
203.048157 88.328 1.3438
204.519531 88.314 1.1845
206.001556 88.299 1.0272
207.494324 88.284 0.8744
208.997925 88.268 0.7283
210.512405 88.253 0.5873
212.037857 88.239 0.4498
213.574371 88.225 0.3183
215.122025 88.209 0.1949
216.680893 88.194 0.0793
218.251053 88.181 -0.0266
219.832581 88.170 -0.1267
221.425583 88.160 -0.2242
223.030121 88.151 -0.3198
224.646286 88.144 -0.4141
226.274170 88.139 -0.5107
227.913849 88.136 -0.6129
229.565399 88.135 -0.7217
231.228928 88.134 -0.8398
232.904510 88.133 -0.9656
234.592224 88.133 -1.0981
236.292191 88.133 -1.2376
238.004456 88.133 -1.3843
239.729126 88.133 -1.5376
241.466309 88.133 -1.6967
243.216080 88.133 -1.8625
244.978516 88.133 -2.0352
246.753738 88.133 -2.2155
248.541809 88.133 -2.4038
250.342850 88.133 -2.6014
252.156937 88.132 -2.8098
253.984161 88.131 -3.0294
255.824646 88.129 -3.2616
257.678467 88.125 -3.5044
259.545685 88.118 -3.7578
261.426483 88.108 -4.0173
263.320862 88.095 -4.2801
265.229004 88.078 -4.5413
267.150970 88.058 -4.7965
269.086853 88.035 -5.0423
271.036774 88.009 -5.2742
273.000824 87.981 -5.4904
274.979095 87.951 -5.6866
276.971710 87.921 -5.8655
278.978760 87.891 -6.0275
281.000336 87.862 -6.1746
283.036591 87.833 -6.3079
285.087585 87.806 -6.4306
287.153442 87.781 -6.5454
289.234283 87.757 -6.6547
291.330200 87.734 -6.7624
293.441284 87.711 -6.8677
295.567688 87.689 -6.9708
297.709503 87.668 -7.0727
299.866821 87.648 -7.1743
302.039795 87.629 -7.2767
304.228485 87.610 -7.3813
306.433044 87.591 -7.4877
308.653595 87.572 -7.5958
310.890228 87.552 -7.7057
313.143066 87.533 -7.8178
315.412231 87.514 -7.9317
317.697845 87.494 -8.0475
320.000000 87.473 -8.1637
322.318848 87.451 -8.2791
324.654510 87.429 -8.3926
327.007080 87.406 -8.5025
329.376709 87.382 -8.6097
331.763519 87.358 -8.7161
334.167603 87.332 -8.8177
336.589142 87.304 -8.9113
339.028198 87.276 -8.9958
341.484924 87.248 -9.0684
343.959473 87.220 -9.1308
346.451935 87.192 -9.1841
348.962463 87.164 -9.2269
351.491211 87.137 -9.2571
354.038239 87.111 -9.2780
356.603760 87.087 -9.2912
359.187866 87.065 -9.3000
361.790680 87.045 -9.3075
364.412354 87.026 -9.3150
367.053040 87.008 -9.3238
369.712860 86.992 -9.3370
372.391968 86.978 -9.3579
375.090454 86.965 -9.3859
377.808533 86.951 -9.4225
380.546265 86.936 -9.4649
383.303864 86.920 -9.5108
386.081451 86.904 -9.5599
388.879150 86.887 -9.6125
391.697144 86.869 -9.6638
394.535522 86.848 -9.7111
397.394501 86.824 -9.7489
400.274170 86.799 -9.7705
403.174744 86.774 -9.7770
406.096313 86.750 -9.7667
409.039062 86.727 -9.7411
412.003113 86.706 -9.7003
414.988647 86.687 -9.6472
417.995850 86.671 -9.5832
421.024811 86.658 -9.5132
424.075714 86.649 -9.4414
427.148743 86.643 -9.3712
430.244049 86.640 -9.3074
433.361786 86.640 -9.2512
436.502106 86.643 -9.2044
439.665161 86.649 -9.1691
442.851166 86.656 -9.1468
446.060242 86.666 -9.1400
449.292572 86.679 -9.1505
452.548340 86.693 -9.1819
455.827698 86.708 -9.2373
459.130798 86.725 -9.3197
462.457855 86.743 -9.4323
465.809021 86.761 -9.5765
469.184448 86.777 -9.7559
472.584381 86.791 -9.9673
476.008911 86.801 -10.2113
479.458252 86.806 -10.4801
482.932617 86.804 -10.7691
486.432159 86.795 -11.0690
489.957031 86.779 -11.3720
493.507477 86.757 -11.6691
497.083618 86.728 -11.9511
500.685699 86.692 -12.2112
504.313873 86.651 -12.4395
507.968323 86.607 -12.6354
511.649292 86.561 -12.7936
515.356934 86.515 -12.9186
519.091370 86.470 -13.0120
522.852966 86.426 -13.0778
526.641724 86.384 -13.1185
530.458008 86.345 -13.1400
534.301941 86.310 -13.1476
538.173706 86.278 -13.1460
542.073547 86.248 -13.1420
546.001648 86.221 -13.1350
549.958191 86.196 -13.1260
553.943420 86.172 -13.1180
557.957520 86.151 -13.1142
562.000671 86.132 -13.1150
566.073181 86.114 -13.1209
570.175171 86.097 -13.1349
574.306885 86.082 -13.1592
578.468567 86.069 -13.1968
582.660400 86.057 -13.2514
586.882568 86.045 -13.3237
591.135376 86.032 -13.4163
595.419006 86.017 -13.5276
599.733643 86.000 -13.6581
604.079590 85.980 -13.8045
608.456970 85.956 -13.9662
612.866089 85.926 -14.1344
617.307190 85.890 -14.3038
621.780457 85.848 -14.4625
626.286133 85.798 -14.5987
630.824463 85.743 -14.7067
635.395691 85.684 -14.7777
640.000000 85.622 -14.8090
644.637695 85.558 -14.7954
649.309021 85.493 -14.7353
654.014160 85.429 -14.6235
658.753418 85.367 -14.4656
663.527039 85.311 -14.2624
668.335205 85.261 -14.0239
673.178284 85.218 -13.7564
678.056396 85.183 -13.4710
682.969849 85.157 -13.1770
687.918945 85.140 -12.8860
692.903870 85.132 -12.6104
697.924927 85.131 -12.3568
702.982422 85.135 -12.1360
708.076477 85.143 -11.9486
713.207520 85.154 -11.7995
718.375732 85.166 -11.6863
723.581360 85.178 -11.6105
728.824707 85.188 -11.5661
734.106079 85.196 -11.5498
739.425720 85.202 -11.5559
744.783936 85.205 -11.5783
750.180908 85.206 -11.6158
755.617065 85.205 -11.6657
761.092529 85.202 -11.7268
766.607727 85.196 -11.7979
772.162903 85.188 -11.8757
777.758301 85.176 -11.9573
783.394287 85.162 -12.0407
789.071045 85.146 -12.1233
794.789001 85.128 -12.2047
800.548340 85.107 -12.2845
806.349487 85.084 -12.3597
812.192627 85.059 -12.4267
818.078125 85.033 -12.4878
824.006226 85.007 -12.5427
829.977295 84.981 -12.5958
835.991699 84.955 -12.6522
842.049622 84.927 -12.7088
848.151428 84.896 -12.7649
854.297485 84.863 -12.8188
860.488098 84.830 -12.8684
866.723572 84.795 -12.9148
873.004211 84.758 -12.9612
879.330322 84.717 -12.9999
885.702332 84.672 -13.0250
892.120483 84.625 -13.0340
898.585144 84.577 -13.0210
905.096680 84.528 -12.9901
911.655396 84.480 -12.9443
918.261597 84.431 -12.8823
924.915710 84.381 -12.8028
931.618042 84.331 -12.7094
938.368896 84.284 -12.6041
945.168762 84.237 -12.4894
952.017822 84.190 -12.3690
958.916504 84.142 -12.2415
965.865234 84.095 -12.1071
972.864319 84.047 -11.9645
979.914062 83.998 -11.8137
987.014954 83.947 -11.6516
994.167236 83.895 -11.4762
1001.371399 83.842 -11.2847
1008.627747 83.788 -11.0742
1015.936646 83.732 -10.8440
1023.298584 83.677 -10.5928
1030.713867 83.622 -10.3199
1038.182739 83.566 -10.0251
1045.705933 83.510 -9.7054
1053.283447 83.454 -9.3576
1060.916016 83.399 -8.9817
1068.603882 83.345 -8.5770
1076.347412 83.293 -8.1428
1084.147095 83.243 -7.6786
1092.003296 83.195 -7.1837
1099.916382 83.151 -6.6560
1107.886841 83.111 -6.0994
1115.915039 83.077 -5.5165
1124.001343 83.048 -4.9103
1132.146362 83.024 -4.2835
1140.350342 83.007 -3.6395
1148.613770 82.998 -2.9797
1156.937134 82.997 -2.3128
1165.320801 83.004 -1.6452
1173.765137 83.020 -0.9849
1182.270752 83.045 -0.3397
1190.838013 83.077 0.2835
1199.467285 83.116 0.8771
1208.159180 83.162 1.4359
1216.913940 83.213 1.9523
1225.732178 83.267 2.4254
1234.614380 83.323 2.8505
1243.560913 83.380 3.2307
1252.572266 83.436 3.5641
1261.648926 83.489 3.8599
1270.791382 83.537 4.1233
1280.000000 83.581 4.3641
1289.275391 83.621 4.5922
1298.618042 83.657 4.8131
1308.028320 83.688 5.0339
1317.506836 83.717 5.2600
1327.054077 83.743 5.4987
1336.670410 83.767 5.7510
1346.356567 83.791 6.0216
1356.112793 83.816 6.3069
1365.939697 83.843 6.6065
1375.837891 83.872 6.9157
1385.807739 83.904 7.2318
1395.849854 83.939 7.5487
1405.964844 83.978 7.8611
1416.152954 84.020 8.1639
1426.415039 84.064 8.4506
1436.751465 84.110 8.7210
1447.162720 84.156 8.9726
1457.649414 84.203 9.2061
1468.212158 84.248 9.4203
1478.851440 84.292 9.6183
1489.567871 84.334 9.8008
1500.361816 84.373 9.9743
1511.234131 84.406 10.1428
1522.185059 84.435 10.3142
1533.215454 84.460 10.4959
1544.325806 84.482 10.6941
1555.516602 84.499 10.9148
1566.788574 84.512 11.1659
1578.142090 84.521 11.4546
1589.578003 84.529 11.7885
1601.096680 84.535 12.1766
1612.698975 84.543 12.6210
1624.385254 84.553 13.1279
1636.156250 84.569 13.6934
1648.012451 84.592 14.3183
1659.954590 84.625 14.9944
1671.983398 84.669 15.7180
1684.099243 84.726 16.4758
1696.302856 84.798 17.2579
1708.594971 84.886 18.0504
1720.976196 84.989 18.8418
1733.447144 85.108 19.6157
1746.008423 85.246 20.3573
1758.660645 85.398 21.0513
1771.404663 85.565 21.6788
1784.240967 85.742 22.2359
1797.170288 85.928 22.7144
1810.193359 86.122 23.1086
1823.310791 86.325 23.4109
1836.523193 86.531 23.6184
1849.831421 86.739 23.7231
1863.236084 86.946 23.7332
1876.737793 87.151 23.6519
1890.337524 87.352 23.4859
1904.035645 87.549 23.2410
1917.833008 87.740 22.9234
1931.730469 87.925 22.5388
1945.728638 88.103 22.0950
1959.828125 88.274 21.5994
1974.029907 88.438 21.0594
1988.334473 88.594 20.4838
2002.742798 88.742 19.8765
2017.255493 88.886 19.2436
2031.873291 89.022 18.5867
2046.597168 89.153 17.9074
2061.427734 89.276 17.2111
2076.365479 89.393 16.5032
2091.411865 89.505 15.7850
2106.566895 89.612 15.0586
2121.832031 89.714 14.3270
2137.207764 89.810 13.5929
2152.694824 89.901 12.8599
2168.294189 89.988 12.1333
2184.006592 90.072 11.4113
2199.832764 90.153 10.6937
2215.773682 90.233 9.9799
2231.830078 90.310 9.2695
2248.002686 90.386 8.5609
2264.292725 90.461 7.8536
2280.700684 90.536 7.1441
2297.227539 90.610 6.4286
2313.874268 90.683 5.7070
2330.641602 90.754 4.9776
2347.530273 90.824 4.2412
2364.541504 90.892 3.4987
2381.676025 90.960 2.7484
2398.934570 91.027 1.9892
2416.318359 91.093 1.2195
2433.827881 91.158 0.4376
2451.464355 91.222 -0.3567
2469.228760 91.284 -1.1639
2487.121826 91.344 -1.9844
2505.144531 91.402 -2.8192
2523.297852 91.458 -3.6671
2541.582764 91.512 -4.5277
2560.000000 91.564 -5.4001
2578.550781 91.613 -6.2831
2597.236084 91.661 -7.1778
2616.056641 91.707 -8.0847
2635.013672 91.751 -9.0041
2654.108154 91.792 -9.9363
2673.340820 91.831 -10.8818
2692.713135 91.868 -11.8399
2712.225586 91.904 -12.8154
2731.879395 91.938 -13.8133
2751.675781 91.969 -14.8332
2771.615479 91.996 -15.8772
2791.699707 92.020 -16.9432
2811.929688 92.038 -18.0296
2832.305908 92.052 -19.1377
2852.830078 92.061 -20.2696
2873.502930 92.064 -21.4219
2894.325439 92.059 -22.5941
2915.298828 92.045 -23.7796
2936.424316 92.023 -24.9736
2957.702881 91.991 -26.1708
2979.135742 91.950 -27.3677
3000.723633 91.899 -28.5539
3022.468262 91.836 -29.7209
3044.370117 91.761 -30.8578
3066.430908 91.677 -31.9545
3088.651611 91.582 -33.0004
3111.033203 91.478 -33.9847
3133.577148 91.366 -34.8978
3156.284180 91.246 -35.7267
3179.156006 91.124 -36.4717
3202.193359 91.001 -37.1248
3225.397949 90.882 -37.6975
3248.770508 90.767 -38.1933
3272.312500 90.659 -38.6282
3296.024902 90.562 -39.0132
3319.909180 90.473 -39.3664
3343.966797 90.397 -39.7066
3368.198486 90.329 -40.0434
3392.605713 90.268 -40.3931
3417.189941 90.211 -40.7543
3441.952393 90.158 -41.1320
3466.894287 90.106 -41.5222
3492.016846 90.054 -41.9246
3517.321289 90.002 -42.3331
3542.809326 89.949 -42.7435
3568.481934 89.895 -43.1491
3594.340576 89.840 -43.5414
3620.386719 89.786 -43.9212
3646.621582 89.734 -44.2855
3673.046387 89.684 -44.6383
3699.662842 89.637 -44.9816
3726.472168 89.594 -45.3185
3753.475586 89.555 -45.6507
3780.675049 89.520 -45.9845
3808.071289 89.491 -46.3240
3835.666016 89.467 -46.6773
3863.460938 89.449 -47.0510
3891.457275 89.435 -47.4530
3919.656250 89.426 -47.8900
3948.059814 89.421 -48.3717
3976.668945 89.421 -48.9073
4005.485596 89.422 -49.5049
4034.510986 89.424 -50.1756
4063.746582 89.423 -50.9193
4093.194336 89.417 -51.7418
4122.855469 89.402 -52.6365
4152.730957 89.377 -53.6035
4182.823730 89.337 -54.6280
4213.133789 89.281 -55.7045
4243.664062 89.205 -56.8048
4274.415527 89.106 -57.9093
4305.389648 88.984 -58.9859
4336.588379 88.838 -60.0045
4368.013184 88.670 -60.9378
4399.665527 88.481 -61.7554
4431.547363 88.274 -62.4370
4463.660156 88.053 -62.9542
4496.005371 87.822 -63.3007
4528.585449 87.587 -63.4593
4561.401367 87.353 -63.4356
4594.455078 87.125 -63.2234
4627.748535 86.908 -62.8413
4661.283203 86.711 -62.2955
4695.060547 86.536 -61.6166
4729.083008 86.389 -60.8266
4763.352051 86.270 -59.9583
4797.869141 86.185 -59.0399
4832.636719 86.131 -58.1067
4867.655762 86.113 -57.1924
4902.928711 86.125 -56.3290
4938.457520 86.167 -55.5533
4974.243652 86.233 -54.8849
5010.289062 86.318 -54.3533
5046.595703 86.417 -53.9656
5083.165527 86.527 -53.7417
5120.000000 86.639 -53.6720
5157.101562 86.747 -53.7600
5194.472168 86.849 -53.9846
5232.113281 86.938 -54.3352
5270.027344 87.015 -54.7835
5308.216309 87.073 -55.3091
5346.681641 87.115 -55.8782
5385.426270 87.136 -56.4577
5424.451172 87.142 -57.0253
5463.758789 87.136 -57.5501
5503.351562 87.120 -58.0248
5543.230957 87.098 -58.4324
5583.399414 87.072 -58.7715
5623.859375 87.047 -59.0307
5664.611816 87.027 -59.2242
5705.660156 87.018 -59.3551
5747.005859 87.021 -59.4456
5788.650879 87.038 -59.5142
5830.597656 87.069 -59.5757
5872.848633 87.113 -59.6470
5915.405762 87.172 -59.7404
5958.271484 87.244 -59.8692
6001.447266 87.331 -60.0479
6044.936523 87.429 -60.2918
6088.740234 87.539 -60.6122
6132.861816 87.661 -61.0209
6177.303223 87.791 -61.5322
6222.066406 87.931 -62.1617
6267.154297 88.074 -62.9169
6312.568359 88.218 -63.8120
6358.312012 88.358 -64.8425
6404.386719 88.493 -66.0127
6450.795898 88.618 -67.3100
6497.541016 88.730 -68.7306
6544.625000 88.826 -70.2521
6592.049805 88.904 -71.8581
6639.818359 88.965 -73.5273
6687.933594 89.008 -75.2360
6736.396973 89.036 -76.9750
6785.211426 89.051 -78.7269
6834.379883 89.054 -80.4929
6883.904785 89.049 -82.2661
6933.788574 89.035 -84.0537
6984.033691 89.015 -85.8580
7034.642578 88.989 -87.6877
7085.618652 88.957 -89.5506
7136.963867 88.917 -91.4523
7188.681152 88.870 -93.4015
7240.773438 88.812 -95.3979
7293.243164 88.744 -97.4455
7346.092773 88.663 -99.5404
7399.325684 88.569 -101.6826
7452.944336 88.459 -103.8640
7506.951172 88.332 -106.0761
7561.350098 88.189 -108.3194
7616.142578 88.030 -110.5932
7671.332031 87.854 -112.8921
7726.921875 87.656 -115.2106
7782.914551 87.438 -117.5479
7839.312500 87.204 -119.9002
7896.119629 86.948 -122.2734
7953.337891 86.672 -124.6793
8010.971191 86.367 -127.0962
8069.021973 86.028 -129.5188
8127.493164 85.653 -131.9085
8186.388672 85.240 -134.2422
8245.710938 84.786 -136.4676
8305.461914 84.285 -138.5454
8365.647461 83.737 -140.4128
8426.267578 83.137 -142.0204
8487.328125 82.488 -143.2874
8548.831055 81.785 -144.1359
8610.779297 81.041 -144.5054
8673.176758 80.259 -144.3126
8736.026367 79.455 -143.5478
8799.331055 78.643 -142.1735
8863.094727 77.834 -140.1911
8927.320312 77.032 -137.5621
8992.010742 76.277 -134.3683
9057.170898 75.603 -130.6285
9122.802734 75.027 -126.4947
9188.910156 74.575 -122.0827
9255.497070 74.251 -117.5218
9322.566406 74.069 -112.9360
9390.121094 74.019 -108.4582
9458.166016 74.111 -104.2337
9526.704102 74.309 -100.3494
9595.738281 74.586 -96.9355
9665.273438 74.924 -94.0061
9735.311523 75.300 -91.6231
9805.857422 75.698 -89.7726
9876.915039 76.097 -88.4777
9948.487305 76.485 -87.6880
10020.578125 76.844 -87.3803
10093.191406 77.171 -87.4933
10166.331055 77.460 -87.9775
10240.000000 77.707 -88.7741
10314.203125 77.905 -89.8297
10388.944336 78.054 -91.0787
10464.226562 78.151 -92.4550
10540.054688 78.200 -93.9053
10616.432617 78.201 -95.3667
10693.363281 78.159 -96.8026
10770.852539 78.076 -98.1633
10848.902344 77.956 -99.4265
10927.517578 77.804 -100.5590
11006.703125 77.624 -101.5451
11086.461914 77.417 -102.3648
11166.798828 77.187 -102.9971
11247.718750 76.936 -103.4211
11329.223633 76.668 -103.6156
11411.320312 76.389 -103.5558
11494.011719 76.106 -103.2315
11577.301758 75.821 -102.6197
11661.195312 75.547 -101.7337
11745.697266 75.295 -100.5646
11830.811523 75.074 -99.1562
11916.542969 74.897 -97.5248
12002.894531 74.774 -95.7452
12089.873047 74.718 -93.8653
12177.480469 74.731 -91.9825
12265.723633 74.819 -90.1861
12354.606445 74.968 -88.5493
12444.132812 75.171 -87.1611
12534.308594 75.415 -86.0631
12625.136719 75.688 -85.3250
12716.624023 75.974 -84.9510
12808.773438 76.255 -84.9849
12901.591797 76.519 -85.3758
12995.082031 76.750 -86.1160
13089.250000 76.942 -87.1194
13184.099609 77.084 -88.3241
13279.636719 77.180 -89.6480
13375.867188 77.228 -91.0069
13472.793945 77.235 -92.3456
13570.422852 77.205 -93.5883
13668.759766 77.146 -94.7127
13767.809570 77.068 -95.6643
13867.577148 76.981 -96.4648
13968.067383 76.898 -97.0983
14069.285156 76.826 -97.6252
14171.237305 76.778 -98.0854
14273.927734 76.746 -98.5257
14377.362305 76.730 -99.0013
14481.546875 76.725 -99.5271
14586.486328 76.727 -100.1398
14692.185547 76.728 -100.8278
14798.651367 76.721 -101.6063
14905.888672 76.702 -102.4301
15013.902344 76.662 -103.2728
15122.700195 76.607 -104.0925
15232.285156 76.538 -104.8375
15342.664062 76.466 -105.5102
15453.843750 76.400 -106.0804
15565.829102 76.348 -106.5943
15678.625000 76.320 -107.0647
15792.239258 76.318 -107.5631
15906.675781 76.351 -108.1417
16021.942383 76.412 -108.8725
16138.043945 76.498 -109.8350
16254.986328 76.594 -111.0590
16372.777344 76.687 -112.6108
16491.421875 76.762 -114.4609
16610.923828 76.804 -116.6267
16731.294922 76.805 -119.0324
16852.535156 76.749 -121.6389
16974.656250 76.635 -124.3524
17097.662109 76.456 -127.0905
17221.558594 76.217 -129.7770
17346.353516 75.915 -132.3255
17472.052734 75.557 -134.6834
17598.662109 75.147 -136.7742
17726.189453 74.696 -138.5834
17854.640625 74.213 -140.0666
17984.021484 73.706 -141.2374
18114.341797 73.185 -142.0942
18245.605469 72.654 -142.6398
18377.820312 72.115 -142.8723
18510.994141 71.578 -142.8033
18645.132812 71.054 -142.4380
18780.242188 70.544 -141.7932
18916.332031 70.048 -140.8799
19053.408203 69.577 -139.7222
19191.476562 69.135 -138.3282
19330.546875 68.730 -136.7559
19470.623047 68.374 -135.0493
19611.714844 68.063 -133.2593
19753.830078 67.798 -131.4375
19896.974609 67.578 -129.6259
