* Measurement data measured by REW V5.20.13
* Source: C:\Users\kurin\Desktop\Targets and Curves\Resolve\Img\Files\Mark Levinson No5909_ANC_SPL.txt
* Format: Comma/Tab/Space delimited data
* Dated: Aug 15, 2023 12:10:22 AM
* REW Settings:
*  C-weighting compensation: Off
*  Target level: 75.0 dB
* Note: ; Measurement imported from C:\Users\kurin\Desktop\Targets and Curves\Resolve\Img\Files\Mark Levinson No5909_ANC_SPL.txt Format: Comma/Tab/Space delimited data 623 values loaded, 5 Hz to 39,792 Hz log spaced 
* Measurement: Mark Levinson No5909_ANC_
* Smoothing: 1/48 octave
* Frequency Step: 1/96 octave
* Start Frequency: 5.000 Hz
*
* Freq(Hz) SPL(dB) Phase(degrees)
5.000000 104.442 -47.1710
5.036232 104.427 -47.1653
5.072727 104.411 -47.1590
5.109486 104.392 -47.1514
5.146511 104.370 -47.1430
5.183805 104.344 -47.1336
5.221369 104.315 -47.1240
5.259205 104.286 -47.1155
5.297316 104.255 -47.1070
5.335702 104.221 -47.0976
5.374367 104.187 -47.0880
5.413311 104.153 -47.0789
5.452538 104.120 -47.0700
5.492050 104.087 -47.0615
5.531847 104.053 -47.0530
5.571934 104.020 -47.0441
5.612310 103.986 -47.0350
5.652979 103.952 -47.0260
5.693943 103.919 -47.0170
5.735204 103.886 -47.0080
5.776763 103.852 -46.9990
5.818624 103.818 -46.9901
5.860788 103.784 -46.9810
5.903258 103.750 -46.9715
5.946035 103.717 -46.9620
5.989123 103.684 -46.9530
6.032523 103.650 -46.9440
6.076237 103.617 -46.9346
6.120268 103.583 -46.9250
6.164618 103.550 -46.9156
6.209289 103.516 -46.9060
6.254284 103.483 -46.8960
6.299605 103.449 -46.8860
6.345255 103.415 -46.8765
6.391235 103.381 -46.8670
6.437549 103.347 -46.8571
6.484198 103.314 -46.8470
6.531185 103.281 -46.8370
6.578513 103.247 -46.8270
6.626183 103.214 -46.8171
6.674199 103.180 -46.8070
6.722563 103.147 -46.7965
6.771278 103.113 -46.7860
6.820345 103.080 -46.7760
6.869768 103.046 -46.7660
6.919549 103.012 -46.7556
6.969691 102.978 -46.7450
7.020196 102.944 -46.7340
7.071068 102.911 -46.7230
7.122308 102.878 -46.7125
7.173919 102.844 -46.7020
7.225904 102.811 -46.6911
7.278266 102.777 -46.6800
7.331007 102.744 -46.6691
7.384131 102.710 -46.6580
7.437639 102.677 -46.6465
7.491535 102.643 -46.6350
7.545822 102.609 -46.6240
7.600502 102.575 -46.6130
7.655579 102.541 -46.6016
7.711054 102.508 -46.5900
7.766932 102.475 -46.5786
7.823214 102.441 -46.5670
7.879904 102.408 -46.5551
7.937005 102.374 -46.5430
7.994520 102.341 -46.5310
8.052452 102.307 -46.5190
8.110803 102.274 -46.5071
8.169578 102.240 -46.4950
8.228777 102.206 -46.4826
8.288406 102.172 -46.4700
8.348468 102.138 -46.4575
8.408964 102.105 -46.4450
8.469899 102.072 -46.4325
8.531276 102.038 -46.4200
8.593097 102.005 -46.4076
8.655366 101.971 -46.3950
8.718086 101.938 -46.3821
8.781260 101.904 -46.3690
8.844893 101.871 -46.3555
8.908987 101.837 -46.3420
8.973545 101.803 -46.3290
9.038571 101.769 -46.3160
9.104069 101.735 -46.3026
9.170040 101.702 -46.2890
9.236490 101.669 -46.2750
9.303422 101.635 -46.2610
9.370838 101.602 -46.2475
9.438744 101.568 -46.2340
9.507140 101.535 -46.2201
9.576033 101.501 -46.2060
9.645425 101.468 -46.1916
9.715320 101.434 -46.1770
9.785721 101.400 -46.1625
9.856632 101.366 -46.1480
9.928058 101.332 -46.1336
10.000000 101.299 -46.1190
10.072464 101.266 -46.1041
10.145453 101.232 -46.0890
10.218971 101.199 -46.0740
10.293022 101.165 -46.0590
10.367610 101.132 -46.0441
10.442738 101.098 -46.0290
10.518411 101.064 -46.0136
10.594631 101.031 -45.9980
10.671404 100.998 -45.9821
10.748734 100.964 -45.9660
10.826623 100.930 -45.9500
10.905077 100.896 -45.9340
10.984100 100.862 -45.9180
11.063695 100.829 -45.9020
11.143867 100.796 -45.8861
11.224621 100.762 -45.8700
11.305959 100.729 -45.8531
11.387886 100.695 -45.8360
11.470407 100.662 -45.8195
11.553527 100.628 -45.8030
11.637249 100.595 -45.7861
11.721577 100.561 -45.7690
11.806517 100.527 -45.7516
11.892071 100.493 -45.7340
11.978246 100.459 -45.7166
12.065045 100.426 -45.6990
12.152473 100.393 -45.6811
12.240536 100.359 -45.6630
12.329235 100.326 -45.6450
12.418578 100.292 -45.6270
12.508568 100.259 -45.6091
12.599211 100.225 -45.5910
12.690510 100.192 -45.5726
12.782471 100.158 -45.5540
12.875097 100.124 -45.5351
12.968395 100.090 -45.5160
13.062370 100.056 -45.4971
13.157025 100.023 -45.4780
13.252366 99.990 -45.4586
13.348398 99.956 -45.4390
13.445127 99.923 -45.4196
13.542556 99.889 -45.4000
13.640691 99.856 -45.3801
13.739536 99.822 -45.3600
13.839099 99.789 -45.3401
13.939383 99.755 -45.3200
14.040393 99.721 -45.2996
14.142136 99.687 -45.2790
14.244616 99.653 -45.2586
14.347837 99.620 -45.2380
14.451808 99.587 -45.2166
14.556532 99.553 -45.1950
14.662014 99.520 -45.1740
14.768262 99.486 -45.1530
14.875278 99.453 -45.1316
14.983070 99.419 -45.1100
15.091644 99.386 -45.0881
15.201005 99.352 -45.0660
15.311157 99.318 -45.0435
15.422109 99.284 -45.0210
15.533863 99.250 -44.9991
15.646428 99.217 -44.9770
15.759809 99.184 -44.9541
15.874010 99.150 -44.9310
15.989040 99.117 -44.9081
16.104904 99.083 -44.8850
16.221605 99.050 -44.8617
16.339155 99.016 -44.8380
16.457554 98.983 -44.8142
16.576813 98.949 -44.7900
16.696936 98.915 -44.7656
16.817928 98.881 -44.7410
16.939798 98.847 -44.7166
17.062551 98.814 -44.6920
17.186193 98.781 -44.6672
17.310732 98.747 -44.6420
17.436172 98.714 -44.6161
17.562521 98.680 -44.5900
17.689787 98.647 -44.5641
17.817974 98.613 -44.5380
17.947090 98.580 -44.5117
18.077143 98.546 -44.4850
18.208138 98.512 -44.4577
18.340080 98.478 -44.4300
18.472980 98.444 -44.4022
18.606844 98.411 -44.3740
18.741676 98.378 -44.3453
18.877487 98.344 -44.3160
19.014280 98.311 -44.2864
19.152065 98.277 -44.2560
19.290850 98.244 -44.2250
19.430639 98.210 -44.1930
19.571442 98.176 -44.1598
19.713264 98.142 -44.1250
19.856115 98.109 -44.0885
20.000000 98.076 -44.0500
20.144928 98.043 -44.0092
20.290907 98.010 -43.9670
20.437943 97.978 -43.9235
20.586044 97.947 -43.8810
20.735220 97.917 -43.8427
20.885475 97.888 -43.8070
21.036821 97.858 -43.7734
21.189262 97.829 -43.7430
21.342808 97.801 -43.7165
21.497467 97.773 -43.6960
21.653246 97.745 -43.6856
21.810154 97.717 -43.6810
21.968201 97.686 -43.6796
22.127390 97.655 -43.6800
22.287735 97.624 -43.6794
22.449242 97.592 -43.6790
22.611917 97.560 -43.6791
22.775772 97.527 -43.6790
22.940815 97.494 -43.6776
23.107054 97.461 -43.6770
23.274498 97.428 -43.6791
23.443153 97.395 -43.6830
23.613033 97.360 -43.6886
23.784142 97.325 -43.6960
23.956491 97.290 -43.7066
24.130091 97.254 -43.7170
24.304947 97.215 -43.7259
24.481071 97.175 -43.7290
24.658470 97.134 -43.7202
24.837156 97.092 -43.7030
25.017136 97.051 -43.6790
25.198421 97.011 -43.6480
25.381020 96.970 -43.6102
25.564941 96.929 -43.5660
25.750195 96.890 -43.5143
25.936790 96.853 -43.4601
26.124741 96.817 -43.4086
26.314051 96.782 -43.3581
26.504732 96.746 -43.3089
26.696796 96.710 -43.2601
26.890253 96.676 -43.2095
27.085112 96.642 -43.1601
27.281382 96.609 -43.1142
27.479073 96.576 -43.0711
27.678198 96.542 -43.0304
27.878765 96.509 -42.9921
28.080786 96.476 -42.9549
28.284271 96.444 -42.9210
28.489231 96.412 -42.8928
28.695675 96.379 -42.8680
28.903616 96.346 -42.8451
29.113064 96.312 -42.8250
29.324028 96.279 -42.8083
29.536524 96.246 -42.7950
29.750557 96.212 -42.7864
29.966141 96.176 -42.7790
30.183289 96.139 -42.7700
30.402010 96.101 -42.7590
30.622314 96.062 -42.7448
30.844217 96.023 -42.7270
31.067726 95.984 -42.7050
31.292856 95.945 -42.6790
31.519617 95.906 -42.6480
31.748020 95.867 -42.6160
31.978081 95.830 -42.5854
32.209808 95.794 -42.5600
32.443211 95.759 -42.5463
32.678310 95.722 -42.5400
32.915108 95.683 -42.5411
33.153625 95.641 -42.5440
33.393871 95.597 -42.5439
33.635857 95.551 -42.5380
33.879597 95.503 -42.5235
34.125103 95.453 -42.4960
34.372387 95.401 -42.4491
34.621464 95.348 -42.3861
34.872345 95.298 -42.3057
35.125042 95.250 -42.2151
35.379574 95.204 -42.1210
35.635948 95.160 -42.0241
35.894180 95.116 -41.9274
36.154285 95.072 -41.8311
36.416275 95.031 -41.7368
36.680161 94.989 -41.6441
36.945961 94.946 -41.5555
37.213688 94.901 -41.4641
37.483353 94.855 -41.3641
37.754974 94.809 -41.2552
38.028561 94.764 -41.1341
38.304131 94.719 -41.0042
38.581699 94.675 -40.8675
38.861279 94.633 -40.7252
39.142883 94.592 -40.5777
39.426529 94.553 -40.4292
39.712231 94.517 -40.2840
40.000000 94.482 -40.1432
40.289856 94.447 -40.0097
40.581814 94.413 -39.8822
40.875885 94.380 -39.7605
41.172089 94.346 -39.6442
41.470440 94.312 -39.5340
41.770950 94.276 -39.4262
42.073643 94.239 -39.3180
42.378525 94.201 -39.2072
42.685616 94.162 -39.0902
42.994934 94.123 -38.9672
43.306492 94.084 -38.8359
43.620308 94.046 -38.6992
43.936401 94.009 -38.5581
44.254780 93.974 -38.4162
44.575470 93.940 -38.2780
44.898483 93.907 -38.1422
45.223835 93.873 -38.0093
45.551544 93.839 -37.8792
45.881630 93.806 -37.7521
46.214108 93.773 -37.6272
46.548996 93.739 -37.5045
46.886307 93.704 -37.3822
47.226067 93.669 -37.2584
47.568283 93.633 -37.1332
47.912983 93.598 -37.0061
48.260181 93.562 -36.8762
48.609894 93.526 -36.7412
48.962143 93.490 -36.6052
49.316940 93.456 -36.4717
49.674313 93.422 -36.3402
50.034271 93.387 -36.2126
50.396843 93.351 -36.0852
50.762039 93.314 -35.9540
51.129883 93.277 -35.8212
51.500389 93.240 -35.6887
51.873581 93.203 -35.5542
52.249481 93.164 -35.4170
52.628101 93.124 -35.2752
53.009464 93.084 -35.1268
53.393593 93.043 -34.9723
53.780506 93.002 -34.8116
54.170223 92.960 -34.6443
54.562763 92.919 -34.4693
54.958145 92.877 -34.2873
55.356396 92.836 -34.0989
55.757530 92.794 -33.9033
56.161572 92.752 -33.6997
56.568542 92.710 -33.4884
56.978462 92.669 -33.2698
57.391350 92.627 -33.0434
57.807232 92.586 -32.8091
58.226128 92.544 -32.5654
58.648056 92.503 -32.3113
59.073048 92.462 -32.0464
59.501114 92.422 -31.7702
59.932281 92.382 -31.4825
60.366577 92.343 -31.1829
60.804020 92.305 -30.8725
61.244629 92.269 -30.5523
61.688435 92.234 -30.2226
62.135452 92.201 -29.8845
62.585712 92.169 -29.5366
63.039234 92.138 -29.1776
63.496040 92.108 -28.8076
63.956161 92.081 -28.4257
64.419617 92.057 -28.0347
64.886421 92.035 -27.6369
65.356621 92.016 -27.2327
65.830215 91.999 -26.8223
66.307251 91.985 -26.4088
66.787743 91.976 -25.9950
67.271713 91.969 -25.5828
67.759193 91.965 -25.1753
68.250206 91.962 -24.7707
68.744774 91.961 -24.3692
69.242928 91.962 -23.9677
69.744690 91.964 -23.5637
70.250084 91.969 -23.1568
70.759148 91.976 -22.7447
71.271896 91.986 -22.3308
71.788361 92.001 -21.9164
72.308571 92.020 -21.5048
72.832550 92.042 -21.0984
73.360321 92.069 -20.7007
73.891922 92.101 -20.3150
74.427376 92.137 -19.9447
74.966705 92.177 -19.5942
75.509949 92.220 -19.2646
76.057121 92.266 -18.9579
76.608261 92.315 -18.6755
77.163399 92.366 -18.4197
77.722557 92.420 -18.1904
78.285767 92.475 -17.9878
78.853058 92.532 -17.8143
79.424461 92.591 -17.6728
80.000000 92.651 -17.5632
80.579712 92.710 -17.4885
81.163628 92.767 -17.4421
81.751770 92.822 -17.4178
82.344177 92.876 -17.4170
82.940880 92.931 -17.4391
83.541901 92.985 -17.4839
84.147285 93.037 -17.5524
84.757050 93.087 -17.6408
85.371231 93.135 -17.7445
85.989868 93.182 -17.8667
86.612984 93.229 -18.0084
87.240616 93.276 -18.1717
87.872803 93.321 -18.3598
88.509560 93.363 -18.5695
89.150940 93.402 -18.7994
89.796967 93.438 -19.0465
90.447670 93.471 -19.3080
91.103088 93.502 -19.5824
91.763260 93.529 -19.8682
92.428215 93.553 -20.1624
93.097992 93.573 -20.4615
93.772614 93.591 -20.7654
94.452133 93.608 -21.0712
95.136566 93.623 -21.3833
95.825966 93.637 -21.7055
96.520363 93.650 -22.0373
97.219788 93.660 -22.3791
97.924286 93.668 -22.7322
98.633881 93.674 -23.0984
99.348625 93.678 -23.4772
100.068542 93.678 -23.8715
100.793686 93.674 -24.2740
101.524078 93.665 -24.6785
102.259766 93.651 -25.0840
103.000778 93.635 -25.4872
103.747162 93.615 -25.8882
104.498962 93.591 -26.2870
105.256203 93.564 -26.6812
106.018929 93.534 -27.0683
106.787186 93.501 -27.4493
107.561012 93.466 -27.8245
108.340446 93.428 -28.1934
109.125526 93.387 -28.5562
109.916290 93.342 -28.9104
110.712791 93.295 -29.2540
111.515060 93.244 -29.5853
112.323143 93.191 -29.9026
113.137085 93.135 -30.2044
113.956924 93.077 -30.4875
114.782700 93.017 -30.7553
115.614464 92.958 -31.0102
116.452255 92.897 -31.2525
117.296112 92.834 -31.4844
118.146095 92.770 -31.7036
119.002228 92.705 -31.9078
119.864563 92.638 -32.0995
120.733154 92.572 -32.2814
121.608040 92.504 -32.4506
122.489258 92.433 -32.6059
123.376869 92.361 -32.7457
124.270905 92.288 -32.8675
125.171425 92.215 -32.9738
126.078468 92.142 -33.0669
126.992081 92.068 -33.1448
127.912323 91.993 -33.2060
128.839233 91.918 -33.2519
129.772842 91.844 -33.2834
130.713242 91.770 -33.3010
131.660431 91.696 -33.3058
132.614502 91.621 -33.2970
133.575485 91.547 -33.2738
134.543427 91.473 -33.2381
135.518387 91.401 -33.1924
136.500412 91.328 -33.1351
137.489548 91.255 -33.0657
138.485855 91.182 -32.9832
139.489380 91.110 -32.8859
140.500168 91.039 -32.7763
141.518295 90.969 -32.6557
142.543793 90.900 -32.5263
143.576721 90.833 -32.3905
144.617142 90.766 -32.2483
145.665100 90.700 -32.1012
146.720642 90.634 -31.9474
147.783844 90.568 -31.7863
148.854752 90.502 -31.6165
149.933411 90.436 -31.4372
151.019897 90.370 -31.2465
152.114243 90.305 -31.0418
153.216522 90.240 -30.8236
154.326797 90.176 -30.5912
155.445114 90.114 -30.3466
156.571533 90.054 -30.0902
157.706116 89.996 -29.8266
158.848923 89.942 -29.5603
160.000000 89.889 -29.2927
161.159424 89.838 -29.0275
162.327255 89.787 -28.7626
163.503540 89.737 -28.4973
164.688354 89.687 -28.2306
165.881760 89.638 -27.9620
167.083801 89.588 -27.6887
168.294571 89.538 -27.4087
169.514099 89.488 -27.1197
170.742462 89.439 -26.8183
171.979736 89.390 -26.5059
173.225967 89.343 -26.1811
174.481232 89.299 -25.8488
175.745605 89.258 -25.5126
177.019119 89.220 -25.1748
178.301880 89.184 -24.8386
179.593933 89.149 -24.5049
180.895340 89.116 -24.1749
182.206177 89.085 -23.8508
183.526520 89.055 -23.5365
184.856430 89.026 -23.2277
186.195984 88.995 -22.9221
187.545227 88.964 -22.6167
188.904266 88.933 -22.3080
190.273132 88.902 -21.9958
191.651932 88.871 -21.6791
193.040726 88.841 -21.3569
194.439575 88.811 -21.0270
195.848572 88.783 -20.6920
197.267761 88.757 -20.3528
198.697250 88.733 -20.0128
200.137085 88.711 -19.6762
201.587372 88.690 -19.3418
203.048157 88.669 -19.0101
204.519531 88.649 -18.6800
206.001556 88.631 -18.3492
207.494324 88.614 -18.0218
208.997925 88.599 -17.7014
210.512405 88.585 -17.3867
212.037857 88.570 -17.0786
213.574371 88.555 -16.7737
215.122025 88.540 -16.4684
216.680893 88.526 -16.1648
218.251053 88.513 -15.8645
219.832581 88.500 -15.5659
221.425583 88.486 -15.2693
223.030121 88.471 -14.9708
224.646286 88.457 -14.6647
226.274170 88.444 -14.3558
227.913849 88.433 -14.0466
229.565399 88.423 -13.7378
231.228928 88.414 -13.4306
232.904510 88.406 -13.1259
234.592224 88.400 -12.8238
236.292191 88.395 -12.5278
238.004456 88.392 -12.2415
239.729126 88.389 -11.9647
241.466309 88.386 -11.6995
243.216080 88.382 -11.4427
244.978516 88.377 -11.1931
246.753738 88.371 -10.9467
248.541809 88.363 -10.6987
250.342850 88.355 -10.4497
252.156937 88.347 -10.1988
253.984161 88.339 -9.9457
255.824646 88.330 -9.6900
257.678467 88.321 -9.4317
259.545685 88.312 -9.1697
261.426483 88.304 -8.9057
263.320862 88.296 -8.6414
265.229004 88.288 -8.3747
267.150970 88.279 -8.1044
269.086853 88.270 -7.8298
271.036774 88.262 -7.5501
273.000824 88.254 -7.2649
274.979095 88.246 -6.9735
276.971710 88.239 -6.6759
278.978760 88.233 -6.3709
281.000336 88.229 -6.0618
283.036591 88.228 -5.7507
285.087585 88.228 -5.4399
287.153442 88.230 -5.1321
289.234283 88.233 -4.8288
291.330200 88.239 -4.5321
293.441284 88.246 -4.2438
295.567688 88.254 -3.9669
297.709503 88.262 -3.6997
299.866821 88.270 -3.4416
302.039795 88.278 -3.1917
304.228485 88.285 -2.9501
306.433044 88.292 -2.7137
308.653595 88.297 -2.4807
310.890228 88.301 -2.2476
313.143066 88.304 -2.0105
315.412231 88.306 -1.7687
317.697845 88.309 -1.5197
320.000000 88.312 -1.2658
322.318848 88.317 -1.0072
324.654510 88.323 -0.7478
327.007080 88.331 -0.4917
329.376709 88.341 -0.2388
331.763519 88.351 0.0103
334.167603 88.362 0.2532
336.589142 88.375 0.4882
339.028198 88.389 0.7124
341.484924 88.403 0.9207
343.959473 88.416 1.1185
346.451935 88.427 1.3085
348.962463 88.436 1.4925
351.491211 88.446 1.6727
354.038239 88.454 1.8495
356.603760 88.460 2.0223
359.187866 88.465 2.1955
361.790680 88.468 2.3730
364.412354 88.470 2.5555
367.053040 88.471 2.7447
369.712860 88.472 2.9404
372.391968 88.472 3.1428
375.090454 88.472 3.3524
377.808533 88.472 3.5702
380.546265 88.472 3.7953
383.303864 88.473 4.0274
386.081451 88.474 4.2663
388.879150 88.475 4.5127
391.697144 88.478 4.7642
394.535522 88.483 5.0196
397.394501 88.490 5.2763
400.274170 88.498 5.5312
403.174744 88.506 5.7852
406.096313 88.515 6.0376
409.039062 88.524 6.2892
412.003113 88.534 6.5407
414.988647 88.544 6.7912
417.995850 88.555 7.0395
421.024811 88.567 7.2872
424.075714 88.578 7.5350
427.148743 88.590 7.7842
430.244049 88.602 8.0375
433.361786 88.615 8.2922
436.502106 88.630 8.5474
439.665161 88.646 8.8002
442.851166 88.664 9.0469
446.060242 88.682 9.2893
449.292572 88.700 9.5273
452.548340 88.718 9.7623
455.827698 88.737 9.9958
459.130798 88.756 10.2273
462.457855 88.775 10.4566
465.809021 88.795 10.6843
469.184448 88.815 10.9100
472.584381 88.836 11.1353
476.008911 88.856 11.3622
479.458252 88.878 11.5893
482.932617 88.901 11.8168
486.432159 88.926 12.0423
489.957031 88.952 12.2639
493.507477 88.980 12.4803
497.083618 89.008 12.6897
500.685699 89.038 12.8923
504.313873 89.069 13.0898
507.968323 89.102 13.2774
511.649292 89.138 13.4519
515.356934 89.175 13.6105
519.091370 89.212 13.7481
522.852966 89.250 13.8686
526.641724 89.286 13.9757
530.458008 89.323 14.0647
534.301941 89.362 14.1329
538.173706 89.402 14.1779
542.073547 89.439 14.1963
546.001648 89.476 14.1881
549.958191 89.512 14.1537
553.943420 89.546 14.0883
557.957520 89.578 13.9879
562.000671 89.607 13.8505
566.073181 89.630 13.6717
570.175171 89.647 13.4548
574.306885 89.655 13.1971
578.468567 89.652 12.9120
582.660400 89.634 12.6014
586.882568 89.598 12.2970
591.135376 89.541 12.0189
595.419006 89.465 11.8036
599.733643 89.368 11.6863
604.079590 89.256 11.6917
608.456970 89.132 11.8548
612.866089 89.002 12.1796
617.307190 88.872 12.6888
621.780457 88.750 13.3615
626.286133 88.646 14.1998
630.824463 88.564 15.1567
635.395691 88.514 16.2010
640.000000 88.492 17.2872
644.637695 88.502 18.3689
649.309021 88.538 19.4185
654.014160 88.596 20.3951
658.753418 88.670 21.2931
663.527039 88.754 22.0901
668.335205 88.846 22.7958
673.178284 88.939 23.4076
678.056396 89.033 23.9403
682.969849 89.123 24.4042
687.918945 89.211 24.8107
692.903870 89.295 25.1729
697.924927 89.376 25.4969
702.982422 89.454 25.7913
708.076477 89.529 26.0611
713.207520 89.599 26.3133
718.375732 89.667 26.5502
723.581360 89.734 26.7757
728.824707 89.799 26.9912
734.106079 89.861 27.1988
739.425720 89.921 27.4013
744.783936 89.979 27.6030
750.180908 90.037 27.8023
755.617065 90.095 27.9986
761.092529 90.152 28.1923
766.607727 90.207 28.3825
772.162903 90.262 28.5723
777.758301 90.316 28.7649
783.394287 90.371 28.9593
789.071045 90.424 29.1546
794.789001 90.478 29.3533
800.548340 90.531 29.5583
806.349487 90.585 29.7682
812.192627 90.641 29.9837
818.078125 90.699 30.2012
824.006226 90.758 30.4177
829.977295 90.819 30.6332
835.991699 90.882 30.8485
842.049622 90.947 31.0592
848.151428 91.015 31.2620
854.297485 91.085 31.4553
860.488098 91.155 31.6362
866.723572 91.228 31.8054
873.004211 91.302 31.9641
879.330322 91.378 32.1085
885.702332 91.455 32.2346
892.120483 91.533 32.3436
898.585144 91.609 32.4341
905.096680 91.686 32.5097
911.655396 91.762 32.5741
918.261597 91.838 32.6258
924.915710 91.914 32.6642
931.618042 91.989 32.6909
938.368896 92.062 32.7065
945.168762 92.135 32.7140
952.017822 92.207 32.7173
958.916504 92.279 32.7150
965.865234 92.351 32.7077
972.864319 92.423 32.6931
979.914062 92.495 32.6690
987.014954 92.568 32.6361
994.167236 92.640 32.5949
1001.371399 92.712 32.5442
1008.627747 92.785 32.4841
1015.936646 92.858 32.4113
1023.298584 92.932 32.3222
1030.713867 93.005 32.2174
1038.182739 93.076 32.0957
1045.705933 93.146 31.9586
1053.283447 93.214 31.8064
1060.916016 93.281 31.6417
1068.603882 93.344 31.4657
1076.347412 93.404 31.2828
1084.147095 93.460 31.0964
1092.003296 93.514 30.9106
1099.916382 93.564 30.7300
1107.886841 93.613 30.5567
1115.915039 93.659 30.3944
1124.001343 93.705 30.2435
1132.146362 93.750 30.1071
1140.350342 93.795 29.9815
1148.613770 93.842 29.8658
1156.937134 93.892 29.7545
1165.320801 93.943 29.6421
1173.765137 93.995 29.5275
1182.270752 94.048 29.4086
1190.838013 94.103 29.2825
1199.467285 94.160 29.1466
1208.159180 94.217 28.9986
1216.913940 94.273 28.8348
1225.732178 94.329 28.6577
1234.614380 94.384 28.4685
1243.560913 94.439 28.2678
1252.572266 94.492 28.0552
1261.648926 94.543 27.8349
1270.791382 94.591 27.6109
1280.000000 94.638 27.3829
1289.275391 94.685 27.1523
1298.618042 94.732 26.9180
1308.028320 94.776 26.6793
1317.506836 94.819 26.4370
1327.054077 94.861 26.1927
1336.670410 94.903 25.9440
1346.356567 94.944 25.6890
1356.112793 94.985 25.4280
1365.939697 95.023 25.1606
1375.837891 95.060 24.8862
1385.807739 95.097 24.6035
1395.849854 95.132 24.3132
1405.964844 95.164 24.0150
1416.152954 95.193 23.7101
1426.415039 95.221 23.4012
1436.751465 95.246 23.0842
1447.162720 95.269 22.7550
1457.649414 95.288 22.4164
1468.212158 95.301 22.0669
1478.851440 95.308 21.7153
1489.567871 95.307 21.3654
1500.361816 95.298 21.0302
1511.234131 95.279 20.7196
1522.185059 95.251 20.4481
1533.215454 95.214 20.2281
1544.325806 95.169 20.0765
1555.516602 95.115 20.0113
1566.788574 95.058 20.0417
1578.142090 95.001 20.1850
1589.578003 94.948 20.4337
1601.096680 94.904 20.7917
1612.698975 94.873 21.2420
1624.385254 94.858 21.7788
1636.156250 94.862 22.3713
1648.012451 94.892 22.9970
1659.954590 94.945 23.6247
1671.983398 95.019 24.2215
1684.099243 95.113 24.7698
1696.302856 95.224 25.2447
1708.594971 95.348 25.6355
1720.976196 95.482 25.9214
1733.447144 95.621 26.1074
1746.008423 95.761 26.1872
1758.660645 95.900 26.1732
1771.404663 96.035 26.0720
1784.240967 96.165 25.8949
1797.170288 96.289 25.6527
1810.193359 96.406 25.3543
1823.310791 96.515 25.0094
1836.523193 96.618 24.6266
1849.831421 96.712 24.2152
1863.236084 96.799 23.7830
1876.737793 96.878 23.3389
1890.337524 96.950 22.8890
1904.035645 97.015 22.4407
1917.833008 97.075 21.9987
1931.730469 97.129 21.5696
1945.728638 97.180 21.1547
1959.828125 97.227 20.7582
1974.029907 97.273 20.3786
1988.334473 97.317 20.0163
2002.742798 97.361 19.6694
2017.255493 97.404 19.3369
2031.873291 97.448 19.0153
2046.597168 97.493 18.7014
2061.427734 97.538 18.3934
2076.365479 97.582 18.0872
2091.411865 97.627 17.7862
2106.566895 97.671 17.4934
2121.832031 97.716 17.2062
2137.207764 97.762 16.9235
2152.694824 97.810 16.6441
2168.294189 97.858 16.3665
2184.006592 97.907 16.0903
2199.832764 97.957 15.8162
2215.773682 98.010 15.5391
2231.830078 98.065 15.2542
2248.002686 98.122 14.9612
2264.292725 98.178 14.6580
2280.700684 98.234 14.3454
2297.227539 98.291 14.0237
2313.874268 98.349 13.6924
2330.641602 98.406 13.3491
2347.530273 98.463 12.9985
2364.541504 98.518 12.6444
2381.676025 98.573 12.2866
2398.934570 98.628 11.9276
2416.318359 98.685 11.5636
2433.827881 98.742 11.1910
2451.464355 98.800 10.8126
2469.228760 98.856 10.4307
2487.121826 98.913 10.0437
2505.144531 98.971 9.6512
2523.297852 99.030 9.2508
2541.582764 99.090 8.8398
2560.000000 99.150 8.4189
2578.550781 99.210 7.9877
2597.236084 99.270 7.5471
2616.056641 99.330 7.0978
2635.013672 99.390 6.6390
2654.108154 99.451 6.1702
2673.340820 99.513 5.6901
2692.713135 99.574 5.1971
2712.225586 99.636 4.6914
2731.879395 99.697 4.1732
2751.675781 99.760 3.6405
2771.615479 99.823 3.0925
2791.699707 99.887 2.5266
2811.929688 99.950 1.9392
2832.305908 100.012 1.3319
2852.830078 100.072 0.7041
2873.502930 100.132 0.0579
2894.325439 100.189 -0.6043
2915.298828 100.246 -1.2839
2936.424316 100.301 -1.9815
2957.702881 100.355 -2.6968
2979.135742 100.405 -3.4301
3000.723633 100.453 -4.1797
3022.468262 100.499 -4.9429
3044.370117 100.543 -5.7233
3066.430908 100.585 -6.5261
3088.651611 100.624 -7.3453
3111.033203 100.656 -8.1790
3133.577148 100.683 -9.0210
3156.284180 100.706 -9.8645
3179.156006 100.725 -10.7090
3202.193359 100.740 -11.5531
3225.397949 100.751 -12.3920
3248.770508 100.757 -13.2201
3272.312500 100.760 -14.0383
3296.024902 100.763 -14.8447
3319.909180 100.764 -15.6433
3343.966797 100.764 -16.4368
3368.198486 100.762 -17.2272
3392.605713 100.760 -18.0176
3417.189941 100.756 -18.8083
3441.952393 100.749 -19.6021
3466.894287 100.740 -20.3954
3492.016846 100.728 -21.1866
3517.321289 100.714 -21.9734
3542.809326 100.696 -22.7544
3568.481934 100.675 -23.5255
3594.340576 100.650 -24.2821
3620.386719 100.623 -25.0235
3646.621582 100.595 -25.7476
3673.046387 100.565 -26.4537
3699.662842 100.534 -27.1398
3726.472168 100.502 -27.8080
3753.475586 100.472 -28.4583
3780.675049 100.442 -29.0952
3808.071289 100.414 -29.7222
3835.666016 100.386 -30.3411
3863.460938 100.359 -30.9533
3891.457275 100.334 -31.5621
3919.656250 100.311 -32.1710
3948.059814 100.288 -32.7812
3976.668945 100.266 -33.3953
4005.485596 100.244 -34.0130
4034.510986 100.222 -34.6358
4063.746582 100.198 -35.2610
4093.194336 100.173 -35.8873
4122.855469 100.147 -36.5120
4152.730957 100.120 -37.1315
4182.823730 100.093 -37.7471
4213.133789 100.066 -38.3595
4243.664062 100.038 -38.9671
4274.415527 100.009 -39.5684
4305.389648 99.980 -40.1641
4336.588379 99.953 -40.7531
4368.013184 99.927 -41.3392
4399.665527 99.902 -41.9264
4431.547363 99.877 -42.5131
4463.660156 99.853 -43.0993
4496.005371 99.829 -43.6851
4528.585449 99.806 -44.2699
4561.401367 99.785 -44.8562
4594.455078 99.766 -45.4455
4627.748535 99.748 -46.0401
4661.283203 99.732 -46.6415
4695.060547 99.719 -47.2540
4729.083008 99.708 -47.8808
4763.352051 99.700 -48.5269
4797.869141 99.694 -49.1963
4832.636719 99.689 -49.8944
4867.655762 99.687 -50.6262
4902.928711 99.686 -51.3961
4938.457520 99.684 -52.2096
4974.243652 99.681 -53.0688
5010.289062 99.676 -53.9781
5046.595703 99.668 -54.9371
5083.165527 99.654 -55.9490
5120.000000 99.632 -57.0067
5157.101562 99.601 -58.1058
5194.472168 99.561 -59.2404
5232.113281 99.512 -60.4061
5270.027344 99.450 -61.5940
5308.216309 99.375 -62.7969
5346.681641 99.286 -64.0041
5385.426270 99.184 -65.2065
5424.451172 99.067 -66.3923
5463.758789 98.934 -67.5503
5503.351562 98.787 -68.6687
5543.230957 98.625 -69.7360
5583.399414 98.449 -70.7393
5623.859375 98.256 -71.6702
5664.611816 98.048 -72.5022
5705.660156 97.822 -73.2138
5747.005859 97.582 -73.7815
5788.650879 97.331 -74.1800
5830.597656 97.072 -74.3924
5872.848633 96.808 -74.3967
5915.405762 96.544 -74.1827
5958.271484 96.285 -73.7275
6001.447266 96.042 -73.0471
6044.936523 95.826 -72.1338
6088.740234 95.646 -71.0359
6132.861816 95.513 -69.7756
6177.303223 95.434 -68.4249
6222.066406 95.421 -67.0355
6267.154297 95.471 -65.6915
6312.568359 95.587 -64.4698
6358.312012 95.760 -63.4445
6404.386719 95.986 -62.7021
6450.795898 96.246 -62.2832
6497.541016 96.525 -62.2597
6544.625000 96.810 -62.6242
6592.049805 97.083 -63.4077
6639.818359 97.334 -64.5661
6687.933594 97.549 -66.0900
6736.396973 97.721 -67.9060
6785.211426 97.841 -69.9649
6834.379883 97.909 -72.1843
6883.904785 97.918 -74.4865
6933.788574 97.873 -76.8071
6984.033691 97.777 -79.0696
7034.642578 97.635 -81.2325
7085.618652 97.448 -83.2343
7136.963867 97.226 -85.0583
7188.681152 96.975 -86.6641
7240.773438 96.703 -88.0615
7293.243164 96.419 -89.2408
7346.092773 96.125 -90.2215
7399.325684 95.829 -91.0144
7452.944336 95.530 -91.6373
7506.951172 95.236 -92.1084
7561.350098 94.943 -92.4377
7616.142578 94.653 -92.6447
7671.332031 94.362 -92.7190
7726.921875 94.069 -92.6648
7782.914551 93.774 -92.4565
7839.312500 93.474 -92.0786
7896.119629 93.174 -91.5036
7953.337891 92.870 -90.7041
8010.971191 92.573 -89.6642
8069.021973 92.285 -88.3528
8127.493164 92.021 -86.7879
8186.388672 91.791 -84.9601
8245.710938 91.605 -82.9213
8305.461914 91.477 -80.6948
8365.647461 91.413 -78.3585
8426.267578 91.428 -75.9729
8487.328125 91.514 -73.6152
8548.831055 91.674 -71.3636
8610.779297 91.897 -69.2775
8673.176758 92.180 -67.4304
8736.026367 92.509 -65.8587
8799.331055 92.874 -64.6242
8863.094727 93.261 -63.7239
8927.320312 93.656 -63.1825
8992.010742 94.054 -62.9762
9057.170898 94.447 -63.0964
9122.802734 94.831 -63.5210
9188.910156 95.202 -64.2357
9255.497070 95.555 -65.2081
9322.566406 95.886 -66.4099
9390.121094 96.196 -67.8141
9458.166016 96.487 -69.3885
9526.704102 96.758 -71.1205
9595.738281 97.009 -72.9895
9665.273438 97.241 -74.9871
9735.311523 97.455 -77.0966
9805.857422 97.653 -79.3216
9876.915039 97.836 -81.6574
9948.487305 98.003 -84.1134
10020.578125 98.153 -86.6959
10093.191406 98.284 -89.4099
10166.331055 98.394 -92.2630
10240.000000 98.480 -95.2538
10314.203125 98.538 -98.3902
10388.944336 98.563 -101.6522
10464.226562 98.549 -105.0354
10540.054688 98.490 -108.5002
10616.432617 98.383 -112.0260
10693.363281 98.225 -115.5511
10770.852539 98.011 -119.0320
10848.902344 97.742 -122.3972
10927.517578 97.412 -125.5877
11006.703125 97.027 -128.5239
11086.461914 96.584 -131.1241
11166.798828 96.095 -133.3349
11247.718750 95.565 -135.0748
11329.223633 95.011 -136.3467
11411.320312 94.445 -137.1122
11494.011719 93.886 -137.4156
11577.301758 93.346 -137.2559
11661.195312 92.850 -136.7298
11745.697266 92.421 -135.8923
11830.811523 92.066 -134.8689
11916.542969 91.800 -133.7717
12002.894531 91.613 -132.6967
12089.873047 91.505 -131.7566
12177.480469 91.459 -131.0125
12265.723633 91.467 -130.5587
12354.606445 91.508 -130.4079
12444.132812 91.562 -130.6134
12534.308594 91.620 -131.1472
12625.136719 91.665 -132.0155
12716.624023 91.689 -133.1692
12808.773438 91.680 -134.5812
12901.591797 91.634 -136.1904
12995.082031 91.544 -137.9491
13089.250000 91.408 -139.7897
13184.099609 91.220 -141.6477
13279.636719 90.985 -143.4648
13375.867188 90.703 -145.1767
13472.793945 90.376 -146.7367
13570.422852 90.004 -148.0918
13668.759766 89.594 -149.1963
13767.809570 89.145 -149.9964
13867.577148 88.670 -150.4633
13968.067383 88.175 -150.5565
14069.285156 87.668 -150.2579
14171.237305 87.153 -149.5375
14273.927734 86.646 -148.3902
14377.362305 86.155 -146.7866
14481.546875 85.702 -144.7704
14586.486328 85.304 -142.3435
14692.185547 84.982 -139.6047
14798.651367 84.758 -136.6076
14905.888672 84.643 -133.4932
15013.902344 84.660 -130.3717
15122.700195 84.795 -127.3913
15232.285156 85.052 -124.7001
15342.664062 85.401 -122.4085
15453.843750 85.824 -120.6624
15565.829102 86.289 -119.5036
15678.625000 86.768 -119.0397
15792.239258 87.236 -119.2153
15906.675781 87.659 -120.0490
16021.942383 88.032 -121.4242
16138.043945 88.338 -123.2732
16254.986328 88.576 -125.4665
16372.777344 88.737 -127.8900
16491.421875 88.829 -130.4288
16610.923828 88.851 -132.9446
16731.294922 88.819 -135.3921
16852.535156 88.747 -137.6743
16974.656250 88.644 -139.8095
17097.662109 88.523 -141.7688
17221.558594 88.392 -143.5982
17346.353516 88.261 -145.3166
17472.052734 88.131 -146.9780
17598.662109 88.011 -148.6352
17726.189453 87.891 -150.3121
17854.640625 87.764 -152.0583
17984.021484 87.624 -153.8489
18114.341797 87.461 -155.6908
18245.605469 87.272 -157.5376
18377.820312 87.051 -159.3624
18510.994141 86.798 -161.1131
18645.132812 86.509 -162.7420
18780.242188 86.190 -164.2086
18916.332031 85.843 -165.4598
19053.408203 85.477 -166.4859
19191.476562 85.100 -167.2515
19330.546875 84.722 -167.7808
19470.623047 84.351 -168.0716
19611.714844 83.995 -168.1679
19753.830078 83.663 -168.0986
19896.974609 83.356 -167.9075
