* Measurement data measured by REW V5.20.13
* Source: C:\Users\kurin\Desktop\Targets and Curves\Resolve\Img\Lecram\Audivana_SPL.txt
* Format: Comma/Tab/Space delimited data
* Dated: Aug 15, 2023 3:21:44 PM
* REW Settings:
*  C-weighting compensation: Off
*  Target level: 75.0 dB
* Note: ; Measurement imported from C:\Users\kurin\Desktop\Targets and Curves\Resolve\Img\Lecram\Audivana_SPL.txt Format: Comma/Tab/Space delimited data 623 values loaded, 5 Hz to 39,792 Hz log spaced 
* Measurement: Audivana_SPL
* Smoothing: 1/48 octave
* Frequency Step: 1/96 octave
* Start Frequency: 5.000 Hz
*
* Freq(Hz) SPL(dB) Phase(degrees)
5.000000 56.788 116.8080
5.036232 56.827 116.7820
5.072727 56.869 116.7540
5.109486 56.918 116.7212
5.146511 56.974 116.6840
5.183805 57.041 116.6408
5.221369 57.114 116.5950
5.259205 57.190 116.5502
5.297316 57.269 116.5040
5.335702 57.353 116.4544
5.374367 57.440 116.4040
5.413311 57.526 116.3554
5.452538 57.612 116.3070
5.492050 57.698 116.2581
5.531847 57.783 116.2090
5.571934 57.868 116.1596
5.612310 57.954 116.1100
5.652979 58.039 116.0602
5.693943 58.125 116.0100
5.735204 58.210 115.9592
5.776763 58.296 115.9080
5.818624 58.381 115.8566
5.860788 58.467 115.8050
5.903258 58.552 115.7531
5.946035 58.638 115.7010
5.989123 58.723 115.6487
6.032523 58.809 115.5960
6.076237 58.894 115.5427
6.120268 58.980 115.4890
6.164618 59.066 115.4352
6.209289 59.152 115.3810
6.254284 59.238 115.3263
6.299605 59.323 115.2710
6.345255 59.408 115.2152
6.391235 59.494 115.1590
6.437549 59.579 115.1026
6.484198 59.665 115.0460
6.531185 59.750 114.9892
6.578513 59.836 114.9320
6.626183 59.921 114.8743
6.674199 60.007 114.8160
6.722563 60.092 114.7572
6.771278 60.178 114.6980
6.820345 60.263 114.6387
6.869768 60.349 114.5790
6.919549 60.434 114.5188
6.969691 60.520 114.4580
7.020196 60.606 114.3968
7.071068 60.692 114.3350
7.122308 60.778 114.2727
7.173919 60.863 114.2100
7.225904 60.948 114.1472
7.278266 61.034 114.0840
7.331007 61.119 114.0203
7.384131 61.205 113.9560
7.437639 61.290 113.8913
7.491535 61.376 113.8260
7.545822 61.461 113.7603
7.600502 61.547 113.6940
7.655579 61.632 113.6272
7.711054 61.718 113.5600
7.766932 61.803 113.4928
7.823214 61.889 113.4250
7.879904 61.974 113.3563
7.937005 62.060 113.2870
7.994520 62.146 113.2173
8.052452 62.232 113.1470
8.110803 62.318 113.0763
8.169578 62.403 113.0050
8.228777 62.488 112.9333
8.288406 62.574 112.8610
8.348468 62.659 112.7883
8.408964 62.745 112.7150
8.469899 62.830 112.6408
8.531276 62.916 112.5660
8.593097 63.001 112.4913
8.655366 63.087 112.4160
8.718086 63.172 112.3398
8.781260 63.258 112.2630
8.844893 63.343 112.1858
8.908987 63.429 112.1080
8.973545 63.514 112.0293
9.038571 63.600 111.9500
9.104069 63.686 111.8703
9.170040 63.772 111.7900
9.236490 63.858 111.7093
9.303422 63.943 111.6280
9.370838 64.028 111.5458
9.438744 64.114 111.4630
9.507140 64.199 111.3798
9.576033 64.285 111.2960
9.645425 64.370 111.2113
9.715320 64.456 111.1260
9.785721 64.541 111.0404
9.856632 64.627 110.9540
9.928058 64.712 110.8664
10.000000 64.798 110.7780
10.072464 64.883 110.6899
10.145453 64.969 110.6011
10.218971 65.054 110.5110
10.293022 65.140 110.4200
10.367610 65.226 110.3283
10.442738 65.312 110.2360
10.518411 65.398 110.1433
10.594631 65.483 110.0500
10.671404 65.568 109.9559
10.748734 65.654 109.8610
10.826623 65.739 109.7649
10.905077 65.825 109.6681
10.984100 65.910 109.5710
11.063695 65.996 109.4731
11.143867 66.081 109.3739
11.224621 66.167 109.2740
11.305959 66.252 109.1739
11.387886 66.338 109.0731
11.470407 66.423 108.9710
11.553527 66.509 108.8680
11.637249 66.594 108.7645
11.721577 66.680 108.6601
11.806517 66.766 108.5546
11.892071 66.852 108.4481
11.978246 66.938 108.3410
12.065045 67.023 108.2330
12.152473 67.108 108.1240
12.240536 67.194 108.0140
12.329235 67.279 107.9030
12.418578 67.365 107.7911
12.508568 67.450 107.6785
12.599211 67.536 107.5651
12.690510 67.621 107.4506
12.782471 67.707 107.3351
12.875097 67.792 107.2186
12.968395 67.878 107.1011
13.062370 67.963 106.9826
13.157025 68.049 106.8630
13.252366 68.134 106.7426
13.348398 68.220 106.6211
13.445127 68.306 106.4987
13.542556 68.392 106.3751
13.640691 68.478 106.2502
13.739536 68.563 106.1240
13.839099 68.648 105.9971
13.939383 68.734 105.8691
14.040393 68.819 105.7397
14.142136 68.905 105.6090
14.244616 68.990 105.4777
14.347837 69.076 105.3451
14.451808 69.161 105.2107
14.556532 69.247 105.0751
14.662014 69.332 104.9388
14.768262 69.418 104.8012
14.875278 69.503 104.6613
14.983070 69.589 104.5201
15.091644 69.674 104.3783
15.201005 69.760 104.2351
15.311157 69.846 104.0899
15.422109 69.932 103.9431
15.533863 70.018 103.7953
15.646428 70.103 103.6461
15.759809 70.188 103.4949
15.874010 70.274 103.3421
15.989040 70.359 103.1880
16.104904 70.445 103.0321
16.221605 70.530 102.8741
16.339155 70.616 102.7142
16.457554 70.701 102.5526
16.576813 70.787 102.3891
16.696936 70.872 102.2236
16.817928 70.958 102.0561
16.939798 71.043 101.8868
17.062551 71.129 101.7152
17.186193 71.214 101.5409
17.310732 71.300 101.3641
17.436172 71.386 101.1850
17.562521 71.472 101.0031
17.689787 71.557 100.8182
17.817974 71.643 100.6302
17.947090 71.728 100.4390
18.077143 71.814 100.2441
18.208138 71.899 100.0454
18.340080 71.985 99.8422
18.472980 72.070 99.6340
18.606844 72.156 99.4201
18.741676 72.241 99.2002
18.877487 72.327 98.9722
19.014280 72.413 98.7347
19.152065 72.498 98.4853
19.290850 72.582 98.2213
19.430639 72.665 97.9432
19.571442 72.745 97.6485
19.713264 72.822 97.3434
19.856115 72.892 97.0284
20.000000 72.956 96.7183
20.144928 73.012 96.4241
20.290907 73.063 96.1572
20.437943 73.109 95.9313
20.586044 73.152 95.7511
20.735220 73.195 95.6283
20.885475 73.240 95.5561
21.036821 73.291 95.5380
21.189262 73.351 95.5550
21.342808 73.423 95.5959
21.497467 73.506 95.6400
21.653246 73.599 95.6669
21.810154 73.701 95.6640
21.968201 73.810 95.6121
22.127390 73.923 95.5111
22.287735 74.035 95.3510
22.449242 74.146 95.1432
22.611917 74.251 94.8920
22.775772 74.352 94.6094
22.940815 74.446 94.3054
23.107054 74.535 93.9894
23.274498 74.618 93.6732
23.443153 74.698 93.3604
23.613033 74.774 93.0595
23.784142 74.849 92.7682
23.956491 74.923 92.4879
24.130091 74.996 92.2163
24.304947 75.068 91.9519
24.481071 75.139 91.6943
24.658470 75.211 91.4426
24.837156 75.282 91.1973
25.017136 75.351 90.9577
25.198421 75.420 90.7272
25.381020 75.488 90.5103
25.564941 75.557 90.3042
25.750195 75.628 90.1093
25.936790 75.702 89.9212
26.124741 75.777 89.7363
26.314051 75.855 89.5523
26.504732 75.935 89.3676
26.696796 76.017 89.1762
26.890253 76.102 88.9724
27.085112 76.189 88.7543
27.281382 76.276 88.5176
27.479073 76.364 88.2634
27.678198 76.451 87.9899
27.878765 76.536 87.7004
28.080786 76.619 87.3969
28.284271 76.701 87.0814
28.489231 76.781 86.7561
28.695675 76.858 86.4235
28.903616 76.931 86.0853
29.113064 77.002 85.7465
29.324028 77.069 85.4113
29.536524 77.134 85.0834
29.750557 77.197 84.7671
29.966141 77.258 84.4643
30.183289 77.317 84.1789
30.402010 77.376 83.9093
30.622314 77.436 83.6565
30.844217 77.497 83.4163
31.067726 77.560 83.1853
31.292856 77.625 82.9613
31.519617 77.691 82.7421
31.748020 77.760 82.5243
31.978081 77.831 82.3041
32.209808 77.903 82.0803
32.443211 77.976 81.8499
32.678310 78.050 81.6143
32.915108 78.124 81.3741
33.153625 78.199 81.1283
33.393871 78.275 80.8770
33.635857 78.351 80.6174
33.879597 78.428 80.3471
34.125103 78.506 80.0654
34.372387 78.583 79.7702
34.621464 78.660 79.4635
34.872345 78.734 79.1449
35.125042 78.807 78.8184
35.379574 78.877 78.4866
35.635948 78.945 78.1534
35.894180 79.010 77.8216
36.154285 79.072 77.4965
36.416275 79.132 77.1838
36.680161 79.192 76.8845
36.945961 79.251 76.6017
37.213688 79.311 76.3334
37.483353 79.372 76.0796
37.754974 79.435 75.8364
38.028561 79.500 75.6019
38.304131 79.569 75.3693
38.581699 79.642 75.1317
38.861279 79.717 74.8874
39.142883 79.792 74.6324
39.426529 79.869 74.3674
39.712231 79.948 74.0925
40.000000 80.028 73.8044
40.289856 80.109 73.4989
40.581814 80.190 73.1785
40.875885 80.269 72.8435
41.172089 80.348 72.4965
41.470440 80.426 72.1409
41.770950 80.504 71.7746
42.073643 80.582 71.3976
42.378525 80.660 71.0076
42.685616 80.737 70.6024
42.994934 80.814 70.1816
43.306492 80.889 69.7439
43.620308 80.962 69.2897
43.936401 81.033 68.8189
44.254780 81.101 68.3318
44.575470 81.165 67.8266
44.898483 81.225 67.3098
45.223835 81.278 66.7837
45.551544 81.324 66.2597
45.881630 81.363 65.7475
46.214108 81.395 65.2557
46.548996 81.421 64.7929
46.886307 81.441 64.3686
47.226067 81.455 63.9934
47.568283 81.467 63.6725
47.912983 81.479 63.4158
48.260181 81.493 63.2193
48.609894 81.511 63.0853
48.962143 81.535 63.0041
49.316940 81.568 62.9721
49.674313 81.612 62.9730
50.034271 81.669 62.9945
50.396843 81.739 63.0210
50.762039 81.820 63.0362
51.129883 81.912 63.0290
51.500389 82.015 62.9860
51.873581 82.126 62.8982
52.249481 82.244 62.7523
52.628101 82.368 62.5474
53.009464 82.493 62.2769
53.393593 82.620 61.9446
53.780506 82.745 61.5501
54.170223 82.869 61.0998
54.562763 82.989 60.5978
54.958145 83.105 60.0499
55.356396 83.216 59.4612
55.757530 83.322 58.8380
56.161572 83.422 58.1869
56.568542 83.517 57.5131
56.978462 83.606 56.8233
57.391350 83.691 56.1203
57.807232 83.771 55.4087
58.226128 83.848 54.6902
58.648056 83.920 53.9676
59.073048 83.988 53.2422
59.501114 84.053 52.5166
59.932281 84.115 51.7903
60.366577 84.175 51.0638
60.804020 84.233 50.3363
61.244629 84.288 49.6068
61.688435 84.341 48.8763
62.135452 84.392 48.1459
62.585712 84.441 47.4133
63.039234 84.489 46.6770
63.496040 84.536 45.9353
63.956161 84.580 45.1848
64.419617 84.621 44.4294
64.886421 84.658 43.6713
65.356621 84.693 42.9113
65.830215 84.725 42.1501
66.307251 84.755 41.3895
66.787743 84.781 40.6303
67.271713 84.803 39.8764
67.759193 84.822 39.1316
68.250206 84.838 38.3973
68.744774 84.852 37.6771
69.242928 84.865 36.9683
69.744690 84.877 36.2702
70.250084 84.889 35.5803
70.759148 84.901 34.8968
71.271896 84.912 34.2173
71.788361 84.924 33.5396
72.308571 84.935 32.8603
72.832550 84.947 32.1747
73.360321 84.957 31.4843
73.891922 84.965 30.7873
74.427376 84.970 30.0883
74.966705 84.973 29.3914
75.509949 84.974 28.6962
76.057121 84.974 28.0038
76.608261 84.972 27.3144
77.163399 84.968 26.6295
77.722557 84.963 25.9464
78.285767 84.959 25.2658
78.853058 84.954 24.5794
79.424461 84.950 23.8796
80.000000 84.944 23.1644
80.579712 84.936 22.4289
81.163628 84.924 21.6755
81.751770 84.907 20.9016
82.344177 84.883 20.1176
82.940880 84.849 19.3269
83.541901 84.805 18.5475
84.147285 84.750 17.7933
84.757050 84.685 17.0803
85.371231 84.610 16.4254
85.989868 84.528 15.8401
86.612984 84.440 15.3423
87.240616 84.351 14.9297
87.872803 84.266 14.6129
88.509560 84.187 14.3714
89.150940 84.121 14.1967
89.796967 84.067 14.0642
90.447670 84.027 13.9544
91.103088 84.001 13.8442
91.763260 83.990 13.7087
92.428215 83.989 13.5354
93.097992 83.996 13.3030
93.772614 84.007 13.0137
94.452133 84.018 12.6587
95.136566 84.027 12.2499
95.825966 84.030 11.7905
96.520363 84.026 11.2981
97.219788 84.014 10.7883
97.924286 83.995 10.2701
98.633881 83.970 9.7561
99.348625 83.940 9.2510
100.068542 83.905 8.7633
100.793686 83.866 8.2942
101.524078 83.825 7.8491
102.259766 83.783 7.4230
103.000778 83.742 7.0138
103.747162 83.701 6.6178
104.498962 83.660 6.2306
105.256203 83.619 5.8517
106.018929 83.578 5.4792
106.787186 83.536 5.1127
107.561012 83.495 4.7514
108.340446 83.453 4.3946
109.125526 83.410 4.0404
109.916290 83.366 3.6906
110.712791 83.321 3.3454
111.515060 83.274 3.0077
112.323143 83.226 2.6802
113.137085 83.176 2.3637
113.956924 83.126 2.0601
114.782700 83.076 1.7687
115.614464 83.024 1.4887
116.452255 82.972 1.2225
117.296112 82.920 0.9737
118.146095 82.868 0.7375
119.002228 82.819 0.5115
119.864563 82.772 0.2926
120.733154 82.725 0.0768
121.608040 82.678 -0.1355
122.489258 82.632 -0.3449
123.376869 82.587 -0.5535
124.270905 82.543 -0.7644
125.171425 82.498 -0.9756
126.078468 82.452 -1.1875
126.992081 82.405 -1.3965
127.912323 82.357 -1.5988
128.839233 82.308 -1.7956
129.772842 82.259 -1.9877
130.713242 82.209 -2.1726
131.660431 82.157 -2.3486
132.614502 82.105 -2.5145
133.575485 82.053 -2.6685
134.543427 82.001 -2.8117
135.518387 81.949 -2.9448
136.500412 81.898 -3.0678
137.489548 81.847 -3.1802
138.485855 81.797 -3.2847
139.489380 81.749 -3.3831
140.500168 81.702 -3.4778
141.518295 81.656 -3.5725
142.543793 81.610 -3.6658
143.576721 81.564 -3.7569
144.617142 81.519 -3.8478
145.665100 81.475 -3.9404
146.720642 81.431 -4.0337
147.783844 81.385 -4.1289
148.854752 81.337 -4.2218
149.933411 81.289 -4.3083
151.019897 81.241 -4.3888
152.114243 81.192 -4.4625
153.216522 81.142 -4.5278
154.326797 81.091 -4.5833
155.445114 81.040 -4.6279
156.571533 80.990 -4.6592
157.706116 80.940 -4.6800
158.848923 80.892 -4.6912
160.000000 80.845 -4.6960
161.159424 80.800 -4.6973
162.327255 80.755 -4.6960
163.503540 80.712 -4.6936
164.688354 80.669 -4.6920
165.881760 80.628 -4.6936
167.083801 80.588 -4.6980
168.294571 80.547 -4.7059
169.514099 80.506 -4.7160
170.742462 80.464 -4.7280
171.979736 80.422 -4.7400
173.225967 80.378 -4.7505
174.481232 80.334 -4.7580
175.745605 80.290 -4.7604
177.019119 80.245 -4.7580
178.301880 80.200 -4.7506
179.593933 80.154 -4.7380
180.895340 80.108 -4.7198
182.206177 80.062 -4.6961
183.526520 80.016 -4.6659
184.856430 79.971 -4.6321
186.195984 79.927 -4.5968
187.545227 79.883 -4.5601
188.904266 79.838 -4.5236
190.273132 79.793 -4.4851
191.651932 79.748 -4.4424
193.040726 79.702 -4.3971
194.439575 79.657 -4.3505
195.848572 79.612 -4.3021
197.267761 79.565 -4.2520
198.697250 79.518 -4.2001
200.137085 79.472 -4.1461
201.587372 79.425 -4.0911
203.048157 79.377 -4.0370
204.519531 79.328 -3.9812
206.001556 79.277 -3.9224
207.494324 79.225 -3.8582
208.997925 79.171 -3.7862
210.512405 79.116 -3.7042
212.037857 79.059 -3.6091
213.574371 79.001 -3.5003
215.122025 78.943 -3.3760
216.680893 78.884 -3.2374
218.251053 78.826 -3.0845
219.832581 78.768 -2.9195
221.425583 78.712 -2.7438
223.030121 78.656 -2.5605
224.646286 78.602 -2.3730
226.274170 78.549 -2.1815
227.913849 78.495 -1.9875
229.565399 78.441 -1.7905
231.228928 78.388 -1.5900
232.904510 78.334 -1.3866
234.592224 78.280 -1.1820
236.292191 78.224 -0.9726
238.004456 78.166 -0.7553
239.729126 78.107 -0.5296
241.466309 78.048 -0.2943
243.216080 77.987 -0.0477
244.978516 77.925 0.2123
246.753738 77.861 0.4862
248.541809 77.798 0.7755
250.342850 77.734 1.0791
252.156937 77.669 1.3964
253.984161 77.604 1.7281
255.824646 77.538 2.0744
257.678467 77.472 2.4361
259.545685 77.406 2.8134
261.426483 77.338 3.2080
263.320862 77.269 3.6203
265.229004 77.199 4.0538
267.150970 77.128 4.5109
269.086853 77.056 4.9946
271.036774 76.983 5.5081
273.000824 76.909 6.0533
274.979095 76.836 6.6332
276.971710 76.763 7.2481
278.978760 76.692 7.8994
281.000336 76.623 8.5871
283.036591 76.556 9.3122
285.087585 76.492 10.0726
287.153442 76.433 10.8682
289.234283 76.378 11.6937
291.330200 76.328 12.5457
293.441284 76.284 13.4196
295.567688 76.245 14.3115
297.709503 76.212 15.2156
299.866821 76.185 16.1250
302.039795 76.161 17.0393
304.228485 76.139 17.9534
306.433044 76.118 18.8744
308.653595 76.097 19.8039
310.890228 76.075 20.7533
313.143066 76.050 21.7277
315.412231 76.022 22.7480
317.697845 75.989 23.8298
320.000000 75.954 24.9954
322.318848 75.918 26.2696
324.654510 75.888 27.6604
327.007080 75.867 29.1874
329.376709 75.863 30.8397
331.763519 75.883 32.6233
334.167603 75.935 34.5059
336.589142 76.025 36.4745
339.028198 76.158 38.4772
341.484924 76.340 40.4782
343.959473 76.571 42.4158
346.451935 76.854 44.2341
348.962463 77.180 45.8787
351.491211 77.544 47.2868
354.038239 77.936 48.4281
356.603760 78.345 49.2546
359.187866 78.763 49.7570
361.790680 79.178 49.9027
364.412354 79.581 49.7130
367.053040 79.959 49.1828
369.712860 80.306 48.3590
372.391968 80.614 47.2687
375.090454 80.881 45.9671
377.808533 81.103 44.4990
380.546265 81.280 42.9228
383.303864 81.407 41.2947
386.081451 81.489 39.6657
388.879150 81.527 38.0941
391.697144 81.525 36.6143
394.535522 81.488 35.2729
397.394501 81.420 34.0912
400.274170 81.326 33.1030
403.174744 81.211 32.3172
406.096313 81.083 31.7542
409.039062 80.945 31.4127
412.003113 80.804 31.3005
414.988647 80.665 31.4103
417.995850 80.535 31.7435
421.024811 80.420 32.2820
424.075714 80.327 33.0185
427.148743 80.261 33.9209
430.244049 80.231 34.9711
433.361786 80.242 36.1192
436.502106 80.301 37.3308
439.665161 80.411 38.5413
442.851166 80.575 39.6978
446.060242 80.788 40.7310
449.292572 81.052 41.5737
452.548340 81.354 42.1666
455.827698 81.686 42.4367
459.130798 82.032 42.3579
462.457855 82.379 41.8731
465.809021 82.711 41.0024
469.184448 83.013 39.7260
472.584381 83.275 38.1065
476.008911 83.484 36.1715
479.458252 83.636 34.0072
482.932617 83.722 31.6789
486.432159 83.744 29.2766
489.957031 83.699 26.8876
493.507477 83.590 24.5849
497.083618 83.421 22.4561
500.685699 83.198 20.5459
504.313873 82.927 18.9223
507.968323 82.618 17.6037
511.649292 82.277 16.6310
515.356934 81.914 16.0055
519.091370 81.537 15.7466
522.852966 81.153 15.8411
526.641724 80.772 16.2911
530.458008 80.402 17.0689
534.301941 80.052 18.1598
538.173706 79.728 19.5270
542.073547 79.436 21.1419
546.001648 79.181 22.9644
549.958191 78.969 24.9586
553.943420 78.801 27.0830
557.957520 78.680 29.2944
562.000671 78.601 31.5613
566.073181 78.566 33.8451
570.175171 78.571 36.1235
574.306885 78.612 38.3653
578.468567 78.687 40.5596
582.660400 78.791 42.6876
586.882568 78.923 44.7409
591.135376 79.080 46.7075
595.419006 79.260 48.5807
599.733643 79.462 50.3506
604.079590 79.682 52.0164
608.456970 79.916 53.5746
612.866089 80.165 55.0233
617.307190 80.429 56.3616
621.780457 80.706 57.5822
626.286133 80.995 58.6775
630.824463 81.294 59.6480
635.395691 81.598 60.4913
640.000000 81.908 61.2078
644.637695 82.224 61.7985
649.309021 82.545 62.2586
654.014160 82.868 62.5817
658.753418 83.191 62.7736
663.527039 83.510 62.8366
668.335205 83.827 62.7744
673.178284 84.141 62.5914
678.056396 84.451 62.2872
682.969849 84.756 61.8602
687.918945 85.053 61.3181
692.903870 85.340 60.6670
697.924927 85.618 59.9098
702.982422 85.888 59.0505
708.076477 86.146 58.0927
713.207520 86.391 57.0380
718.375732 86.622 55.8962
723.581360 86.839 54.6772
728.824707 87.042 53.3828
734.106079 87.231 52.0161
739.425720 87.404 50.5832
744.783936 87.559 49.0876
750.180908 87.695 47.5406
755.617065 87.810 45.9514
761.092529 87.904 44.3299
766.607727 87.976 42.6815
772.162903 88.023 41.0299
777.758301 88.042 39.3899
783.394287 88.034 37.7945
789.071045 87.997 36.2712
794.789001 87.934 34.8508
800.548340 87.846 33.5653
806.349487 87.736 32.4397
812.192627 87.608 31.5074
818.078125 87.469 30.7753
824.006226 87.324 30.2656
829.977295 87.180 29.9657
835.991699 87.047 29.8776
842.049622 86.927 29.9783
848.151428 86.829 30.2576
854.297485 86.756 30.6782
860.488098 86.718 31.2139
866.723572 86.716 31.8207
873.004211 86.752 32.4612
879.330322 86.827 33.0888
885.702332 86.941 33.6602
892.120483 87.090 34.1286
898.585144 87.273 34.4411
905.096680 87.478 34.5729
911.655396 87.698 34.4812
918.261597 87.922 34.1676
924.915710 88.142 33.6109
931.618042 88.351 32.8372
938.368896 88.541 31.8500
945.168762 88.706 30.6956
952.017822 88.841 29.4063
958.916504 88.947 28.0274
965.865234 89.022 26.6050
972.864319 89.069 25.1693
979.914062 89.090 23.7611
987.014954 89.089 22.3940
994.167236 89.070 21.0939
1001.371399 89.035 19.8642
1008.627747 88.987 18.7179
1015.936646 88.928 17.6523
1023.298584 88.863 16.6714
1030.713867 88.792 15.7698
1038.182739 88.719 14.9465
1045.705933 88.643 14.1921
1053.283447 88.569 13.5000
1060.916016 88.495 12.8616
1068.603882 88.423 12.2689
1076.347412 88.352 11.7142
1084.147095 88.284 11.1884
1092.003296 88.216 10.6886
1099.916382 88.149 10.2088
1107.886841 88.080 9.7499
1115.915039 88.010 9.3091
1124.001343 87.937 8.8925
1132.146362 87.861 8.5032
1140.350342 87.781 8.1473
1148.613770 87.699 7.8297
1156.937134 87.613 7.5570
1165.320801 87.524 7.3363
1173.765137 87.433 7.1716
1182.270752 87.342 7.0694
1190.838013 87.252 7.0300
1199.467285 87.164 7.0562
1208.159180 87.080 7.1465
1216.913940 87.001 7.3025
1225.732178 86.929 7.5181
1234.614380 86.867 7.7912
1243.560913 86.815 8.1107
1252.572266 86.776 8.4694
1261.648926 86.749 8.8534
1270.791382 86.737 9.2518
1280.000000 86.740 9.6495
1289.275391 86.758 10.0329
1298.618042 86.790 10.3866
1308.028320 86.836 10.6952
1317.506836 86.894 10.9451
1327.054077 86.962 11.1181
1336.670410 87.037 11.2118
1346.356567 87.114 11.2162
1356.112793 87.193 11.1355
1365.939697 87.269 10.9668
1375.837891 87.342 10.7212
1385.807739 87.406 10.4036
1395.849854 87.463 10.0296
1405.964844 87.508 9.6129
1416.152954 87.545 9.1647
1426.415039 87.573 8.6986
1436.751465 87.592 8.2208
1447.162720 87.602 7.7403
1457.649414 87.605 7.2619
1468.212158 87.601 6.7923
1478.851440 87.589 6.3357
1489.567871 87.571 5.8975
1500.361816 87.546 5.4815
1511.234131 87.516 5.0911
1522.185059 87.480 4.7335
1533.215454 87.438 4.4158
1544.325806 87.391 4.1421
1555.516602 87.343 3.9208
1566.788574 87.294 3.7466
1578.142090 87.248 3.6197
1589.578003 87.204 3.5323
1601.096680 87.164 3.4802
1612.698975 87.127 3.4531
1624.385254 87.097 3.4418
1636.156250 87.071 3.4380
1648.012451 87.049 3.4290
1659.954590 87.029 3.4180
1671.983398 87.007 3.4014
1684.099243 86.984 3.3880
1696.302856 86.959 3.3829
1708.594971 86.931 3.3939
1720.976196 86.901 3.4288
1733.447144 86.870 3.4927
1746.008423 86.838 3.5928
1758.660645 86.806 3.7294
1771.404663 86.777 3.9069
1784.240967 86.752 4.1201
1797.170288 86.732 4.3669
1810.193359 86.717 4.6419
1823.310791 86.708 4.9399
1836.523193 86.705 5.2577
1849.831421 86.709 5.5914
1863.236084 86.719 5.9374
1876.737793 86.736 6.2920
1890.337524 86.759 6.6514
1904.035645 86.789 7.0125
1917.833008 86.827 7.3706
1931.730469 86.872 7.7215
1945.728638 86.924 8.0606
1959.828125 86.983 8.3832
1974.029907 87.048 8.6858
1988.334473 87.119 8.9638
2002.742798 87.195 9.2160
2017.255493 87.275 9.4390
2031.873291 87.360 9.6343
2046.597168 87.447 9.8016
2061.427734 87.537 9.9424
2076.365479 87.630 10.0588
2091.411865 87.727 10.1487
2106.566895 87.827 10.2108
2121.832031 87.931 10.2449
2137.207764 88.036 10.2499
2152.694824 88.145 10.2271
2168.294189 88.255 10.1790
2184.006592 88.369 10.1014
2199.832764 88.488 9.9927
2215.773682 88.610 9.8477
2231.830078 88.737 9.6624
2248.002686 88.866 9.4321
2264.292725 88.999 9.1517
2280.700684 89.134 8.8176
2297.227539 89.272 8.4249
2313.874268 89.410 7.9710
2330.641602 89.548 7.4517
2347.530273 89.684 6.8667
2364.541504 89.819 6.2130
2381.676025 89.949 5.4944
2398.934570 90.074 4.7134
2416.318359 90.194 3.8709
2433.827881 90.311 2.9683
2451.464355 90.421 2.0061
2469.228760 90.522 0.9835
2487.121826 90.615 -0.0943
2505.144531 90.697 -1.2233
2523.297852 90.769 -2.3995
2541.582764 90.830 -3.6212
2560.000000 90.879 -4.8784
2578.550781 90.912 -6.1654
2597.236084 90.929 -7.4670
2616.056641 90.929 -8.7699
2635.013672 90.914 -10.0616
2654.108154 90.884 -11.3284
2673.340820 90.840 -12.5607
2692.713135 90.781 -13.7478
2712.225586 90.708 -14.8788
2731.879395 90.624 -15.9428
2751.675781 90.527 -16.9296
2771.615479 90.421 -17.8281
2791.699707 90.306 -18.6307
2811.929688 90.184 -19.3261
2832.305908 90.060 -19.9145
2852.830078 89.936 -20.3900
2873.502930 89.815 -20.7596
2894.325439 89.698 -21.0233
2915.298828 89.590 -21.1964
2936.424316 89.496 -21.2857
2957.702881 89.415 -21.3170
2979.135742 89.353 -21.3111
3000.723633 89.307 -21.2901
3022.468262 89.276 -21.2793
3044.370117 89.257 -21.2889
3066.430908 89.249 -21.3363
3088.651611 89.249 -21.4245
3111.033203 89.254 -21.5639
3133.577148 89.261 -21.7490
3156.284180 89.268 -21.9820
3179.156006 89.274 -22.2497
3202.193359 89.275 -22.5441
3225.397949 89.271 -22.8515
3248.770508 89.263 -23.1578
3272.312500 89.252 -23.4557
3296.024902 89.239 -23.7333
3319.909180 89.227 -23.9909
3343.966797 89.216 -24.2213
3368.198486 89.210 -24.4350
3392.605713 89.211 -24.6349
3417.189941 89.220 -24.8360
3441.952393 89.236 -25.0511
3466.894287 89.260 -25.2908
3492.016846 89.291 -25.5666
3517.321289 89.328 -25.8894
3542.809326 89.370 -26.2725
3568.481934 89.414 -26.7208
3594.340576 89.457 -27.2459
3620.386719 89.498 -27.8410
3646.621582 89.532 -28.5063
3673.046387 89.558 -29.2314
3699.662842 89.574 -30.0102
3726.472168 89.579 -30.8301
3753.475586 89.570 -31.6795
3780.675049 89.549 -32.5491
3808.071289 89.516 -33.4261
3835.666016 89.469 -34.3088
3863.460938 89.411 -35.1976
3891.457275 89.335 -36.0729
3919.656250 89.239 -36.9300
3948.059814 89.121 -37.7245
3976.668945 88.978 -38.4310
4005.485596 88.811 -38.9867
4034.510986 88.614 -39.3387
4063.746582 88.399 -39.4323
4093.194336 88.169 -39.1876
4122.855469 87.948 -38.6265
4152.730957 87.753 -37.7144
4182.823730 87.602 -36.5421
4213.133789 87.513 -35.1503
4243.664062 87.494 -33.6562
4274.415527 87.561 -32.1504
4305.389648 87.702 -30.7544
4336.588379 87.918 -29.6025
4368.013184 88.180 -28.7472
4399.665527 88.466 -28.2974
4431.547363 88.760 -28.2165
4463.660156 89.039 -28.5279
4496.005371 89.297 -29.1591
4528.585449 89.521 -30.0694
4561.401367 89.711 -31.1853
4594.455078 89.862 -32.4367
4627.748535 89.980 -33.7714
4661.283203 90.063 -35.1208
4695.060547 90.120 -36.4635
4729.083008 90.155 -37.7546
4763.352051 90.173 -38.9962
4797.869141 90.180 -40.1726
4832.636719 90.178 -41.2935
4867.655762 90.170 -42.3608
4902.928711 90.157 -43.3831
4938.457520 90.141 -44.3682
4974.243652 90.121 -45.3205
5010.289062 90.098 -46.2503
5046.595703 90.068 -47.1486
5083.165527 90.031 -48.0159
5120.000000 89.986 -48.8332
5157.101562 89.933 -49.5878
5194.472168 89.874 -50.2609
5232.113281 89.810 -50.8331
5270.027344 89.746 -51.2940
5308.216309 89.686 -51.6234
5346.681641 89.637 -51.8313
5385.426270 89.607 -51.9077
5424.451172 89.604 -51.8932
5463.758789 89.639 -51.8063
5503.351562 89.713 -51.7045
5543.230957 89.832 -51.6311
5583.399414 89.994 -51.6486
5623.859375 90.203 -51.8128
5664.611816 90.450 -52.1866
5705.660156 90.732 -52.8397
5747.005859 91.035 -53.8071
5788.650879 91.349 -55.1453
5830.597656 91.661 -56.8592
5872.848633 91.963 -58.9777
5915.405762 92.243 -61.4841
5958.271484 92.490 -64.3842
6001.447266 92.697 -67.6374
6044.936523 92.853 -71.2240
6088.740234 92.954 -75.0870
6132.861816 92.991 -79.1838
6177.303223 92.962 -83.4512
6222.066406 92.864 -87.8368
6267.154297 92.692 -92.2648
6312.568359 92.441 -96.6705
6358.312012 92.112 -100.9688
6404.386719 91.703 -105.0771
6450.795898 91.219 -108.9230
6497.541016 90.661 -112.4364
6544.625000 90.029 -115.5277
6592.049805 89.323 -118.1134
6639.818359 88.552 -120.1054
6687.933594 87.721 -121.4043
6736.396973 86.844 -121.9602
6785.211426 85.930 -121.6896
6834.379883 85.003 -120.5948
6883.904785 84.072 -118.6115
6933.788574 83.185 -115.8561
6984.033691 82.382 -112.3551
7034.642578 81.696 -108.3164
7085.618652 81.175 -103.8852
7136.963867 80.826 -99.2783
7188.681152 80.683 -94.6995
7240.773438 80.714 -90.3331
7293.243164 80.914 -86.3979
7346.092773 81.234 -82.9926
7399.325684 81.636 -80.2843
7452.944336 82.088 -78.2842
7506.951172 82.554 -77.0804
7561.350098 83.010 -76.6056
7616.142578 83.421 -76.8613
7671.332031 83.777 -77.7281
7726.921875 84.061 -79.1339
7782.914551 84.266 -80.9369
7839.312500 84.379 -83.0272
7896.119629 84.399 -85.2383
7953.337891 84.321 -87.4164
8010.971191 84.154 -89.4122
8069.021973 83.898 -91.0542
8127.493164 83.571 -92.2550
8186.388672 83.182 -92.8669
8245.710938 82.763 -92.9014
8305.461914 82.339 -92.2923
8365.647461 81.937 -91.1275
8426.267578 81.588 -89.4349
8487.328125 81.312 -87.3320
8548.831055 81.137 -84.9029
8610.779297 81.069 -82.2782
8673.176758 81.128 -79.5711
8736.026367 81.308 -76.9190
8799.331055 81.619 -74.4575
8863.094727 82.038 -72.3053
8927.320312 82.551 -70.5993
8992.010742 83.134 -69.4197
9057.170898 83.765 -68.8754
9122.802734 84.421 -69.0163
9188.910156 85.074 -69.9301
9255.497070 85.704 -71.6118
9322.566406 86.288 -74.1128
9390.121094 86.807 -77.3510
9458.166016 87.240 -81.3058
9526.704102 87.576 -85.8407
9595.738281 87.805 -90.8729
9665.273438 87.919 -96.2192
9735.311523 87.904 -101.7360
9805.857422 87.764 -107.2187
9876.915039 87.495 -112.4715
9948.487305 87.104 -117.3231
10020.578125 86.594 -121.5608
10093.191406 85.985 -125.1138
10166.331055 85.290 -127.8223
10240.000000 84.540 -129.7430
10314.203125 83.758 -130.8336
10388.944336 82.984 -131.2336
10464.226562 82.258 -131.0098
10540.054688 81.602 -130.3420
10616.432617 81.052 -129.3790
10693.363281 80.602 -128.2796
10770.852539 80.266 -127.2286
10848.902344 80.012 -126.2965
10927.517578 79.820 -125.6183
11006.703125 79.667 -125.1836
11086.461914 79.529 -125.0467
11166.798828 79.391 -125.1468
11247.718750 79.229 -125.4740
11329.223633 79.038 -125.9295
11411.320312 78.804 -126.4414
11494.011719 78.530 -126.9167
11577.301758 78.208 -127.2528
11661.195312 77.852 -127.4058
11745.697266 77.466 -127.2881
11830.811523 77.064 -126.9286
11916.542969 76.662 -126.3046
12002.894531 76.268 -125.4860
12089.873047 75.897 -124.5230
12177.480469 75.543 -123.4533
12265.723633 75.210 -122.3517
12354.606445 74.880 -121.1568
12444.132812 74.539 -119.8892
12534.308594 74.176 -118.3761
12625.136719 73.766 -116.5058
12716.624023 73.332 -114.1113
12808.773438 72.867 -110.9891
12901.591797 72.433 -107.1361
12995.082031 72.065 -102.3946
13089.250000 71.852 -97.0253
13184.099609 71.893 -91.1025
13279.636719 72.190 -85.0361
13375.867188 72.811 -79.1489
13472.793945 73.652 -73.7814
13570.422852 74.658 -69.3223
13668.759766 75.745 -65.9494
13767.809570 76.821 -63.9957
13867.577148 77.849 -63.3826
13968.067383 78.767 -64.2466
14069.285156 79.570 -66.2676
14171.237305 80.226 -69.2717
14273.927734 80.756 -72.9492
14377.362305 81.163 -76.9834
14481.546875 81.470 -81.2190
14586.486328 81.693 -85.4034
14692.185547 81.849 -89.5154
14798.651367 81.956 -93.4287
14905.888672 82.026 -97.2054
15013.902344 82.077 -100.8406
15122.700195 82.110 -104.4138
15232.285156 82.134 -107.9892
15342.664062 82.138 -111.6088
15453.843750 82.119 -115.3413
15565.829102 82.067 -119.1710
15678.625000 81.975 -123.1208
15792.239258 81.835 -127.1421
15906.675781 81.637 -131.2096
16021.942383 81.382 -135.2741
16138.043945 81.068 -139.2921
16254.986328 80.694 -143.2205
16372.777344 80.258 -147.0177
16491.421875 79.762 -150.6355
16610.923828 79.208 -154.0346
16731.294922 78.592 -157.1479
16852.535156 77.911 -159.9401
16974.656250 77.162 -162.2755
17097.662109 76.335 -164.0517
17221.558594 75.440 -165.1289
17346.353516 74.480 -165.3643
17472.052734 73.467 -164.6624
17598.662109 72.401 -162.8737
17726.189453 71.328 -160.0158
17854.640625 70.264 -155.9710
17984.021484 69.299 -150.9969
18114.341797 68.512 -145.1831
18245.605469 67.951 -138.9223
18377.820312 67.709 -132.5297
18510.994141 67.733 -126.3308
18645.132812 68.032 -120.6902
18780.242188 68.512 -115.8060
18916.332031 69.105 -112.0020
19053.408203 69.743 -109.2614
19191.476562 70.342 -107.7536
19330.546875 70.884 -107.2393
19470.623047 71.322 -107.6199
19611.714844 71.669 -108.6338
19753.830078 71.917 -110.0388
19896.974609 72.080 -111.6777
