* Measurement data measured by REW V5.20.13
* Source: C:\Users\kurin\Desktop\Targets and Curves\Resolve\Img\Files\LCD2_SPL.txt
* Format: Comma/Tab/Space delimited data
* Dated: Aug 14, 2023 5:34:20 PM
* REW Settings:
*  C-weighting compensation: Off
*  Target level: 75.0 dB
* Note: ; Measurement imported from C:\Users\kurin\Desktop\Targets and Curves\Resolve\Img\Files\LCD2_SPL.txt Format: Comma/Tab/Space delimited data 623 values loaded, 5 Hz to 39,792 Hz log spaced 
* Measurement: LCD2_SPL
* Smoothing: 1/48 octave
* Frequency Step: 1/96 octave
* Start Frequency: 5.000 Hz
*
* Freq(Hz) SPL(dB) Phase(degrees)
5.000000 78.857 41.9270
5.036232 78.871 41.9144
5.072727 78.886 41.9010
5.109486 78.904 41.8856
5.146511 78.925 41.8680
5.183805 78.949 41.8468
5.221369 78.976 41.8240
5.259205 79.004 41.8019
5.297316 79.033 41.7790
5.335702 79.064 41.7543
5.374367 79.095 41.7290
5.413311 79.126 41.7044
5.452538 79.158 41.6800
5.492050 79.190 41.6556
5.531847 79.221 41.6310
5.571934 79.252 41.6061
5.612310 79.283 41.5810
5.652979 79.314 41.5556
5.693943 79.346 41.5300
5.735204 79.378 41.5041
5.776763 79.409 41.4780
5.818624 79.440 41.4521
5.860788 79.471 41.4260
5.903258 79.502 41.3996
5.946035 79.534 41.3730
5.989123 79.566 41.3461
6.032523 79.597 41.3190
6.076237 79.628 41.2921
6.120268 79.659 41.2650
6.164618 79.690 41.2371
6.209289 79.722 41.2090
6.254284 79.754 41.1811
6.299605 79.785 41.1530
6.345255 79.816 41.1246
6.391235 79.847 41.0960
6.437549 79.878 41.0676
6.484198 79.910 41.0390
6.531185 79.942 41.0096
6.578513 79.973 40.9800
6.626183 80.004 40.9506
6.674199 80.035 40.9210
6.722563 80.066 40.8906
6.771278 80.098 40.8600
6.820345 80.130 40.8296
6.869768 80.161 40.7990
6.919549 80.192 40.7681
6.969691 80.223 40.7370
7.020196 80.254 40.7056
7.071068 80.286 40.6740
7.122308 80.318 40.6421
7.173919 80.349 40.6100
7.225904 80.380 40.5776
7.278266 80.411 40.5450
7.331007 80.442 40.5121
7.384131 80.474 40.4790
7.437639 80.506 40.4461
7.491535 80.537 40.4130
7.545822 80.568 40.3792
7.600502 80.599 40.3450
7.655579 80.630 40.3106
7.711054 80.662 40.2760
7.766932 80.694 40.2411
7.823214 80.725 40.2060
7.879904 80.756 40.1707
7.937005 80.787 40.1350
7.994520 80.818 40.0986
8.052452 80.850 40.0620
8.110803 80.882 40.0256
8.169578 80.913 39.9890
8.228777 80.944 39.9522
8.288406 80.975 39.9150
8.348468 81.006 39.8772
8.408964 81.038 39.8390
8.469899 81.070 39.8006
8.531276 81.101 39.7620
8.593097 81.132 39.7231
8.655366 81.163 39.6840
8.718086 81.194 39.6447
8.781260 81.226 39.6050
8.844893 81.258 39.5647
8.908987 81.289 39.5240
8.973545 81.320 39.4831
9.038571 81.351 39.4420
9.104069 81.382 39.4006
9.170040 81.414 39.3590
9.236490 81.446 39.3172
9.303422 81.477 39.2750
9.370838 81.508 39.2322
9.438744 81.539 39.1890
9.507140 81.570 39.1457
9.576033 81.602 39.1020
9.645425 81.634 39.0577
9.715320 81.665 39.0130
9.785721 81.696 38.9682
9.856632 81.727 38.9230
9.928058 81.758 38.8772
10.000000 81.790 38.8310
10.072464 81.822 38.7847
10.145453 81.853 38.7381
10.218971 81.884 38.6907
10.293022 81.915 38.6430
10.367610 81.946 38.5952
10.442738 81.978 38.5470
10.518411 82.010 38.4982
10.594631 82.041 38.4490
10.671404 82.072 38.3998
10.748734 82.103 38.3500
10.826623 82.134 38.2993
10.905077 82.166 38.2480
10.984100 82.198 38.1967
11.063695 82.229 38.1450
11.143867 82.260 38.0927
11.224621 82.291 38.0400
11.305959 82.322 37.9873
11.387886 82.354 37.9340
11.470407 82.386 37.8798
11.553527 82.417 37.8250
11.637249 82.448 37.7702
11.721577 82.479 37.7150
11.806517 82.510 37.6594
11.892071 82.542 37.6031
11.978246 82.574 37.5458
12.065045 82.605 37.4880
12.152473 82.636 37.4303
12.240536 82.667 37.3720
12.329235 82.698 37.3128
12.418578 82.730 37.2531
12.508568 82.762 37.1928
12.599211 82.793 37.1320
12.690510 82.824 37.0708
12.782471 82.855 37.0091
12.875097 82.886 36.9469
12.968395 82.918 36.8840
13.062370 82.950 36.8203
13.157025 82.981 36.7560
13.252366 83.012 36.6913
13.348398 83.043 36.6260
13.445127 83.074 36.5599
13.542556 83.106 36.4931
13.640691 83.138 36.4259
13.739536 83.169 36.3580
13.839099 83.200 36.2894
13.939383 83.231 36.2201
14.040393 83.262 36.1499
14.142136 83.294 36.0790
14.244616 83.326 36.0074
14.347837 83.357 35.9350
14.451808 83.388 35.8619
14.556532 83.419 35.7880
14.662014 83.450 35.7134
14.768262 83.482 35.6381
14.875278 83.514 35.5620
14.983070 83.545 35.4851
15.091644 83.576 35.4075
15.201005 83.607 35.3291
15.311157 83.638 35.2496
15.422109 83.670 35.1691
15.533863 83.702 35.0875
15.646428 83.733 35.0050
15.759809 83.764 34.9221
15.874010 83.795 34.8381
15.989040 83.826 34.7526
16.104904 83.858 34.6661
16.221605 83.890 34.5791
16.339155 83.921 34.4911
16.457554 83.952 34.4017
16.576813 83.983 34.3111
16.696936 84.014 34.2192
16.817928 84.046 34.1261
16.939798 84.078 34.0317
17.062551 84.109 33.9361
17.186193 84.140 33.8393
17.310732 84.171 33.7411
17.436172 84.202 33.6413
17.562521 84.234 33.5401
17.689787 84.266 33.4374
17.817974 84.297 33.3331
17.947090 84.328 33.2270
18.077143 84.359 33.1191
18.208138 84.390 33.0095
18.340080 84.422 32.8981
18.472980 84.454 32.7847
18.606844 84.485 32.6691
18.741676 84.516 32.5508
18.877487 84.547 32.4301
19.014280 84.578 32.3071
19.152065 84.610 32.1812
19.290850 84.642 32.0519
19.430639 84.673 31.9191
19.571442 84.704 31.7828
19.713264 84.735 31.6422
19.856115 84.766 31.4967
20.000000 84.798 31.3452
20.144928 84.830 31.1867
20.290907 84.861 31.0192
20.437943 84.892 30.8405
20.586044 84.922 30.6501
20.735220 84.950 30.4459
20.885475 84.976 30.2303
21.036821 84.999 30.0013
21.189262 85.017 29.7693
21.342808 85.029 29.5393
21.497467 85.035 29.3243
21.653246 85.035 29.1360
21.810154 85.030 28.9822
21.968201 85.022 28.8733
22.127390 85.014 28.8120
22.287735 85.007 28.8074
22.449242 85.004 28.8509
22.611917 85.010 28.9438
22.775772 85.025 29.0658
22.940815 85.053 29.2058
23.107054 85.094 29.3388
23.274498 85.150 29.4425
23.443153 85.216 29.4990
23.613033 85.291 29.4834
23.784142 85.370 29.3941
23.956491 85.449 29.2182
24.130091 85.526 28.9643
24.304947 85.597 28.6315
24.481071 85.659 28.2355
24.658470 85.709 27.7836
24.837156 85.746 27.3007
25.017136 85.768 26.8077
25.198421 85.777 26.3245
25.381020 85.773 25.8748
25.564941 85.760 25.4674
25.750195 85.739 25.1202
25.936790 85.715 24.8293
26.124741 85.691 24.5991
26.314051 85.667 24.4222
26.504732 85.646 24.2974
26.696796 85.629 24.2111
26.890253 85.621 24.1552
27.085112 85.619 24.1120
27.281382 85.625 24.0621
27.479073 85.635 24.0031
27.678198 85.646 23.9246
27.878765 85.659 23.8311
28.080786 85.671 23.7220
28.284271 85.683 23.6022
28.489231 85.692 23.4734
28.695675 85.699 23.3452
28.903616 85.702 23.2269
29.113064 85.703 23.1211
29.324028 85.705 23.0358
29.536524 85.708 22.9641
29.750557 85.714 22.9043
29.966141 85.724 22.8491
30.183289 85.737 22.7923
30.402010 85.753 22.7281
30.622314 85.771 22.6498
30.844217 85.791 22.5541
31.067726 85.812 22.4336
31.292856 85.831 22.2942
31.519617 85.846 22.1360
31.748020 85.858 21.9692
31.978081 85.866 21.8026
32.209808 85.870 21.6402
32.443211 85.872 21.4878
32.678310 85.872 21.3482
32.915108 85.869 21.2264
33.153625 85.866 21.1221
33.393871 85.863 21.0394
33.635857 85.862 20.9701
33.879597 85.865 20.9092
34.125103 85.870 20.8521
34.372387 85.876 20.7927
34.621464 85.884 20.7301
34.872345 85.892 20.6609
35.125042 85.901 20.5861
35.379574 85.909 20.5047
35.635948 85.917 20.4191
35.894180 85.924 20.3300
36.154285 85.930 20.2411
36.416275 85.933 20.1559
36.680161 85.936 20.0761
36.945961 85.939 20.0047
37.213688 85.941 19.9411
37.483353 85.943 19.8870
37.754974 85.946 19.8391
38.028561 85.952 19.7959
38.304131 85.959 19.7531
38.581699 85.968 19.7053
38.861279 85.977 19.6531
39.142883 85.985 19.5949
39.426529 85.994 19.5311
39.712231 86.003 19.4612
40.000000 86.012 19.3861
40.289856 86.019 19.3049
40.581814 86.024 19.2221
40.875885 86.027 19.1416
41.172089 86.029 19.0641
41.470440 86.030 18.9919
41.770950 86.031 18.9241
42.073643 86.030 18.8606
42.378525 86.029 18.8021
42.685616 86.027 18.7484
42.994934 86.024 18.7021
43.306492 86.019 18.6637
43.620308 86.012 18.6380
43.936401 86.003 18.6299
44.254780 85.994 18.6400
44.575470 85.985 18.6700
44.898483 85.977 18.7209
45.223835 85.968 18.7939
45.551544 85.961 18.8898
45.881630 85.956 19.0119
46.214108 85.955 19.1538
46.548996 85.959 19.3124
46.886307 85.967 19.4817
47.226067 85.980 19.6553
47.568283 85.998 19.8317
47.912983 86.020 20.0093
48.260181 86.046 20.1827
48.609894 86.078 20.3474
48.962143 86.114 20.4988
49.316940 86.154 20.6304
49.674313 86.198 20.7428
50.034271 86.244 20.8347
50.396843 86.292 20.9049
50.762039 86.343 20.9533
51.129883 86.397 20.9750
51.500389 86.453 20.9654
51.873581 86.510 20.9231
52.249481 86.567 20.8443
52.628101 86.623 20.7322
53.009464 86.677 20.5876
53.393593 86.728 20.4133
53.780506 86.776 20.2097
54.170223 86.820 19.9844
54.562763 86.858 19.7422
54.958145 86.891 19.4914
55.356396 86.919 19.2418
55.757530 86.943 18.9944
56.161572 86.964 18.7528
56.568542 86.983 18.5194
56.978462 86.998 18.2988
57.391350 87.012 18.0874
57.807232 87.028 17.8849
58.226128 87.044 17.6853
58.648056 87.060 17.4817
59.073048 87.074 17.2773
59.501114 87.086 17.0729
59.932281 87.097 16.8694
60.366577 87.108 16.6684
60.804020 87.117 16.4693
61.244629 87.124 16.2708
61.688435 87.129 16.0773
62.135452 87.132 15.8931
62.585712 87.134 15.7183
63.039234 87.136 15.5551
63.496040 87.137 15.4023
63.956161 87.139 15.2599
64.419617 87.141 15.1262
64.886421 87.144 15.0010
65.356621 87.149 14.8792
65.830215 87.155 14.7564
66.307251 87.163 14.6303
66.787743 87.172 14.4973
67.271713 87.181 14.3573
67.759193 87.190 14.2085
68.250206 87.198 14.0513
68.744774 87.206 13.8847
69.242928 87.212 13.7113
69.744690 87.215 13.5317
70.250084 87.216 13.3513
70.759148 87.214 13.1752
71.271896 87.210 13.0053
71.788361 87.204 12.8450
72.308571 87.196 12.6953
72.832550 87.188 12.5587
73.360321 87.179 12.4342
73.891922 87.171 12.3226
74.427376 87.163 12.2212
74.966705 87.156 12.1285
75.509949 87.150 12.0421
76.057121 87.146 11.9600
76.608261 87.142 11.8792
77.163399 87.139 11.7959
77.722557 87.137 11.7102
78.285767 87.135 11.6201
78.853058 87.132 11.5272
79.424461 87.129 11.4314
80.000000 87.124 11.3362
80.579712 87.117 11.2438
81.163628 87.109 11.1572
81.751770 87.101 11.0801
82.344177 87.092 11.0121
82.940880 87.083 10.9540
83.541901 87.074 10.9051
84.147285 87.066 10.8660
84.757050 87.059 10.8341
85.371231 87.053 10.8077
85.989868 87.049 10.7840
86.612984 87.046 10.7602
87.240616 87.045 10.7351
87.872803 87.044 10.7061
88.509560 87.044 10.6741
89.150940 87.044 10.6387
89.796967 87.044 10.6001
90.447670 87.044 10.5582
91.103088 87.044 10.5131
91.763260 87.044 10.4651
92.428215 87.043 10.4141
93.097992 87.042 10.3594
93.772614 87.040 10.3031
94.452133 87.037 10.2464
95.136566 87.032 10.1921
95.825966 87.025 10.1425
96.520363 87.017 10.1001
97.219788 87.008 10.0684
97.924286 86.999 10.0470
98.633881 86.990 10.0366
99.348625 86.982 10.0370
100.068542 86.974 10.0487
100.793686 86.966 10.0699
101.524078 86.961 10.1000
102.259766 86.957 10.1359
103.000778 86.956 10.1746
103.747162 86.956 10.2149
104.498962 86.957 10.2554
105.256203 86.960 10.2939
106.018929 86.965 10.3288
106.787186 86.972 10.3580
107.561012 86.980 10.3788
108.340446 86.989 10.3910
109.125526 86.997 10.3931
109.916290 87.006 10.3860
110.712791 87.015 10.3699
111.515060 87.023 10.3461
112.323143 87.030 10.3145
113.137085 87.035 10.2791
113.956924 87.039 10.2431
114.782700 87.041 10.2081
115.614464 87.043 10.1763
116.452255 87.044 10.1480
117.296112 87.044 10.1249
118.146095 87.044 10.1060
119.002228 87.044 10.0910
119.864563 87.044 10.0800
120.733154 87.044 10.0729
121.608040 87.044 10.0700
122.489258 87.044 10.0717
123.376869 87.044 10.0780
124.270905 87.045 10.0888
125.171425 87.046 10.1040
126.078468 87.048 10.1239
126.992081 87.051 10.1459
127.912323 87.057 10.1691
128.839233 87.064 10.1890
129.772842 87.073 10.2007
130.713242 87.082 10.2050
131.660431 87.090 10.2005
132.614502 87.099 10.1880
133.575485 87.108 10.1677
134.543427 87.117 10.1401
135.518387 87.124 10.1039
136.500412 87.129 10.0641
137.489548 87.132 10.0243
138.485855 87.134 9.9861
139.489380 87.135 9.9527
140.500168 87.136 9.9221
141.518295 87.136 9.8926
142.543793 87.136 9.8661
143.576721 87.134 9.8437
144.617142 87.132 9.8260
145.665100 87.129 9.8118
146.720642 87.125 9.8070
147.783844 87.117 9.8162
148.854752 87.109 9.8419
149.933411 87.103 9.8914
151.019897 87.100 9.9548
152.114243 87.101 10.0261
153.216522 87.104 10.1018
154.326797 87.109 10.1779
155.445114 87.117 10.2498
156.571533 87.130 10.3139
157.706116 87.145 10.3629
158.848923 87.162 10.3865
160.000000 87.179 10.3910
161.159424 87.193 10.3770
162.327255 87.204 10.3511
163.503540 87.214 10.3188
164.688354 87.221 10.2841
165.881760 87.224 10.2520
167.083801 87.226 10.2251
168.294571 87.227 10.2080
169.514099 87.228 10.1990
170.742462 87.228 10.1975
171.979736 87.228 10.2040
173.225967 87.228 10.2190
174.481232 87.228 10.2419
175.745605 87.228 10.2719
177.019119 87.229 10.3099
178.301880 87.230 10.3576
179.593933 87.233 10.4128
180.895340 87.237 10.4754
182.206177 87.243 10.5418
183.526520 87.252 10.6099
184.856430 87.263 10.6759
186.195984 87.276 10.7359
187.545227 87.291 10.7879
188.904266 87.307 10.8284
190.273132 87.324 10.8569
191.651932 87.342 10.8712
193.040726 87.359 10.8740
194.439575 87.375 10.8668
195.848572 87.389 10.8521
197.267761 87.403 10.8320
198.697250 87.415 10.8081
200.137085 87.426 10.7824
201.587372 87.436 10.7551
203.048157 87.446 10.7268
204.519531 87.456 10.6971
206.001556 87.464 10.6650
207.494324 87.471 10.6321
208.997925 87.477 10.5979
210.512405 87.482 10.5671
212.037857 87.483 10.5427
213.574371 87.483 10.5290
215.122025 87.482 10.5319
216.680893 87.481 10.5499
218.251053 87.481 10.5847
219.832581 87.483 10.6328
221.425583 87.486 10.6939
223.030121 87.493 10.7608
224.646286 87.504 10.8292
226.274170 87.519 10.8909
227.913849 87.537 10.9363
229.565399 87.557 10.9650
231.228928 87.577 10.9719
232.904510 87.596 10.9611
234.592224 87.613 10.9319
236.292191 87.628 10.8921
238.004456 87.638 10.8469
239.729126 87.645 10.8041
241.466309 87.650 10.7733
243.216080 87.653 10.7540
244.978516 87.656 10.7492
246.753738 87.658 10.7580
248.541809 87.660 10.7814
250.342850 87.664 10.8169
252.156937 87.670 10.8644
253.984161 87.678 10.9169
255.824646 87.690 10.9679
257.678467 87.705 11.0159
259.545685 87.720 11.0567
261.426483 87.735 11.0919
263.320862 87.752 11.1224
265.229004 87.769 11.1459
267.150970 87.787 11.1595
269.086853 87.805 11.1670
271.036774 87.821 11.1711
273.000824 87.838 11.1720
274.979095 87.856 11.1718
276.971710 87.874 11.1680
278.978760 87.892 11.1579
281.000336 87.910 11.1440
283.036591 87.927 11.1291
285.087585 87.945 11.1101
287.153442 87.965 11.0848
289.234283 87.985 11.0531
291.330200 88.003 11.0137
293.441284 88.021 10.9681
295.567688 88.039 10.9177
297.709503 88.057 10.8612
299.866821 88.074 10.7960
302.039795 88.089 10.7272
304.228485 88.101 10.6582
306.433044 88.112 10.5912
308.653595 88.123 10.5295
310.890228 88.134 10.4731
313.143066 88.143 10.4234
315.412231 88.152 10.3801
317.697845 88.162 10.3453
320.000000 88.173 10.3141
322.318848 88.187 10.2832
324.654510 88.202 10.2491
327.007080 88.219 10.2074
329.376709 88.236 10.1572
331.763519 88.254 10.0963
334.167603 88.272 10.0242
336.589142 88.290 9.9387
339.028198 88.306 9.8433
341.484924 88.320 9.7409
343.959473 88.333 9.6323
346.451935 88.346 9.5194
348.962463 88.357 9.4023
351.491211 88.366 9.2822
354.038239 88.374 9.1584
356.603760 88.381 9.0295
359.187866 88.387 8.8984
361.790680 88.389 8.7660
364.412354 88.389 8.6374
367.053040 88.386 8.5175
369.712860 88.381 8.4073
372.391968 88.375 8.3093
375.090454 88.368 8.2242
377.808533 88.360 8.1543
380.546265 88.353 8.0981
383.303864 88.346 8.0573
386.081451 88.341 8.0251
388.879150 88.340 7.9966
391.697144 88.340 7.9681
394.535522 88.341 7.9347
397.394501 88.343 7.8941
400.274170 88.347 7.8422
403.174744 88.350 7.7792
406.096313 88.352 7.7014
409.039062 88.351 7.6163
412.003113 88.346 7.5297
414.988647 88.339 7.4433
417.995850 88.332 7.3598
421.024811 88.322 7.2812
424.075714 88.308 7.2071
427.148743 88.290 7.1472
430.244049 88.269 7.1131
433.361786 88.248 7.0990
436.502106 88.230 7.1052
439.665161 88.213 7.1249
442.851166 88.196 7.1500
446.060242 88.179 7.1849
449.292572 88.160 7.2321
452.548340 88.142 7.2898
455.827698 88.126 7.3567
459.130798 88.109 7.4327
462.457855 88.091 7.5146
465.809021 88.071 7.6107
469.184448 88.049 7.7275
472.584381 88.027 7.8675
476.008911 88.005 8.0349
479.458252 87.983 8.2303
482.932617 87.964 8.4572
486.432159 87.947 8.7121
489.957031 87.934 8.9952
493.507477 87.925 9.3000
497.083618 87.923 9.6223
500.685699 87.926 9.9559
504.313873 87.934 10.2946
507.968323 87.948 10.6349
511.649292 87.968 10.9712
515.356934 87.992 11.3029
519.091370 88.020 11.6274
522.852966 88.051 11.9450
526.641724 88.086 12.2561
530.458008 88.125 12.5570
534.301941 88.169 12.8453
538.173706 88.218 13.1171
542.073547 88.270 13.3682
546.001648 88.325 13.5982
549.958191 88.382 13.8048
553.943420 88.442 13.9894
557.957520 88.501 14.1516
562.000671 88.562 14.2945
566.073181 88.622 14.4205
570.175171 88.684 14.5317
574.306885 88.746 14.6309
578.468567 88.810 14.7177
582.660400 88.875 14.7943
586.882568 88.943 14.8548
591.135376 89.014 14.8954
595.419006 89.087 14.9120
599.733643 89.161 14.8988
604.079590 89.236 14.8572
608.456970 89.310 14.7853
612.866089 89.383 14.6874
617.307190 89.453 14.5649
621.780457 89.521 14.4245
626.286133 89.585 14.2733
630.824463 89.649 14.1115
635.395691 89.712 13.9426
640.000000 89.776 13.7646
644.637695 89.838 13.5770
649.309021 89.901 13.3787
654.014160 89.964 13.1705
658.753418 90.029 12.9458
663.527039 90.094 12.6964
668.335205 90.159 12.4269
673.178284 90.220 12.1389
678.056396 90.280 11.8331
682.969849 90.339 11.5111
687.918945 90.398 11.1722
692.903870 90.454 10.8146
697.924927 90.508 10.4433
702.982422 90.558 10.0641
708.076477 90.607 9.6734
713.207520 90.658 9.2694
718.375732 90.707 8.8525
723.581360 90.751 8.4226
728.824707 90.793 7.9806
734.106079 90.836 7.5287
739.425720 90.878 7.0627
744.783936 90.918 6.5776
750.180908 90.955 6.0778
755.617065 90.988 5.5667
761.092529 91.019 5.0419
766.607727 91.050 4.5027
772.162903 91.079 3.9470
777.758301 91.103 3.3708
783.394287 91.124 2.7801
789.071045 91.139 2.1805
794.789001 91.151 1.5702
800.548340 91.161 0.9480
806.349487 91.166 0.3173
812.192627 91.164 -0.3208
818.078125 91.156 -0.9607
824.006226 91.145 -1.5956
829.977295 91.129 -2.2287
835.991699 91.110 -2.8624
842.049622 91.086 -3.4927
848.151428 91.056 -4.1178
854.297485 91.020 -4.7337
860.488098 90.980 -5.3340
866.723572 90.936 -5.9238
873.004211 90.890 -6.5073
879.330322 90.840 -7.0820
885.702332 90.783 -7.6492
892.120483 90.720 -8.2021
898.585144 90.652 -8.7343
905.096680 90.579 -9.2451
911.655396 90.501 -9.7344
918.261597 90.416 -10.1944
924.915710 90.324 -10.6215
931.618042 90.224 -11.0027
938.368896 90.117 -11.3262
945.168762 90.005 -11.5842
952.017822 89.890 -11.7650
958.916504 89.772 -11.8688
965.865234 89.656 -11.8896
972.864319 89.542 -11.8333
979.914062 89.435 -11.7006
987.014954 89.334 -11.5019
994.167236 89.244 -11.2428
1001.371399 89.165 -10.9391
1008.627747 89.099 -10.6020
1015.936646 89.046 -10.2505
1023.298584 89.009 -9.9038
1030.713867 88.983 -9.5730
1038.182739 88.966 -9.2747
1045.705933 88.956 -9.0110
1053.283447 88.953 -8.7906
1060.916016 88.955 -8.6117
1068.603882 88.957 -8.4788
1076.347412 88.960 -8.3813
1084.147095 88.960 -8.3112
1092.003296 88.959 -8.2651
1099.916382 88.958 -8.2371
1107.886841 88.957 -8.2270
1115.915039 88.954 -8.2338
1124.001343 88.951 -8.2549
1132.146362 88.947 -8.2859
1140.350342 88.942 -8.3318
1148.613770 88.939 -8.3973
1156.937134 88.934 -8.4796
1165.320801 88.925 -8.5796
1173.765137 88.912 -8.6905
1182.270752 88.897 -8.8071
1190.838013 88.879 -8.9255
1199.467285 88.856 -9.0420
1208.159180 88.829 -9.1506
1216.913940 88.800 -9.2441
1225.732178 88.768 -9.3227
1234.614380 88.736 -9.3826
1243.560913 88.703 -9.4288
1252.572266 88.673 -9.4653
1261.648926 88.643 -9.4919
1270.791382 88.611 -9.5112
1280.000000 88.578 -9.5190
1289.275391 88.546 -9.5099
1298.618042 88.515 -9.4901
1308.028320 88.487 -9.4618
1317.506836 88.462 -9.4311
1327.054077 88.439 -9.4050
1336.670410 88.417 -9.3841
1346.356567 88.396 -9.3700
1356.112793 88.376 -9.3660
1365.939697 88.358 -9.3754
1375.837891 88.339 -9.3989
1385.807739 88.318 -9.4392
1395.849854 88.295 -9.4928
1405.964844 88.270 -9.5582
1416.152954 88.241 -9.6307
1426.415039 88.207 -9.7073
1436.751465 88.169 -9.7817
1447.162720 88.126 -9.8490
1457.649414 88.078 -9.9028
1468.212158 88.025 -9.9376
1478.851440 87.967 -9.9460
1489.567871 87.905 -9.9206
1500.361816 87.839 -9.8563
1511.234131 87.770 -9.7472
1522.185059 87.699 -9.5888
1533.215454 87.628 -9.3738
1544.325806 87.558 -9.1053
1555.516602 87.493 -8.7794
1566.788574 87.433 -8.4096
1578.142090 87.383 -8.0048
1589.578003 87.340 -7.5749
1601.096680 87.305 -7.1302
1612.698975 87.278 -6.6779
1624.385254 87.259 -6.2264
1636.156250 87.247 -5.7819
1648.012451 87.241 -5.3527
1659.954590 87.240 -4.9415
1671.983398 87.243 -4.5540
1684.099243 87.248 -4.1895
1696.302856 87.255 -3.8500
1708.594971 87.263 -3.5324
1720.976196 87.270 -3.2366
1733.447144 87.276 -2.9552
1746.008423 87.278 -2.6833
1758.660645 87.278 -2.4131
1771.404663 87.275 -2.1388
1784.240967 87.269 -1.8502
1797.170288 87.259 -1.5368
1810.193359 87.248 -1.1934
1823.310791 87.238 -0.8104
1836.523193 87.230 -0.3917
1849.831421 87.227 0.0646
1863.236084 87.229 0.5508
1876.737793 87.240 1.0640
1890.337524 87.259 1.5917
1904.035645 87.288 2.1228
1917.833008 87.325 2.6499
1931.730469 87.370 3.1637
1945.728638 87.422 3.6589
1959.828125 87.482 4.1296
1974.029907 87.548 4.5692
1988.334473 87.620 4.9679
2002.742798 87.696 5.3296
2017.255493 87.772 5.6542
2031.873291 87.849 5.9449
2046.597168 87.928 6.2047
2061.427734 88.008 6.4341
2076.365479 88.087 6.6316
2091.411865 88.165 6.8063
2106.566895 88.240 6.9646
2121.832031 88.314 7.1134
2137.207764 88.387 7.2629
2152.694824 88.462 7.4104
2168.294189 88.539 7.5579
2184.006592 88.621 7.7014
2199.832764 88.706 7.8384
2215.773682 88.796 7.9655
2231.830078 88.889 8.0829
2248.002686 88.990 8.1777
2264.292725 89.100 8.2413
2280.700684 89.216 8.2600
2297.227539 89.339 8.2172
2313.874268 89.463 8.1126
2330.641602 89.589 7.9404
2347.530273 89.713 7.7002
2364.541504 89.837 7.3878
2381.676025 89.956 7.0089
2398.934570 90.069 6.5630
2416.318359 90.174 6.0643
2433.827881 90.269 5.5230
2451.464355 90.356 4.9504
2469.228760 90.434 4.3591
2487.121826 90.504 3.7556
2505.144531 90.567 3.1504
2523.297852 90.624 2.5438
2541.582764 90.677 1.9409
2560.000000 90.727 1.3377
2578.550781 90.774 0.7331
2597.236084 90.819 0.1228
2616.056641 90.861 -0.4978
2635.013672 90.900 -1.1293
2654.108154 90.935 -1.7754
2673.340820 90.965 -2.4311
2692.713135 90.989 -3.0955
2712.225586 91.007 -3.7609
2731.879395 91.018 -4.4208
2751.675781 91.024 -5.0710
2771.615479 91.025 -5.7065
2791.699707 91.021 -6.3233
2811.929688 91.012 -6.9168
2832.305908 91.000 -7.4844
2852.830078 90.986 -8.0190
2873.502930 90.973 -8.5288
2894.325439 90.962 -9.0180
2915.298828 90.953 -9.4919
2936.424316 90.945 -9.9551
2957.702881 90.939 -10.4140
2979.135742 90.938 -10.8724
3000.723633 90.939 -11.3419
3022.468262 90.943 -11.8348
3044.370117 90.949 -12.3535
3066.430908 90.954 -12.9055
3088.651611 90.957 -13.4893
3111.033203 90.958 -14.1078
3133.577148 90.954 -14.7559
3156.284180 90.944 -15.4332
3179.156006 90.926 -16.1287
3202.193359 90.900 -16.8332
3225.397949 90.865 -17.5396
3248.770508 90.824 -18.2394
3272.312500 90.775 -18.9279
3296.024902 90.719 -19.5976
3319.909180 90.658 -20.2490
3343.966797 90.594 -20.8791
3368.198486 90.526 -21.4921
3392.605713 90.454 -22.0915
3417.189941 90.378 -22.6763
3441.952393 90.298 -23.2469
3466.894287 90.213 -23.8035
3492.016846 90.124 -24.3490
3517.321289 90.029 -24.8766
3542.809326 89.926 -25.3850
3568.481934 89.816 -25.8609
3594.340576 89.695 -26.2918
3620.386719 89.569 -26.6733
3646.621582 89.438 -26.9978
3673.046387 89.303 -27.2619
3699.662842 89.161 -27.4600
3726.472168 89.018 -27.5915
3753.475586 88.875 -27.6513
3780.675049 88.733 -27.6472
3808.071289 88.593 -27.5851
3835.666016 88.456 -27.4667
3863.460938 88.319 -27.2950
3891.457275 88.186 -27.0712
3919.656250 88.056 -26.7969
3948.059814 87.929 -26.4736
3976.668945 87.804 -26.1051
4005.485596 87.682 -25.6862
4034.510986 87.560 -25.2154
4063.746582 87.441 -24.6857
4093.194336 87.323 -24.0911
4122.855469 87.210 -23.4264
4152.730957 87.100 -22.6837
4182.823730 86.998 -21.8651
4213.133789 86.906 -20.9700
4243.664062 86.824 -19.9988
4274.415527 86.752 -18.9484
4305.389648 86.694 -17.8286
4336.588379 86.658 -16.6406
4368.013184 86.642 -15.4079
4399.665527 86.650 -14.1493
4431.547363 86.682 -12.8812
4463.660156 86.736 -11.6199
4496.005371 86.814 -10.3841
4528.585449 86.916 -9.1940
4561.401367 87.039 -8.0612
4594.455078 87.180 -7.0030
4627.748535 87.337 -6.0226
4661.283203 87.510 -5.1263
4695.060547 87.697 -4.3217
4729.083008 87.899 -3.6196
4763.352051 88.112 -3.0166
4797.869141 88.332 -2.5102
4832.636719 88.564 -2.1087
4867.655762 88.811 -1.8133
4902.928711 89.071 -1.6445
4938.457520 89.340 -1.6194
4974.243652 89.618 -1.7500
5010.289062 89.902 -2.0502
5046.595703 90.189 -2.5301
5083.165527 90.473 -3.2064
5120.000000 90.751 -4.0733
5157.101562 91.015 -5.1347
5194.472168 91.265 -6.3775
5232.113281 91.498 -7.7960
5270.027344 91.711 -9.3707
5308.216309 91.898 -11.0895
5346.681641 92.059 -12.9238
5385.426270 92.192 -14.8462
5424.451172 92.299 -16.8411
5463.758789 92.381 -18.8893
5503.351562 92.436 -20.9738
5543.230957 92.462 -23.0781
5583.399414 92.460 -25.1807
5623.859375 92.432 -27.2587
5664.611816 92.379 -29.3001
5705.660156 92.303 -31.2903
5747.005859 92.203 -33.2143
5788.650879 92.079 -35.0549
5830.597656 91.936 -36.8023
5872.848633 91.776 -38.4423
5915.405762 91.600 -39.9704
5958.271484 91.410 -41.3783
6001.447266 91.209 -42.6627
6044.936523 90.999 -43.8147
6088.740234 90.783 -44.8431
6132.861816 90.566 -45.7508
6177.303223 90.348 -46.5473
6222.066406 90.130 -47.2441
6267.154297 89.912 -47.8383
6312.568359 89.693 -48.3298
6358.312012 89.476 -48.7213
6404.386719 89.265 -49.0129
6450.795898 89.059 -49.2112
6497.541016 88.858 -49.3229
6544.625000 88.664 -49.3471
6592.049805 88.475 -49.2817
6639.818359 88.297 -49.1369
6687.933594 88.133 -48.9151
6736.396973 87.985 -48.6375
6785.211426 87.853 -48.3225
6834.379883 87.738 -47.9818
6883.904785 87.637 -47.6309
6933.788574 87.552 -47.2778
6984.033691 87.482 -46.9346
7034.642578 87.425 -46.6036
7085.618652 87.380 -46.2900
7136.963867 87.348 -45.9974
7188.681152 87.330 -45.7260
7240.773438 87.329 -45.4921
7293.243164 87.346 -45.3022
7346.092773 87.382 -45.1854
7399.325684 87.440 -45.1586
7452.944336 87.520 -45.2651
7506.951172 87.622 -45.5417
7561.350098 87.738 -46.0249
7616.142578 87.865 -46.7574
7671.332031 87.992 -47.7571
7726.921875 88.114 -49.0587
7782.914551 88.219 -50.6550
7839.312500 88.296 -52.5649
7896.119629 88.336 -54.7458
7953.337891 88.328 -57.1830
8010.971191 88.266 -59.8107
8069.021973 88.143 -62.5869
8127.493164 87.954 -65.4250
8186.388672 87.692 -68.2538
8245.710938 87.358 -70.9840
8305.461914 86.952 -73.5320
8365.647461 86.474 -75.8088
8426.267578 85.921 -77.7263
8487.328125 85.302 -79.1976
8548.831055 84.618 -80.1164
8610.779297 83.885 -80.4519
8673.176758 83.116 -80.1344
8736.026367 82.325 -79.1750
8799.331055 81.524 -77.5445
8863.094727 80.737 -75.2945
8927.320312 79.986 -72.4276
8992.010742 79.294 -69.0630
9057.170898 78.695 -65.2886
9122.802734 78.186 -61.2023
9188.910156 77.775 -56.9080
9255.497070 77.463 -52.4752
9322.566406 77.261 -47.9862
9390.121094 77.154 -43.5065
9458.166016 77.138 -39.1175
9526.704102 77.203 -34.8541
9595.738281 77.343 -30.7694
9665.273438 77.550 -26.8899
9735.311523 77.814 -23.2537
9805.857422 78.130 -19.8785
9876.915039 78.490 -16.7859
9948.487305 78.889 -14.0032
10020.578125 79.325 -11.5580
10093.191406 79.786 -9.4713
10166.331055 80.266 -7.7792
10240.000000 80.752 -6.4640
10314.203125 81.233 -5.5242
10388.944336 81.709 -4.9459
10464.226562 82.176 -4.7163
10540.054688 82.629 -4.8293
10616.432617 83.064 -5.2835
10693.363281 83.474 -6.0545
10770.852539 83.852 -7.1286
10848.902344 84.196 -8.4730
10927.517578 84.501 -10.0607
11006.703125 84.766 -11.8607
11086.461914 84.988 -13.8489
11166.798828 85.162 -15.9779
11247.718750 85.283 -18.2107
11329.223633 85.354 -20.4912
11411.320312 85.374 -22.7657
11494.011719 85.345 -24.9902
11577.301758 85.270 -27.1132
11661.195312 85.153 -29.1034
11745.697266 84.998 -30.9141
11830.811523 84.814 -32.5407
11916.542969 84.607 -33.9563
12002.894531 84.383 -35.1827
12089.873047 84.152 -36.2217
12177.480469 83.915 -37.1074
12265.723633 83.679 -37.8703
12354.606445 83.438 -38.5237
12444.132812 83.193 -39.0947
12534.308594 82.940 -39.5727
12625.136719 82.678 -39.9669
12716.624023 82.401 -40.2449
12808.773438 82.103 -40.3958
12901.591797 81.785 -40.3638
12995.082031 81.439 -40.1003
13089.250000 81.076 -39.5704
13184.099609 80.701 -38.7262
13279.636719 80.323 -37.5589
13375.867188 79.945 -36.0384
13472.793945 79.583 -34.1805
13570.422852 79.249 -31.9717
13668.759766 78.958 -29.4697
13767.809570 78.724 -26.7042
13867.577148 78.554 -23.7476
13968.067383 78.455 -20.6603
14069.285156 78.429 -17.5080
14171.237305 78.479 -14.3585
14273.927734 78.600 -11.2661
14377.362305 78.789 -8.2899
14481.546875 79.041 -5.4829
14586.486328 79.353 -2.9085
14692.185547 79.714 -0.5946
14798.651367 80.110 1.4125
14905.888672 80.536 3.1021
15013.902344 80.988 4.4539
15122.700195 81.455 5.4524
15232.285156 81.931 6.0730
15342.664062 82.405 6.3226
15453.843750 82.868 6.1936
15565.829102 83.316 5.7046
15678.625000 83.742 4.8657
15792.239258 84.141 3.6972
15906.675781 84.507 2.2098
16021.942383 84.835 0.4423
16138.043945 85.119 -1.5784
16254.986328 85.356 -3.8055
16372.777344 85.542 -6.2001
16491.421875 85.676 -8.7128
16610.923828 85.756 -11.3001
16731.294922 85.782 -13.9049
16852.535156 85.751 -16.4736
16974.656250 85.667 -18.9524
17097.662109 85.530 -21.2818
17221.558594 85.347 -23.4236
17346.353516 85.122 -25.3282
17472.052734 84.862 -26.9709
17598.662109 84.569 -28.3107
17726.189453 84.256 -29.3469
17854.640625 83.932 -30.0603
17984.021484 83.604 -30.4666
18114.341797 83.277 -30.5634
18245.605469 82.964 -30.3857
18377.820312 82.674 -29.9479
18510.994141 82.412 -29.3092
18645.132812 82.191 -28.5192
18780.242188 82.004 -27.6221
18916.332031 81.851 -26.6669
19053.408203 81.733 -25.6886
19191.476562 81.650 -24.7297
19330.546875 81.596 -23.8148
19470.623047 81.564 -22.9854
19611.714844 81.547 -22.2330
19753.830078 81.537 -21.5674
19896.974609 81.533 -20.9744
