* Measurement data measured by REW V5.20.13
* Source: C:\Users\kurin\Desktop\Targets and Curves\Resolve\Img\Files\He-x4_SPL.txt
* Format: Comma/Tab/Space delimited data
* Dated: Aug 14, 2023 5:22:01 PM
* REW Settings:
*  C-weighting compensation: Off
*  Target level: 75.0 dB
* Note: ; Measurement imported from C:\Users\kurin\Desktop\Targets and Curves\Resolve\Img\Files\He-x4_SPL.txt Format: Comma/Tab/Space delimited data 623 values loaded, 5 Hz to 39,792 Hz log spaced 
* Measurement: He-x4_SPL
* Smoothing: 1/48 octave
* Frequency Step: 1/96 octave
* Start Frequency: 5.000 Hz
*
* Freq(Hz) SPL(dB) Phase(degrees)
5.000000 80.938 26.8270
5.036232 80.947 26.8212
5.072727 80.956 26.8150
5.109486 80.967 26.8079
5.146511 80.980 26.8000
5.183805 80.995 26.7908
5.221369 81.012 26.7810
5.259205 81.029 26.7716
5.297316 81.047 26.7620
5.335702 81.067 26.7516
5.374367 81.087 26.7410
5.413311 81.107 26.7305
5.452538 81.126 26.7200
5.492050 81.146 26.7095
5.531847 81.165 26.6990
5.571934 81.185 26.6885
5.612310 81.204 26.6780
5.652979 81.223 26.6676
5.693943 81.243 26.6570
5.735204 81.262 26.6461
5.776763 81.282 26.6350
5.818624 81.301 26.6240
5.860788 81.321 26.6130
5.903258 81.341 26.6020
5.946035 81.361 26.5910
5.989123 81.381 26.5801
6.032523 81.400 26.5690
6.076237 81.420 26.5576
6.120268 81.439 26.5460
6.164618 81.458 26.5345
6.209289 81.478 26.5230
6.254284 81.497 26.5116
6.299605 81.517 26.5000
6.345255 81.536 26.4881
6.391235 81.556 26.4760
6.437549 81.575 26.4640
6.484198 81.595 26.4520
6.531185 81.615 26.4401
6.578513 81.635 26.4280
6.626183 81.655 26.4156
6.674199 81.674 26.4030
6.722563 81.693 26.3905
6.771278 81.713 26.3780
6.820345 81.732 26.3656
6.869768 81.752 26.3530
6.919549 81.771 26.3401
6.969691 81.791 26.3270
7.020196 81.810 26.3140
7.071068 81.830 26.3010
7.122308 81.849 26.2881
7.173919 81.869 26.2750
7.225904 81.889 26.2616
7.278266 81.909 26.2480
7.331007 81.929 26.2340
7.384131 81.948 26.2200
7.437639 81.967 26.2065
7.491535 81.987 26.1930
7.545822 82.006 26.1791
7.600502 82.026 26.1650
7.655579 82.045 26.1506
7.711054 82.065 26.1360
7.766932 82.084 26.1215
7.823214 82.104 26.1070
7.879904 82.123 26.0926
7.937005 82.143 26.0780
7.994520 82.163 26.0631
8.052452 82.183 26.0480
8.110803 82.203 26.0331
8.169578 82.222 26.0180
8.228777 82.241 26.0026
8.288406 82.261 25.9870
8.348468 82.280 25.9716
8.408964 82.300 25.9560
8.469899 82.319 25.9401
8.531276 82.339 25.9240
8.593097 82.358 25.9080
8.655366 82.378 25.8920
8.718086 82.397 25.8761
8.781260 82.417 25.8600
8.844893 82.437 25.8431
8.908987 82.457 25.8260
8.973545 82.477 25.8095
9.038571 82.496 25.7930
9.104069 82.515 25.7761
9.170040 82.535 25.7590
9.236490 82.554 25.7416
9.303422 82.574 25.7240
9.370838 82.593 25.7066
9.438744 82.613 25.6890
9.507140 82.632 25.6711
9.576033 82.652 25.6530
9.645425 82.671 25.6345
9.715320 82.691 25.6160
9.785721 82.711 25.5981
9.856632 82.731 25.5800
9.928058 82.751 25.5611
10.000000 82.770 25.5420
10.072464 82.789 25.5231
10.145453 82.809 25.5040
10.218971 82.828 25.4846
10.293022 82.848 25.4650
10.367610 82.868 25.4456
10.442738 82.887 25.4260
10.518411 82.907 25.4056
10.594631 82.926 25.3850
10.671404 82.945 25.3651
10.748734 82.965 25.3450
10.826623 82.985 25.3241
10.905077 83.005 25.3030
10.984100 83.025 25.2821
11.063695 83.044 25.2610
11.143867 83.063 25.2396
11.224621 83.083 25.2180
11.305959 83.102 25.1966
11.387886 83.122 25.1750
11.470407 83.141 25.1531
11.553527 83.161 25.1310
11.637249 83.180 25.1086
11.721577 83.200 25.0860
11.806517 83.219 25.0631
11.892071 83.239 25.0400
11.978246 83.259 25.0166
12.065045 83.279 24.9930
12.152473 83.299 24.9696
12.240536 83.318 24.9460
12.329235 83.337 24.9216
12.418578 83.357 24.8970
12.508568 83.376 24.8726
12.599211 83.396 24.8480
12.690510 83.415 24.8231
12.782471 83.435 24.7980
12.875097 83.454 24.7726
12.968395 83.474 24.7470
13.062370 83.493 24.7211
13.157025 83.513 24.6950
13.252366 83.533 24.6686
13.348398 83.553 24.6420
13.445127 83.573 24.6152
13.542556 83.592 24.5880
13.640691 83.611 24.5606
13.739536 83.631 24.5330
13.839099 83.650 24.5051
13.939383 83.670 24.4770
14.040393 83.689 24.4486
14.142136 83.709 24.4200
14.244616 83.728 24.3912
14.347837 83.748 24.3620
14.451808 83.767 24.3322
14.556532 83.787 24.3020
14.662014 83.807 24.2716
14.768262 83.827 24.2410
14.875278 83.847 24.2102
14.983070 83.866 24.1790
15.091644 83.885 24.1472
15.201005 83.905 24.1150
15.311157 83.924 24.0827
15.422109 83.944 24.0500
15.533863 83.963 24.0167
15.646428 83.983 23.9830
15.759809 84.002 23.9492
15.874010 84.022 23.9150
15.989040 84.041 23.8803
16.104904 84.061 23.8450
16.221605 84.081 23.8094
16.339155 84.101 23.7730
16.457554 84.121 23.7358
16.576813 84.140 23.6980
16.696936 84.159 23.6602
16.817928 84.179 23.6220
16.939798 84.198 23.5834
17.062551 84.218 23.5441
17.186193 84.237 23.5034
17.310732 84.257 23.4620
17.436172 84.276 23.4203
17.562521 84.296 23.3780
17.689787 84.315 23.3350
17.817974 84.335 23.2910
17.947090 84.355 23.2456
18.077143 84.375 23.1990
18.208138 84.395 23.1516
18.340080 84.414 23.1031
18.472980 84.433 23.0534
18.606844 84.453 23.0020
18.741676 84.472 22.9488
18.877487 84.492 22.8931
19.014280 84.512 22.8343
19.152065 84.531 22.7721
19.290850 84.550 22.7061
19.430639 84.569 22.6360
19.571442 84.587 22.5611
19.713264 84.605 22.4821
19.856115 84.621 22.3987
20.000000 84.636 22.3141
20.144928 84.648 22.2301
20.290907 84.659 22.1501
20.437943 84.668 22.0767
20.586044 84.675 22.0130
20.735220 84.680 21.9624
20.885475 84.685 21.9270
21.036821 84.689 21.9111
21.189262 84.694 21.9130
21.342808 84.700 21.9343
21.497467 84.709 21.9690
21.653246 84.722 22.0131
21.810154 84.739 22.0619
21.968201 84.758 22.1118
22.127390 84.781 22.1560
22.287735 84.809 22.1881
22.449242 84.839 22.2040
22.611917 84.871 22.1961
22.775772 84.903 22.1680
22.940815 84.934 22.1204
23.107054 84.964 22.0551
23.274498 84.993 21.9728
23.443153 85.020 21.8771
23.613033 85.043 21.7693
23.784142 85.064 21.6571
23.956491 85.081 21.5482
24.130091 85.096 21.4441
24.304947 85.110 21.3489
24.481071 85.122 21.2621
24.658470 85.133 21.1849
24.837156 85.144 21.1161
25.017136 85.155 21.0558
25.198421 85.167 21.0021
25.381020 85.179 20.9532
25.564941 85.192 20.9080
25.750195 85.206 20.8653
25.936790 85.220 20.8231
26.124741 85.235 20.7785
26.314051 85.251 20.7331
26.504732 85.266 20.6867
26.696796 85.280 20.6411
26.890253 85.294 20.5972
27.085112 85.308 20.5560
27.281382 85.322 20.5194
27.479073 85.336 20.4850
27.678198 85.353 20.4520
27.878765 85.370 20.4180
28.080786 85.387 20.3804
28.284271 85.405 20.3391
28.489231 85.424 20.2941
28.695675 85.443 20.2431
28.903616 85.463 20.1835
29.113064 85.483 20.1151
29.324028 85.502 20.0349
29.536524 85.519 19.9481
29.750557 85.533 19.8584
29.966141 85.545 19.7681
30.183289 85.556 19.6794
30.402010 85.565 19.5961
30.622314 85.571 19.5218
30.844217 85.576 19.4591
31.067726 85.580 19.4119
31.292856 85.584 19.3790
31.519617 85.589 19.3620
31.748020 85.595 19.3570
31.978081 85.603 19.3615
32.209808 85.612 19.3730
32.443211 85.623 19.3882
32.678310 85.636 19.4070
32.915108 85.650 19.4288
33.153625 85.665 19.4520
33.393871 85.683 19.4748
33.635857 85.702 19.4970
33.879597 85.722 19.5177
34.125103 85.743 19.5370
34.372387 85.766 19.5562
34.621464 85.792 19.5700
34.872345 85.820 19.5744
35.125042 85.851 19.5660
35.379574 85.883 19.5404
35.635948 85.916 19.4971
35.894180 85.950 19.4343
36.154285 85.983 19.3521
36.416275 86.015 19.2479
36.680161 86.045 19.1272
36.945961 86.071 18.9933
37.213688 86.095 18.8512
37.483353 86.116 18.7061
37.754974 86.134 18.5602
38.028561 86.149 18.4168
38.304131 86.163 18.2782
38.581699 86.175 18.1483
38.861279 86.186 18.0262
39.142883 86.197 17.9128
39.426529 86.207 17.8061
39.712231 86.217 17.7050
40.000000 86.227 17.6081
40.289856 86.238 17.5144
40.581814 86.250 17.4221
40.875885 86.261 17.3296
41.172089 86.273 17.2361
41.470440 86.285 17.1408
41.770950 86.296 17.0432
42.073643 86.307 16.9423
42.378525 86.318 16.8391
42.685616 86.327 16.7335
42.994934 86.335 16.6272
43.306492 86.342 16.5211
43.620308 86.348 16.4172
43.936401 86.353 16.3172
44.254780 86.356 16.2221
44.575470 86.358 16.1336
44.898483 86.360 16.0521
45.223835 86.361 15.9786
45.551544 86.361 15.9131
45.881630 86.362 15.8560
46.214108 86.362 15.8071
46.548996 86.362 15.7664
46.886307 86.362 15.7340
47.226067 86.362 15.7099
47.568283 86.362 15.6950
47.912983 86.362 15.6903
48.260181 86.362 15.6960
48.609894 86.363 15.7123
48.962143 86.366 15.7400
49.316940 86.370 15.7806
49.674313 86.375 15.8309
50.034271 86.383 15.8889
50.396843 86.394 15.9519
50.762039 86.407 16.0171
51.129883 86.423 16.0829
51.500389 86.442 16.1486
51.873581 86.464 16.2079
52.249481 86.490 16.2545
52.628101 86.519 16.2880
53.009464 86.547 16.3057
53.393593 86.577 16.3080
53.780506 86.608 16.2945
54.170223 86.640 16.2641
54.562763 86.672 16.2128
54.958145 86.702 16.1481
55.356396 86.728 16.0756
55.757530 86.753 15.9971
56.161572 86.778 15.9169
56.568542 86.803 15.8341
56.978462 86.826 15.7487
57.391350 86.849 15.6632
57.807232 86.871 15.5812
58.226128 86.894 15.4991
58.648056 86.919 15.4153
59.073048 86.944 15.3272
59.501114 86.970 15.2319
59.932281 86.996 15.1282
60.366577 87.023 15.0150
60.804020 87.051 14.8892
61.244629 87.079 14.7473
61.688435 87.107 14.5903
62.135452 87.133 14.4173
62.585712 87.157 14.2313
63.039234 87.179 14.0343
63.496040 87.198 13.8284
63.956161 87.214 13.6150
64.419617 87.228 13.3984
64.886421 87.238 13.1818
65.356621 87.246 12.9694
65.830215 87.250 12.7666
66.307251 87.252 12.5734
66.787743 87.253 12.3918
67.271713 87.254 12.2203
67.759193 87.254 12.0586
68.250206 87.254 11.9053
68.744774 87.254 11.7592
69.242928 87.254 11.6193
69.744690 87.254 11.4840
70.250084 87.254 11.3532
70.759148 87.254 11.2265
71.271896 87.254 11.1032
71.788361 87.254 10.9828
72.308571 87.254 10.8652
72.832550 87.254 10.7505
73.360321 87.254 10.6382
73.891922 87.254 10.5277
74.427376 87.254 10.4192
74.966705 87.254 10.3129
75.509949 87.254 10.2082
76.057121 87.254 10.1046
76.608261 87.254 10.0022
77.163399 87.254 9.9011
77.722557 87.254 9.8012
78.285767 87.254 9.7024
78.853058 87.254 9.6042
79.424461 87.254 9.5062
80.000000 87.254 9.4082
80.579712 87.254 9.3099
81.163628 87.254 9.2112
81.751770 87.254 9.1123
82.344177 87.254 9.0122
82.940880 87.254 8.9098
83.541901 87.253 8.8062
84.147285 87.251 8.7018
84.757050 87.249 8.5972
85.371231 87.246 8.4931
85.989868 87.242 8.3902
86.612984 87.237 8.2892
87.240616 87.231 8.1912
87.872803 87.225 8.0973
88.509560 87.218 8.0082
89.150940 87.210 7.9248
89.796967 87.202 7.8472
90.447670 87.194 7.7758
91.103088 87.186 7.7101
91.763260 87.178 7.6499
92.428215 87.171 7.5941
93.097992 87.164 7.5419
93.772614 87.157 7.4931
94.452133 87.150 7.4473
95.136566 87.144 7.4041
95.825966 87.137 7.3627
96.520363 87.131 7.3231
97.219788 87.125 7.2849
97.924286 87.120 7.2481
98.633881 87.115 7.2123
99.348625 87.109 7.1781
100.068542 87.104 7.1460
100.793686 87.098 7.1161
101.524078 87.092 7.0884
102.259766 87.086 7.0631
103.000778 87.080 7.0397
103.747162 87.075 7.0190
104.498962 87.069 7.0015
105.256203 87.064 6.9870
106.018929 87.059 6.9760
106.787186 87.054 6.9680
107.561012 87.049 6.9633
108.340446 87.045 6.9610
109.125526 87.042 6.9603
109.916290 87.039 6.9610
110.712791 87.036 6.9629
111.515060 87.034 6.9650
112.323143 87.033 6.9664
113.137085 87.032 6.9670
113.956924 87.031 6.9666
114.782700 87.031 6.9650
115.614464 87.031 6.9621
116.452255 87.031 6.9580
117.296112 87.031 6.9529
118.146095 87.031 6.9470
119.002228 87.031 6.9407
119.864563 87.031 6.9340
120.733154 87.031 6.9271
121.608040 87.031 6.9200
122.489258 87.031 6.9130
123.376869 87.031 6.9060
124.270905 87.031 6.8995
125.171425 87.031 6.8930
126.078468 87.031 6.8864
126.992081 87.031 6.8800
127.912323 87.031 6.8743
128.839233 87.031 6.8690
129.772842 87.031 6.8639
130.713242 87.031 6.8590
131.660431 87.031 6.8543
132.614502 87.031 6.8500
133.575485 87.031 6.8463
134.543427 87.031 6.8430
135.518387 87.031 6.8403
136.500412 87.031 6.8380
137.489548 87.031 6.8363
138.485855 87.031 6.8350
139.489380 87.031 6.8343
140.500168 87.031 6.8340
141.518295 87.031 6.8342
142.543793 87.031 6.8350
143.576721 87.031 6.8367
144.617142 87.031 6.8390
145.665100 87.031 6.8416
146.720642 87.031 6.8450
147.783844 87.031 6.8496
148.854752 87.031 6.8550
149.933411 87.031 6.8606
151.019897 87.031 6.8670
152.114243 87.031 6.8745
153.216522 87.031 6.8830
154.326797 87.031 6.8920
155.445114 87.031 6.9020
156.571533 87.031 6.9130
157.706116 87.031 6.9250
158.848923 87.031 6.9379
160.000000 87.031 6.9520
161.159424 87.031 6.9673
162.327255 87.031 6.9840
163.503540 87.031 7.0018
164.688354 87.031 7.0210
165.881760 87.031 7.0413
167.083801 87.031 7.0629
168.294571 87.031 7.0861
169.514099 87.031 7.1109
170.742462 87.031 7.1375
171.979736 87.031 7.1659
173.225967 87.031 7.1963
174.481232 87.031 7.2289
175.745605 87.031 7.2641
177.019119 87.031 7.3019
178.301880 87.031 7.3422
179.593933 87.031 7.3859
180.895340 87.031 7.4335
182.206177 87.031 7.4859
183.526520 87.031 7.5438
184.856430 87.031 7.6078
186.195984 87.032 7.6789
187.545227 87.034 7.7568
188.904266 87.036 7.8426
190.273132 87.040 7.9338
191.651932 87.046 8.0296
193.040726 87.055 8.1257
194.439575 87.066 8.2177
195.848572 87.079 8.3058
197.267761 87.092 8.3897
198.697250 87.107 8.4668
200.137085 87.124 8.5354
201.587372 87.143 8.5929
203.048157 87.161 8.6342
204.519531 87.179 8.6659
206.001556 87.195 8.6921
207.494324 87.210 8.7149
208.997925 87.225 8.7386
210.512405 87.240 8.7609
212.037857 87.255 8.7813
213.574371 87.270 8.8000
215.122025 87.284 8.8166
216.680893 87.299 8.8330
218.251053 87.314 8.8513
219.832581 87.329 8.8690
221.425583 87.346 8.8853
223.030121 87.363 8.8970
224.646286 87.381 8.8990
226.274170 87.399 8.8960
227.913849 87.415 8.8903
229.565399 87.430 8.8840
231.228928 87.445 8.8816
232.904510 87.461 8.8790
234.592224 87.479 8.8736
236.292191 87.497 8.8660
238.004456 87.514 8.8563
239.729126 87.532 8.8430
241.466309 87.552 8.8261
243.216080 87.572 8.8021
244.978516 87.593 8.7667
246.753738 87.614 8.7221
248.541809 87.633 8.6676
250.342850 87.651 8.6072
252.156937 87.668 8.5451
253.984161 87.684 8.4802
255.824646 87.700 8.4124
257.678467 87.716 8.3422
259.545685 87.730 8.2692
261.426483 87.744 8.1962
263.320862 87.757 8.1261
265.229004 87.769 8.0572
267.150970 87.782 7.9890
269.086853 87.795 7.9202
271.036774 87.809 7.8491
273.000824 87.822 7.7762
274.979095 87.834 7.7013
276.971710 87.846 7.6252
278.978760 87.858 7.5488
281.000336 87.870 7.4722
283.036591 87.882 7.3957
285.087585 87.894 7.3192
287.153442 87.906 7.2435
289.234283 87.919 7.1672
291.330200 87.933 7.0902
293.441284 87.948 7.0092
295.567688 87.965 6.9224
297.709503 87.983 6.8253
299.866821 88.002 6.7140
302.039795 88.022 6.5844
304.228485 88.044 6.4315
306.433044 88.065 6.2545
308.653595 88.084 6.0496
310.890228 88.099 5.8217
313.143066 88.110 5.5725
315.412231 88.117 5.3078
317.697845 88.118 5.0310
320.000000 88.113 4.7498
322.318848 88.102 4.4720
324.654510 88.085 4.2008
327.007080 88.064 3.9395
329.376709 88.037 3.6957
331.763519 88.003 3.4760
334.167603 87.963 3.2875
336.589142 87.920 3.1388
339.028198 87.873 3.0322
341.484924 87.824 2.9721
343.959473 87.774 2.9610
346.451935 87.723 3.0046
348.962463 87.675 3.0977
351.491211 87.633 3.2403
354.038239 87.597 3.4224
356.603760 87.568 3.6373
359.187866 87.546 3.8743
361.790680 87.534 4.1257
364.412354 87.531 4.3763
367.053040 87.539 4.6095
369.712860 87.554 4.8214
372.391968 87.572 5.0026
375.090454 87.594 5.1526
377.808533 87.620 5.2689
380.546265 87.648 5.3488
383.303864 87.678 5.3859
386.081451 87.706 5.3890
388.879150 87.729 5.3621
391.697144 87.748 5.3132
394.535522 87.765 5.2514
397.394501 87.780 5.1772
400.274170 87.792 5.0926
403.174744 87.801 5.0023
406.096313 87.806 4.9109
409.039062 87.809 4.8203
412.003113 87.810 4.7348
414.988647 87.810 4.6523
417.995850 87.808 4.5704
421.024811 87.804 4.4932
424.075714 87.797 4.4228
427.148743 87.789 4.3622
430.244049 87.779 4.3153
433.361786 87.768 4.2811
436.502106 87.757 4.2601
439.665161 87.746 4.2520
442.851166 87.735 4.2572
446.060242 87.725 4.2739
449.292572 87.717 4.3022
452.548340 87.710 4.3369
455.827698 87.706 4.3735
459.130798 87.704 4.4099
462.457855 87.702 4.4421
465.809021 87.701 4.4709
469.184448 87.701 4.4959
472.584381 87.701 4.5169
476.008911 87.701 4.5338
479.458252 87.701 4.5470
482.932617 87.701 4.5570
486.432159 87.701 4.5630
489.957031 87.701 4.5646
493.507477 87.701 4.5610
497.083618 87.700 4.5513
500.685699 87.698 4.5351
504.313873 87.695 4.5107
507.968323 87.691 4.4811
511.649292 87.684 4.4466
515.356934 87.673 4.4131
519.091370 87.659 4.3864
522.852966 87.641 4.3680
526.641724 87.621 4.3595
530.458008 87.598 4.3669
534.301941 87.571 4.3956
538.173706 87.540 4.4498
542.073547 87.508 4.5345
546.001648 87.474 4.6525
549.958191 87.439 4.8062
553.943420 87.403 5.0013
557.957520 87.366 5.2461
562.000671 87.332 5.5350
566.073181 87.305 5.8673
570.175171 87.283 6.2367
574.306885 87.265 6.6370
578.468567 87.253 7.0665
582.660400 87.249 7.5240
586.882568 87.252 8.0013
591.135376 87.264 8.4920
595.419006 87.285 8.9893
599.733643 87.314 9.4833
604.079590 87.350 9.9763
608.456970 87.391 10.4690
612.866089 87.441 10.9564
617.307190 87.502 11.4383
621.780457 87.573 11.9005
626.286133 87.655 12.3315
630.824463 87.746 12.7228
635.395691 87.845 13.0644
640.000000 87.953 13.3501
644.637695 88.066 13.5716
649.309021 88.185 13.7256
654.014160 88.305 13.8054
658.753418 88.427 13.8131
663.527039 88.547 13.7475
668.335205 88.666 13.6126
673.178284 88.782 13.4097
678.056396 88.894 13.1460
682.969849 88.999 12.8279
687.918945 89.099 12.4594
692.903870 89.193 12.0453
697.924927 89.282 11.5897
702.982422 89.363 11.0958
708.076477 89.436 10.5710
713.207520 89.501 10.0218
718.375732 89.558 9.4541
723.581360 89.608 8.8750
728.824707 89.650 8.2871
734.106079 89.685 7.6926
739.425720 89.713 7.0991
744.783936 89.732 6.5131
750.180908 89.744 5.9410
755.617065 89.750 5.3923
761.092529 89.752 4.8649
766.607727 89.751 4.3603
772.162903 89.747 3.8777
777.758301 89.740 3.4175
783.394287 89.731 2.9765
789.071045 89.723 2.5552
794.789001 89.716 2.1435
800.548340 89.710 1.7312
806.349487 89.703 1.3195
812.192627 89.692 0.9042
818.078125 89.678 0.4905
824.006226 89.662 0.0802
829.977295 89.642 -0.3206
835.991699 89.617 -0.7074
842.049622 89.588 -1.0727
848.151428 89.555 -1.4059
854.297485 89.522 -1.7119
860.488098 89.492 -1.9910
866.723572 89.463 -2.2471
873.004211 89.433 -2.4813
879.330322 89.407 -2.7032
885.702332 89.389 -2.9195
892.120483 89.375 -3.1402
898.585144 89.361 -3.3793
905.096680 89.347 -3.6320
911.655396 89.334 -3.8967
918.261597 89.320 -4.1779
924.915710 89.307 -4.4824
931.618042 89.292 -4.8028
938.368896 89.270 -5.1368
945.168762 89.243 -5.4757
952.017822 89.214 -5.8087
958.916504 89.182 -6.1407
965.865234 89.149 -6.4763
972.864319 89.111 -6.8068
979.914062 89.066 -7.1256
987.014954 89.018 -7.4309
994.167236 88.970 -7.7176
1001.371399 88.920 -7.9881
1008.627747 88.867 -8.2448
1015.936646 88.811 -8.4820
1023.298584 88.753 -8.6928
1030.713867 88.694 -8.8834
1038.182739 88.639 -9.0531
1045.705933 88.586 -9.2163
1053.283447 88.536 -9.3912
1060.916016 88.483 -9.5653
1068.603882 88.422 -9.7326
1076.347412 88.359 -9.8914
1084.147095 88.300 -10.0372
1092.003296 88.239 -10.1726
1099.916382 88.172 -10.3058
1107.886841 88.100 -10.4156
1115.915039 88.020 -10.4795
1124.001343 87.939 -10.5090
1132.146362 87.867 -10.5056
1140.350342 87.797 -10.4771
1148.613770 87.724 -10.4331
1156.937134 87.651 -10.3693
1165.320801 87.583 -10.2797
1173.765137 87.518 -10.1795
1182.270752 87.458 -10.0848
1190.838013 87.398 -9.9874
1199.467285 87.332 -9.8867
1208.159180 87.264 -9.7745
1216.913940 87.198 -9.6432
1225.732178 87.130 -9.4896
1234.614380 87.058 -9.3086
1243.560913 86.986 -9.0988
1252.572266 86.918 -8.8554
1261.648926 86.852 -8.5841
1270.791382 86.788 -8.2903
1280.000000 86.726 -7.9703
1289.275391 86.666 -7.6202
1298.618042 86.610 -7.2466
1308.028320 86.563 -6.8513
1317.506836 86.523 -6.4458
1327.054077 86.488 -6.0403
1336.670410 86.460 -5.6405
1346.356567 86.439 -5.2516
1356.112793 86.424 -4.8853
1365.939697 86.416 -4.5544
1375.837891 86.411 -4.2611
1385.807739 86.406 -4.0126
1395.849854 86.400 -3.8077
1405.964844 86.394 -3.6495
1416.152954 86.384 -3.5334
1426.415039 86.367 -3.4636
1436.751465 86.340 -3.4172
1447.162720 86.298 -3.3791
1457.649414 86.244 -3.3283
1468.212158 86.179 -3.2430
1478.851440 86.104 -3.1096
1489.567871 86.019 -2.9129
1500.361816 85.925 -2.6362
1511.234131 85.824 -2.2564
1522.185059 85.721 -1.7784
1533.215454 85.626 -1.1916
1544.325806 85.538 -0.5191
1555.516602 85.462 0.2248
1566.788574 85.397 1.0235
1578.142090 85.347 1.8617
1589.578003 85.309 2.7204
1601.096680 85.286 3.5767
1612.698975 85.273 4.4275
1624.385254 85.266 5.2581
1636.156250 85.263 6.0794
1648.012451 85.264 6.8944
1659.954590 85.267 7.7130
1671.983398 85.271 8.5444
1684.099243 85.280 9.3934
1696.302856 85.295 10.2728
1708.594971 85.319 11.1680
1720.976196 85.356 12.0742
1733.447144 85.406 12.9741
1746.008423 85.467 13.8534
1758.660645 85.539 14.6986
1771.404663 85.623 15.4956
1784.240967 85.716 16.2331
1797.170288 85.814 16.8935
1810.193359 85.915 17.4818
1823.310791 86.013 17.9925
1836.523193 86.108 18.4393
1849.831421 86.196 18.8287
1863.236084 86.277 19.1775
1876.737793 86.347 19.4972
1890.337524 86.408 19.8106
1904.035645 86.456 20.1387
1917.833008 86.495 20.4985
1931.730469 86.527 20.9110
1945.728638 86.556 21.3858
1959.828125 86.581 21.9406
1974.029907 86.610 22.5722
1988.334473 86.646 23.2904
2002.742798 86.694 24.0727
2017.255493 86.758 24.9066
2031.873291 86.838 25.7715
2046.597168 86.933 26.6482
2061.427734 87.043 27.5212
2076.365479 87.172 28.3741
2091.411865 87.314 29.1907
2106.566895 87.470 29.9493
2121.832031 87.636 30.6492
2137.207764 87.809 31.2813
2152.694824 87.988 31.8499
2168.294189 88.173 32.3578
2184.006592 88.363 32.8001
2199.832764 88.558 33.1726
2215.773682 88.756 33.4759
2231.830078 88.953 33.7073
2248.002686 89.150 33.8724
2264.292725 89.346 33.9753
2280.700684 89.540 34.0179
2297.227539 89.732 33.9999
2313.874268 89.920 33.9324
2330.641602 90.100 33.8227
2347.530273 90.275 33.6827
2364.541504 90.447 33.5268
2381.676025 90.615 33.3548
2398.934570 90.783 33.1688
2416.318359 90.948 32.9759
2433.827881 91.110 32.7846
2451.464355 91.273 32.5928
2469.228760 91.443 32.4074
2487.121826 91.618 32.2099
2505.144531 91.802 31.9876
2523.297852 91.993 31.7303
2541.582764 92.188 31.4273
2560.000000 92.389 31.0677
2578.550781 92.596 30.6399
2597.236084 92.806 30.1355
2616.056641 93.015 29.5404
2635.013672 93.220 28.8611
2654.108154 93.420 28.0955
2673.340820 93.613 27.2548
2692.713135 93.797 26.3448
2712.225586 93.971 25.3786
2731.879395 94.135 24.3690
2751.675781 94.290 23.3239
2771.615479 94.438 22.2554
2791.699707 94.577 21.1639
2811.929688 94.710 20.0536
2832.305908 94.836 18.9243
2852.830078 94.958 17.7784
2873.502930 95.075 16.6131
2894.325439 95.186 15.4268
2915.298828 95.292 14.2186
2936.424316 95.391 12.9867
2957.702881 95.484 11.7315
2979.135742 95.570 10.4511
3000.723633 95.649 9.1507
3022.468262 95.717 7.8322
3044.370117 95.777 6.5042
3066.430908 95.827 5.1741
3088.651611 95.869 3.8450
3111.033203 95.902 2.5205
3133.577148 95.927 1.2062
3156.284180 95.943 -0.0918
3179.156006 95.951 -1.3710
3202.193359 95.953 -2.6269
3225.397949 95.948 -3.8592
3248.770508 95.938 -5.0673
3272.312500 95.921 -6.2468
3296.024902 95.898 -7.3933
3319.909180 95.871 -8.5059
3343.966797 95.841 -9.5812
3368.198486 95.808 -10.6221
3392.605713 95.774 -11.6285
3417.189941 95.739 -12.6065
3441.952393 95.705 -13.5605
3466.894287 95.672 -14.4968
3492.016846 95.639 -15.4212
3517.321289 95.606 -16.3407
3542.809326 95.576 -17.2648
3568.481934 95.543 -18.1927
3594.340576 95.506 -19.1317
3620.386719 95.462 -20.0666
3646.621582 95.411 -20.9870
3673.046387 95.354 -21.8858
3699.662842 95.292 -22.7529
3726.472168 95.226 -23.5862
3753.475586 95.156 -24.3799
3780.675049 95.084 -25.1347
3808.071289 95.012 -25.8475
3835.666016 94.939 -26.5239
3863.460938 94.868 -27.1674
3891.457275 94.797 -27.7811
3919.656250 94.729 -28.3696
3948.059814 94.661 -28.9325
3976.668945 94.595 -29.4713
4005.485596 94.529 -29.9855
4034.510986 94.465 -30.4733
4063.746582 94.402 -30.9398
4093.194336 94.344 -31.3874
4122.855469 94.288 -31.8229
4152.730957 94.236 -32.2545
4182.823730 94.185 -32.6810
4213.133789 94.135 -33.1062
4243.664062 94.083 -33.5231
4274.415527 94.030 -33.9297
4305.389648 93.975 -34.3132
4336.588379 93.916 -34.6635
4368.013184 93.855 -34.9697
4399.665527 93.796 -35.2148
4431.547363 93.741 -35.4062
4463.660156 93.694 -35.5400
4496.005371 93.657 -35.6326
4528.585449 93.635 -35.6900
4561.401367 93.628 -35.7397
4594.455078 93.641 -35.8038
4627.748535 93.669 -35.9054
4661.283203 93.710 -36.0732
4695.060547 93.762 -36.3126
4729.083008 93.819 -36.6397
4763.352051 93.881 -37.0508
4797.869141 93.942 -37.5506
4832.636719 94.002 -38.1309
4867.655762 94.056 -38.7900
4902.928711 94.105 -39.5133
4938.457520 94.146 -40.2890
4974.243652 94.179 -41.1070
5010.289062 94.204 -41.9555
5046.595703 94.222 -42.8286
5083.165527 94.234 -43.7172
5120.000000 94.239 -44.6186
5157.101562 94.239 -45.5272
5194.472168 94.233 -46.4415
5232.113281 94.222 -47.3584
5270.027344 94.207 -48.2764
5308.216309 94.188 -49.1929
5346.681641 94.166 -50.1085
5385.426270 94.140 -51.0220
5424.451172 94.112 -51.9365
5463.758789 94.082 -52.8544
5503.351562 94.050 -53.7765
5543.230957 94.015 -54.7034
5583.399414 93.977 -55.6374
5623.859375 93.937 -56.5803
5664.611816 93.894 -57.5333
5705.660156 93.847 -58.4985
5747.005859 93.796 -59.4749
5788.650879 93.741 -60.4624
5830.597656 93.680 -61.4598
5872.848633 93.614 -62.4682
5915.405762 93.541 -63.4808
5958.271484 93.459 -64.4936
6001.447266 93.368 -65.4998
6044.936523 93.271 -66.4947
6088.740234 93.164 -67.4682
6132.861816 93.045 -68.4133
6177.303223 92.916 -69.3166
6222.066406 92.778 -70.1636
6267.154297 92.633 -70.9492
6312.568359 92.481 -71.6678
6358.312012 92.323 -72.3070
6404.386719 92.157 -72.8552
6450.795898 91.988 -73.3040
6497.541016 91.818 -73.6394
6544.625000 91.652 -73.8661
6592.049805 91.491 -73.9824
6639.818359 91.339 -73.9932
6687.933594 91.197 -73.8964
6736.396973 91.073 -73.7112
6785.211426 90.970 -73.4470
6834.379883 90.891 -73.1317
6883.904785 90.838 -72.7877
6933.788574 90.811 -72.4417
6984.033691 90.812 -72.1180
7034.642578 90.841 -71.8462
7085.618652 90.898 -71.6560
7136.963867 90.980 -71.5721
7188.681152 91.083 -71.6228
7240.773438 91.204 -71.8276
7293.243164 91.343 -72.2109
7346.092773 91.491 -72.7856
7399.325684 91.645 -73.5713
7452.944336 91.800 -74.5714
7506.951172 91.951 -75.7977
7561.350098 92.092 -77.2450
7616.142578 92.219 -78.9179
7671.332031 92.327 -80.7978
7726.921875 92.408 -82.8772
7782.914551 92.461 -85.1270
7839.312500 92.481 -87.5259
7896.119629 92.466 -90.0444
7953.337891 92.414 -92.6569
8010.971191 92.325 -95.3308
8069.021973 92.194 -98.0306
8127.493164 92.025 -100.7387
8186.388672 91.821 -103.4278
8245.710938 91.581 -106.0920
8305.461914 91.305 -108.7247
8365.647461 90.989 -111.3016
8426.267578 90.632 -113.8086
8487.328125 90.234 -116.2077
8548.831055 89.795 -118.4875
8610.779297 89.306 -120.5528
8673.176758 88.755 -122.3473
8736.026367 88.145 -123.7408
8799.331055 87.472 -124.6082
8863.094727 86.750 -124.8753
8927.320312 85.985 -124.4311
8992.010742 85.196 -123.2622
9057.170898 84.387 -121.2872
9122.802734 83.609 -118.6010
9188.910156 82.898 -115.2042
9255.497070 82.298 -111.3012
9322.566406 81.862 -107.0230
9390.121094 81.593 -102.5945
9458.166016 81.519 -98.2186
9526.704102 81.609 -94.0938
9595.738281 81.864 -90.4587
9665.273438 82.221 -87.3945
9735.311523 82.628 -85.0752
9805.857422 83.057 -83.4588
9876.915039 83.468 -82.5935
9948.487305 83.846 -82.3795
10020.578125 84.167 -82.7847
10093.191406 84.422 -83.6523
10166.331055 84.593 -84.8656
10240.000000 84.688 -86.2693
10314.203125 84.702 -87.7025
10388.944336 84.648 -89.0649
10464.226562 84.533 -90.2186
10540.054688 84.369 -91.1176
10616.432617 84.168 -91.6680
10693.363281 83.948 -91.8748
10770.852539 83.725 -91.6937
10848.902344 83.517 -91.1806
10927.517578 83.343 -90.3443
11006.703125 83.218 -89.2842
11086.461914 83.161 -88.0684
11166.798828 83.169 -86.8020
11247.718750 83.250 -85.5883
11329.223633 83.391 -84.5021
11411.320312 83.588 -83.6395
11494.011719 83.826 -83.0394
11577.301758 84.091 -82.7732
11661.195312 84.373 -82.8397
11745.697266 84.658 -83.2663
11830.811523 84.940 -84.0369
11916.542969 85.213 -85.1481
12002.894531 85.471 -86.5871
12089.873047 85.708 -88.3423
12177.480469 85.921 -90.4074
12265.723633 86.104 -92.7773
12354.606445 86.250 -95.4378
12444.132812 86.354 -98.3900
12534.308594 86.405 -101.5821
12625.136719 86.392 -104.9919
12716.624023 86.312 -108.5321
12808.773438 86.156 -112.1410
12901.591797 85.924 -115.7189
12995.082031 85.608 -119.1752
13089.250000 85.215 -122.4204
13184.099609 84.745 -125.3556
13279.636719 84.205 -127.9189
13375.867188 83.597 -130.0251
13472.793945 82.935 -131.6453
13570.422852 82.228 -132.7225
13668.759766 81.490 -133.2555
13767.809570 80.734 -133.2256
13867.577148 79.967 -132.6281
13968.067383 79.199 -131.4504
14069.285156 78.443 -129.6986
14171.237305 77.713 -127.3548
14273.927734 77.027 -124.4786
14377.362305 76.407 -121.0876
14481.546875 75.868 -117.2915
14586.486328 75.431 -113.1712
14692.185547 75.106 -108.8317
14798.651367 74.906 -104.3663
14905.888672 74.833 -99.8948
15013.902344 74.901 -95.5257
15122.700195 75.091 -91.3866
15232.285156 75.395 -87.6210
15342.664062 75.786 -84.2898
15453.843750 76.243 -81.4959
15565.829102 76.742 -79.2556
15678.625000 77.260 -77.6248
15792.239258 77.779 -76.5830
15906.675781 78.277 -76.1503
16021.942383 78.743 -76.2600
16138.043945 79.160 -76.8798
16254.986328 79.527 -77.9248
16372.777344 79.837 -79.3279
16491.421875 80.091 -81.0031
16610.923828 80.284 -82.8624
16731.294922 80.421 -84.8443
16852.535156 80.506 -86.8710
16974.656250 80.541 -88.9028
17097.662109 80.526 -90.8850
17221.558594 80.467 -92.7838
17346.353516 80.370 -94.5616
17472.052734 80.233 -96.1758
17598.662109 80.054 -97.5845
17726.189453 79.845 -98.7480
17854.640625 79.611 -99.6055
17984.021484 79.368 -100.1786
18114.341797 79.132 -100.4488
18245.605469 78.912 -100.4784
18377.820312 78.720 -100.2980
18510.994141 78.563 -99.9861
18645.132812 78.452 -99.6074
18780.242188 78.381 -99.2349
18916.332031 78.352 -98.9568
19053.408203 78.347 -98.7915
19191.476562 78.355 -98.7948
19330.546875 78.367 -98.9418
19470.623047 78.374 -99.2395
19611.714844 78.370 -99.6464
19753.830078 78.346 -100.1365
19896.974609 78.306 -100.6697
