* Measurement data measured by REW V5.20.13
* Source: C:\Users\kurin\Desktop\Targets and Curves\Resolve\Img\Files\Focal_Utopia_2022_SPL.txt
* Format: Comma/Tab/Space delimited data
* Dated: Aug 14, 2023 3:58:08 PM
* REW Settings:
*  C-weighting compensation: Off
*  Target level: 75.0 dB
* Note: ; Measurement imported from C:\Users\kurin\Desktop\Targets and Curves\Resolve\Img\Files\Focal_Utopia_2022_SPL.txt Format: Comma/Tab/Space delimited data 623 values loaded, 5 Hz to 39,792 Hz log spaced 
* Measurement: Focal_Utopia_2022_SPL
* Smoothing: 1/48 octave
* Frequency Step: 1/96 octave
* Start Frequency: 5.000 Hz
*
* Freq(Hz) SPL(dB) Phase(degrees)
5.000000 80.181 40.9790
5.036232 80.194 40.9697
5.072727 80.209 40.9600
5.109486 80.226 40.9492
5.146511 80.245 40.9370
5.183805 80.268 40.9225
5.221369 80.294 40.9070
5.259205 80.320 40.8917
5.297316 80.348 40.8760
5.335702 80.378 40.8596
5.374367 80.408 40.8430
5.413311 80.438 40.8265
5.452538 80.468 40.8100
5.492050 80.498 40.7935
5.531847 80.528 40.7770
5.571934 80.558 40.7605
5.612310 80.588 40.7440
5.652979 80.618 40.7276
5.693943 80.648 40.7110
5.735204 80.678 40.6941
5.776763 80.707 40.6770
5.818624 80.737 40.6596
5.860788 80.767 40.6420
5.903258 80.797 40.6245
5.946035 80.827 40.6070
5.989123 80.857 40.5896
6.032523 80.887 40.5720
6.076237 80.917 40.5541
6.120268 80.947 40.5360
6.164618 80.977 40.5181
6.209289 81.007 40.5000
6.254284 81.037 40.4816
6.299605 81.067 40.4630
6.345255 81.097 40.4446
6.391235 81.127 40.4260
6.437549 81.157 40.4071
6.484198 81.187 40.3880
6.531185 81.217 40.3691
6.578513 81.247 40.3500
6.626183 81.276 40.3306
6.674199 81.306 40.3110
6.722563 81.336 40.2916
6.771278 81.366 40.2720
6.820345 81.396 40.2521
6.869768 81.426 40.2320
6.919549 81.456 40.2116
6.969691 81.486 40.1910
7.020196 81.516 40.1706
7.071068 81.546 40.1500
7.122308 81.576 40.1291
7.173919 81.606 40.1080
7.225904 81.636 40.0871
7.278266 81.666 40.0660
7.331007 81.696 40.0446
7.384131 81.726 40.0230
7.437639 81.756 40.0016
7.491535 81.786 39.9800
7.545822 81.815 39.9581
7.600502 81.845 39.9360
7.655579 81.875 39.9136
7.711054 81.905 39.8910
7.766932 81.935 39.8686
7.823214 81.965 39.8460
7.879904 81.995 39.8231
7.937005 82.025 39.8000
7.994520 82.055 39.7766
8.052452 82.085 39.7530
8.110803 82.115 39.7291
8.169578 82.145 39.7050
8.228777 82.175 39.6811
8.288406 82.205 39.6570
8.348468 82.235 39.6326
8.408964 82.265 39.6080
8.469899 82.295 39.5836
8.531276 82.325 39.5590
8.593097 82.354 39.5336
8.655366 82.384 39.5080
8.718086 82.414 39.4826
8.781260 82.444 39.4570
8.844893 82.474 39.4311
8.908987 82.504 39.4050
8.973545 82.534 39.3791
9.038571 82.564 39.3530
9.104069 82.594 39.3261
9.170040 82.624 39.2990
9.236490 82.654 39.2721
9.303422 82.684 39.2450
9.370838 82.714 39.2176
9.438744 82.744 39.1900
9.507140 82.774 39.1621
9.576033 82.804 39.1340
9.645425 82.834 39.1056
9.715320 82.864 39.0770
9.785721 82.893 39.0486
9.856632 82.923 39.0200
9.928058 82.953 38.9906
10.000000 82.983 38.9610
10.072464 83.013 38.9316
10.145453 83.043 38.9020
10.218971 83.073 38.8722
10.293022 83.103 38.8420
10.367610 83.133 38.8111
10.442738 83.163 38.7800
10.518411 83.193 38.7491
10.594631 83.223 38.7180
10.671404 83.253 38.6866
10.748734 83.283 38.6550
10.826623 83.313 38.6231
10.905077 83.343 38.5910
10.984100 83.373 38.5587
11.063695 83.403 38.5260
11.143867 83.433 38.4926
11.224621 83.463 38.4590
11.305959 83.492 38.4256
11.387886 83.522 38.3920
11.470407 83.552 38.3582
11.553527 83.582 38.3240
11.637249 83.612 38.2891
11.721577 83.642 38.2540
11.806517 83.672 38.2192
11.892071 83.702 38.1840
11.978246 83.732 38.1482
12.065045 83.762 38.1120
12.152473 83.792 38.0756
12.240536 83.822 38.0390
12.329235 83.852 38.0021
12.418578 83.882 37.9650
12.508568 83.912 37.9277
12.599211 83.942 37.8900
12.690510 83.972 37.8517
12.782471 84.002 37.8130
12.875097 84.031 37.7742
12.968395 84.061 37.7350
13.062370 84.091 37.6956
13.157025 84.121 37.6560
13.252366 84.151 37.6162
13.348398 84.181 37.5760
13.445127 84.211 37.5352
13.542556 84.241 37.4940
13.640691 84.271 37.4527
13.739536 84.301 37.4110
13.839099 84.331 37.3687
13.939383 84.361 37.3260
14.040393 84.391 37.2832
14.142136 84.421 37.2400
14.244616 84.451 37.1967
14.347837 84.481 37.1530
14.451808 84.511 37.1088
14.556532 84.541 37.0640
14.662014 84.570 37.0188
14.768262 84.600 36.9731
14.875278 84.630 36.9267
14.983070 84.660 36.8801
15.091644 84.690 36.8332
15.201005 84.720 36.7860
15.311157 84.750 36.7383
15.422109 84.780 36.6900
15.533863 84.810 36.6412
15.646428 84.840 36.5920
15.759809 84.870 36.5428
15.874010 84.900 36.4930
15.989040 84.930 36.4423
16.104904 84.960 36.3910
16.221605 84.990 36.3393
16.339155 85.020 36.2871
16.457554 85.050 36.2343
16.576813 85.080 36.1810
16.696936 85.109 36.1273
16.817928 85.139 36.0730
16.939798 85.169 36.0184
17.062551 85.199 35.9631
17.186193 85.229 35.9064
17.310732 85.259 35.8490
17.436172 85.289 35.7913
17.562521 85.319 35.7330
17.689787 85.349 35.6739
17.817974 85.379 35.6141
17.947090 85.409 35.5536
18.077143 85.439 35.4920
18.208138 85.469 35.4291
18.340080 85.499 35.3651
18.472980 85.529 35.3002
18.606844 85.559 35.2340
18.741676 85.589 35.1661
18.877487 85.619 35.0961
19.014280 85.649 35.0235
19.152065 85.679 34.9481
19.290850 85.708 34.8693
19.430639 85.737 34.7881
19.571442 85.765 34.7049
19.713264 85.792 34.6211
19.856115 85.818 34.5368
20.000000 85.843 34.4561
20.144928 85.866 34.3832
20.290907 85.889 34.3171
20.437943 85.913 34.2592
20.586044 85.938 34.2060
20.735220 85.963 34.1529
20.885475 85.988 34.1050
21.036821 86.011 34.0677
21.189262 86.036 34.0370
21.342808 86.064 34.0133
21.497467 86.095 33.9900
21.653246 86.127 33.9607
21.810154 86.160 33.9260
21.968201 86.195 33.8861
22.127390 86.231 33.8361
22.287735 86.269 33.7706
22.449242 86.307 33.6921
22.611917 86.342 33.5997
22.775772 86.376 33.4971
22.940815 86.410 33.3868
23.107054 86.442 33.2712
23.274498 86.471 33.1505
23.443153 86.497 33.0332
23.613033 86.520 32.9286
23.784142 86.542 32.8341
23.956491 86.567 32.7514
24.130091 86.593 32.6761
24.304947 86.619 32.6041
24.481071 86.645 32.5351
24.658470 86.673 32.4693
24.837156 86.703 32.4011
25.017136 86.735 32.3240
25.198421 86.767 32.2401
25.381020 86.797 32.1486
25.564941 86.827 32.0521
25.750195 86.858 31.9534
25.936790 86.888 31.8511
26.124741 86.917 31.7438
26.314051 86.945 31.6352
26.504732 86.972 31.5286
26.696796 86.999 31.4231
26.890253 87.027 31.3192
27.085112 87.055 31.2151
27.281382 87.083 31.1088
27.479073 87.110 31.0011
27.678198 87.137 30.8934
27.878765 87.165 30.7822
28.080786 87.194 30.6639
28.284271 87.223 30.5402
28.489231 87.250 30.4104
28.695675 87.275 30.2782
28.903616 87.299 30.1475
29.113064 87.323 30.0172
29.324028 87.347 29.8874
29.536524 87.370 29.7581
29.750557 87.392 29.6290
29.966141 87.413 29.5011
30.183289 87.434 29.3764
30.402010 87.455 29.2532
30.622314 87.475 29.1296
30.844217 87.495 29.0081
31.067726 87.513 28.8903
31.292856 87.531 28.7772
31.519617 87.548 28.6705
31.748020 87.566 28.5691
31.978081 87.584 28.4727
32.209808 87.603 28.3811
32.443211 87.621 28.2949
32.678310 87.640 28.2121
32.915108 87.660 28.1321
33.153625 87.682 28.0521
33.393871 87.705 27.9691
33.635857 87.728 27.8831
33.879597 87.751 27.7930
34.125103 87.774 27.6991
34.372387 87.798 27.6014
34.621464 87.822 27.5002
34.872345 87.845 27.3955
35.125042 87.867 27.2881
35.379574 87.890 27.1788
35.635948 87.912 27.0671
35.894180 87.933 26.9523
36.154285 87.954 26.8372
36.416275 87.973 26.7241
36.680161 87.991 26.6142
36.945961 88.009 26.5098
37.213688 88.028 26.4091
37.483353 88.046 26.3108
37.754974 88.065 26.2161
38.028561 88.083 26.1267
38.304131 88.102 26.0401
38.581699 88.123 25.9552
38.861279 88.144 25.8701
39.142883 88.166 25.7819
39.426529 88.188 25.6921
39.712231 88.210 25.6016
40.000000 88.233 25.5101
40.289856 88.256 25.4178
40.581814 88.280 25.3241
40.875885 88.304 25.2303
41.172089 88.329 25.1322
41.470440 88.357 25.0274
41.770950 88.386 24.9112
42.073643 88.415 24.7770
42.378525 88.443 24.6282
42.685616 88.469 24.4652
42.994934 88.494 24.2913
43.306492 88.516 24.1084
43.620308 88.536 23.9213
43.936401 88.551 23.7324
44.254780 88.563 23.5503
44.575470 88.571 23.3838
44.898483 88.578 23.2342
45.223835 88.584 23.1083
45.551544 88.592 22.9981
45.881630 88.604 22.9011
46.214108 88.618 22.8081
46.548996 88.635 22.7095
46.886307 88.653 22.6052
47.226067 88.670 22.4918
47.568283 88.688 22.3702
47.912983 88.706 22.2397
48.260181 88.723 22.1022
48.609894 88.737 21.9568
48.962143 88.749 21.8122
49.316940 88.757 21.6768
49.674313 88.764 21.5512
50.034271 88.772 21.4408
50.396843 88.781 21.3401
50.762039 88.791 21.2456
51.129883 88.801 21.1571
51.500389 88.811 21.0744
51.873581 88.823 20.9941
52.249481 88.837 20.9140
52.628101 88.853 20.8311
53.009464 88.869 20.7403
53.393593 88.885 20.6462
53.780506 88.899 20.5518
54.170223 88.913 20.4572
54.562763 88.929 20.3640
54.958145 88.945 20.2692
55.356396 88.961 20.1682
55.757530 88.977 20.0662
56.161572 88.991 19.9670
56.568542 89.005 19.8692
56.978462 89.022 19.7737
57.391350 89.039 19.6762
57.807232 89.056 19.5716
58.226128 89.074 19.4622
58.648056 89.091 19.3497
59.073048 89.109 19.2312
59.501114 89.128 19.1041
59.932281 89.146 18.9692
60.366577 89.162 18.8248
60.804020 89.176 18.6763
61.244629 89.188 18.5284
61.688435 89.199 18.3822
62.135452 89.208 18.2393
62.585712 89.216 18.1032
63.039234 89.222 17.9786
63.496040 89.227 17.8642
63.956161 89.234 17.7617
64.419617 89.242 17.6662
64.886421 89.252 17.5729
65.356621 89.262 17.4822
65.830215 89.272 17.3937
66.307251 89.284 17.3042
66.787743 89.299 17.2110
67.271713 89.314 17.1122
67.759193 89.329 17.0035
68.250206 89.343 16.8892
68.744774 89.356 16.7724
69.242928 89.369 16.6532
69.744690 89.382 16.5339
70.250084 89.396 16.4112
70.759148 89.409 16.2821
71.271896 89.422 16.1483
71.788361 89.434 16.0098
72.308571 89.445 15.8683
72.832550 89.455 15.7257
73.360321 89.464 15.5813
73.891922 89.473 15.4341
74.427376 89.480 15.2863
74.966705 89.486 15.1387
75.509949 89.490 14.9943
76.057121 89.493 14.8561
76.608261 89.494 14.7243
77.163399 89.495 14.5999
77.722557 89.495 14.4832
78.285767 89.495 14.3747
78.853058 89.495 14.2742
79.424461 89.495 14.1822
80.000000 89.495 14.0982
80.579712 89.496 14.0215
81.163628 89.498 13.9521
81.751770 89.500 13.8907
82.344177 89.503 13.8341
82.940880 89.508 13.7807
83.541901 89.515 13.7271
84.147285 89.524 13.6692
84.757050 89.533 13.6081
85.371231 89.541 13.5437
85.989868 89.550 13.4761
86.612984 89.560 13.4054
87.240616 89.570 13.3321
87.872803 89.580 13.2563
88.509560 89.589 13.1802
89.150940 89.598 13.1068
89.796967 89.607 13.0342
90.447670 89.617 12.9609
91.103088 89.628 12.8872
91.763260 89.639 12.8133
92.428215 89.650 12.7372
93.097992 89.664 12.6575
93.772614 89.678 12.5712
94.452133 89.692 12.4727
95.136566 89.706 12.3672
95.825966 89.718 12.2581
96.520363 89.729 12.1462
97.219788 89.740 12.0340
97.924286 89.750 11.9212
98.633881 89.759 11.8085
99.348625 89.768 11.6962
100.068542 89.777 11.5857
100.793686 89.787 11.4743
101.524078 89.797 11.3596
102.259766 89.807 11.2423
103.000778 89.816 11.1222
103.747162 89.825 10.9992
104.498962 89.834 10.8729
105.256203 89.843 10.7442
106.018929 89.850 10.6127
106.787186 89.855 10.4822
107.561012 89.859 10.3563
108.340446 89.862 10.2362
109.125526 89.866 10.1254
109.916290 89.870 10.0202
110.712791 89.875 9.9193
111.515060 89.882 9.8182
112.323143 89.891 9.7118
113.137085 89.900 9.6002
113.956924 89.908 9.4822
114.782700 89.917 9.3573
115.614464 89.926 9.2243
116.452255 89.935 9.0843
117.296112 89.942 8.9365
118.146095 89.947 8.7853
119.002228 89.950 8.6346
119.864563 89.952 8.4854
120.733154 89.953 8.3406
121.608040 89.954 8.1993
122.489258 89.954 8.0618
123.376869 89.954 7.9273
124.270905 89.954 7.7953
125.171425 89.954 7.6652
126.078468 89.954 7.5366
126.992081 89.954 7.4083
127.912323 89.954 7.2793
128.839233 89.954 7.1493
129.772842 89.954 7.0173
130.713242 89.954 6.8833
131.660431 89.953 6.7469
132.614502 89.951 6.6084
133.575485 89.949 6.4668
134.543427 89.945 6.3253
135.518387 89.939 6.1857
136.500412 89.932 6.0513
137.489548 89.923 5.9262
138.485855 89.914 5.8093
139.489380 89.905 5.7007
140.500168 89.897 5.6002
141.518295 89.888 5.5085
142.543793 89.880 5.4232
143.576721 89.874 5.3437
144.617142 89.869 5.2652
145.665100 89.866 5.1831
146.720642 89.864 5.0963
147.783844 89.862 5.0015
148.854752 89.860 4.8993
149.933411 89.858 4.7883
151.019897 89.855 4.6713
152.114243 89.850 4.5493
153.216522 89.843 4.4263
154.326797 89.834 4.3070
155.445114 89.823 4.1913
156.571533 89.813 4.0800
157.706116 89.801 3.9752
158.848923 89.787 3.8783
160.000000 89.771 3.7922
161.159424 89.756 3.7221
162.327255 89.741 3.6621
163.503540 89.729 3.6089
164.688354 89.718 3.5601
165.881760 89.707 3.5124
167.083801 89.696 3.4661
168.294571 89.687 3.4208
169.514099 89.679 3.3751
170.742462 89.671 3.3266
171.979736 89.662 3.2781
173.225967 89.652 3.2318
174.481232 89.642 3.1871
175.745605 89.633 3.1442
177.019119 89.624 3.1031
178.301880 89.615 3.0640
179.593933 89.605 3.0271
180.895340 89.596 2.9928
182.206177 89.587 2.9601
183.526520 89.579 2.9271
184.856430 89.570 2.8961
186.195984 89.560 2.8683
187.545227 89.550 2.8441
188.904266 89.541 2.8239
190.273132 89.533 2.8080
191.651932 89.524 2.7973
193.040726 89.515 2.7910
194.439575 89.508 2.7905
195.848572 89.503 2.7910
197.267761 89.500 2.7889
198.697250 89.498 2.7820
200.137085 89.496 2.7668
201.587372 89.495 2.7441
203.048157 89.494 2.7133
204.519531 89.493 2.6751
206.001556 89.491 2.6284
207.494324 89.488 2.5771
208.997925 89.483 2.5234
210.512405 89.476 2.4711
212.037857 89.467 2.4249
213.574371 89.458 2.3841
215.122025 89.450 2.3498
216.680893 89.441 2.3211
218.251053 89.432 2.2975
219.832581 89.423 2.2781
221.425583 89.416 2.2630
223.030121 89.409 2.2480
224.646286 89.404 2.2285
226.274170 89.399 2.2061
227.913849 89.392 2.1795
229.565399 89.384 2.1531
231.228928 89.376 2.1307
232.904510 89.367 2.1121
234.592224 89.358 2.0980
236.292191 89.349 2.0890
238.004456 89.340 2.0866
239.729126 89.332 2.0890
241.466309 89.325 2.0969
243.216080 89.319 2.1050
244.978516 89.316 2.1089
246.753738 89.314 2.1070
248.541809 89.312 2.0960
250.342850 89.310 2.0771
252.156937 89.308 2.0493
253.984161 89.305 2.0151
255.824646 89.299 1.9752
257.678467 89.292 1.9341
259.545685 89.284 1.8972
261.426483 89.275 1.8631
263.320862 89.265 1.8324
265.229004 89.255 1.8051
267.150970 89.244 1.7807
269.086853 89.233 1.7610
271.036774 89.221 1.7483
273.000824 89.208 1.7410
274.979095 89.196 1.7389
276.971710 89.185 1.7400
278.978760 89.174 1.7420
281.000336 89.163 1.7460
283.036591 89.151 1.7515
285.087585 89.139 1.7610
287.153442 89.126 1.7769
289.234283 89.113 1.7979
291.330200 89.101 1.8240
293.441284 89.090 1.8529
295.567688 89.079 1.8821
297.709503 89.068 1.9129
299.866821 89.058 1.9455
302.039795 89.047 1.9809
304.228485 89.035 2.0201
306.433044 89.023 2.0639
308.653595 89.012 2.1139
310.890228 89.002 2.1688
313.143066 88.992 2.2282
315.412231 88.982 2.2918
317.697845 88.973 2.3594
320.000000 88.965 2.4308
322.318848 88.958 2.5073
324.654510 88.952 2.5848
327.007080 88.949 2.6598
329.376709 88.947 2.7308
331.763519 88.946 2.7951
334.167603 88.945 2.8528
336.589142 88.945 2.9034
339.028198 88.945 2.9469
341.484924 88.944 2.9831
343.959473 88.943 3.0129
346.451935 88.942 3.0363
348.962463 88.939 3.0559
351.491211 88.934 3.0737
354.038239 88.928 3.0929
356.603760 88.920 3.1177
359.187866 88.912 3.1479
361.790680 88.903 3.1853
364.412354 88.894 3.2289
367.053040 88.885 3.2787
369.712860 88.876 3.3338
372.391968 88.868 3.3947
375.090454 88.861 3.4578
377.808533 88.855 3.5193
380.546265 88.850 3.5798
383.303864 88.843 3.6373
386.081451 88.836 3.6958
388.879150 88.828 3.7589
391.697144 88.819 3.8268
394.535522 88.810 3.9008
397.394501 88.801 3.9818
400.274170 88.792 4.0710
403.174744 88.784 4.1677
406.096313 88.777 4.2729
409.039062 88.771 4.3827
412.003113 88.767 4.4938
414.988647 88.764 4.6046
417.995850 88.763 4.7124
421.024811 88.762 4.8177
424.075714 88.761 4.9200
427.148743 88.761 5.0197
430.244049 88.761 5.1166
433.361786 88.761 5.2117
436.502106 88.761 5.3056
439.665161 88.761 5.3987
442.851166 88.761 5.4918
446.060242 88.761 5.5847
449.292572 88.761 5.6775
452.548340 88.761 5.7707
455.827698 88.761 5.8648
459.130798 88.761 5.9597
462.457855 88.761 6.0557
465.809021 88.761 6.1527
469.184448 88.761 6.2504
472.584381 88.761 6.3497
476.008911 88.761 6.4516
479.458252 88.761 6.5557
482.932617 88.761 6.6616
486.432159 88.761 6.7706
489.957031 88.761 6.8840
493.507477 88.761 7.0016
497.083618 88.762 7.1243
500.685699 88.764 7.2516
504.313873 88.766 7.3842
507.968323 88.769 7.5196
511.649292 88.774 7.6562
515.356934 88.781 7.7906
519.091370 88.790 7.9184
522.852966 88.799 8.0406
526.641724 88.807 8.1564
530.458008 88.816 8.2666
534.301941 88.825 8.3715
538.173706 88.834 8.4727
542.073547 88.841 8.5705
546.001648 88.847 8.6697
549.958191 88.851 8.7745
553.943420 88.855 8.8856
557.957520 88.860 9.0059
562.000671 88.865 9.1326
566.073181 88.871 9.2647
570.175171 88.879 9.3996
574.306885 88.888 9.5342
578.468567 88.899 9.6685
582.660400 88.909 9.8022
586.882568 88.921 9.9326
591.135376 88.935 10.0573
595.419006 88.950 10.1756
599.733643 88.964 10.2844
604.079590 88.977 10.3886
608.456970 88.988 10.4916
612.866089 88.998 10.5947
617.307190 89.009 10.6996
621.780457 89.019 10.8076
626.286133 89.028 10.9196
630.824463 89.036 11.0376
635.395691 89.045 11.1651
640.000000 89.054 11.2995
644.637695 89.065 11.4397
649.309021 89.076 11.5845
654.014160 89.088 11.7329
658.753418 89.101 11.8835
663.527039 89.116 12.0352
668.335205 89.132 12.1865
673.178284 89.148 12.3336
678.056396 89.164 12.4815
682.969849 89.179 12.6339
687.918945 89.195 12.7914
692.903870 89.212 12.9573
697.924927 89.231 13.1274
702.982422 89.252 13.2980
708.076477 89.274 13.4704
713.207520 89.296 13.6452
718.375732 89.320 13.8214
723.581360 89.347 13.9996
728.824707 89.376 14.1744
734.106079 89.409 14.3405
739.425720 89.443 14.4985
744.783936 89.477 14.6466
750.180908 89.512 14.7855
755.617065 89.549 14.9160
761.092529 89.587 15.0366
766.607727 89.625 15.1454
772.162903 89.664 15.2447
777.758301 89.701 15.3359
783.394287 89.739 15.4197
789.071045 89.777 15.4967
794.789001 89.816 15.5678
800.548340 89.853 15.6338
806.349487 89.891 15.6948
812.192627 89.930 15.7518
818.078125 89.969 15.8028
824.006226 90.008 15.8461
829.977295 90.048 15.8819
835.991699 90.087 15.9091
842.049622 90.126 15.9299
848.151428 90.164 15.9472
854.297485 90.203 15.9580
860.488098 90.243 15.9606
866.723572 90.282 15.9540
873.004211 90.320 15.9345
879.330322 90.356 15.9091
885.702332 90.389 15.8840
892.120483 90.420 15.8591
898.585144 90.452 15.8358
905.096680 90.483 15.8151
911.655396 90.512 15.7956
918.261597 90.539 15.7850
924.915710 90.564 15.7917
931.618042 90.589 15.8119
938.368896 90.618 15.8472
945.168762 90.650 15.8898
952.017822 90.684 15.9336
958.916504 90.720 15.9758
965.865234 90.759 16.0135
972.864319 90.801 16.0419
979.914062 90.844 16.0530
987.014954 90.887 16.0540
994.167236 90.927 16.0485
1001.371399 90.967 16.0390
1008.627747 91.008 16.0300
1015.936646 91.049 16.0200
1023.298584 91.090 16.0068
1030.713867 91.131 15.9970
1038.182739 91.171 16.0000
1045.705933 91.213 16.0060
1053.283447 91.263 16.0105
1060.916016 91.316 16.0060
1068.603882 91.369 15.9816
1076.347412 91.424 15.9432
1084.147095 91.479 15.8951
1092.003296 91.536 15.8312
1099.916382 91.597 15.7453
1107.886841 91.658 15.6415
1115.915039 91.714 15.5207
1124.001343 91.771 15.3865
1132.146362 91.830 15.2456
1140.350342 91.891 15.0896
1148.613770 91.953 14.9127
1156.937134 92.016 14.7139
1165.320801 92.078 14.4917
1173.765137 92.141 14.2422
1182.270752 92.204 13.9611
1190.838013 92.267 13.6474
1199.467285 92.326 13.2961
1208.159180 92.381 12.9146
1216.913940 92.431 12.5061
1225.732178 92.475 12.0776
1234.614380 92.512 11.6343
1243.560913 92.543 11.1847
1252.572266 92.566 10.7374
1261.648926 92.584 10.2968
1270.791382 92.597 9.8692
1280.000000 92.605 9.4576
1289.275391 92.609 9.0669
1298.618042 92.610 8.6965
1308.028320 92.610 8.3472
1317.506836 92.608 8.0204
1327.054077 92.602 7.7167
1336.670410 92.595 7.4390
1346.356567 92.588 7.1911
1356.112793 92.582 6.9708
1365.939697 92.578 6.7800
1375.837891 92.577 6.6107
1385.807739 92.582 6.4595
1395.849854 92.592 6.3136
1405.964844 92.609 6.1627
1416.152954 92.632 5.9947
1426.415039 92.660 5.7957
1436.751465 92.692 5.5600
1447.162720 92.725 5.2766
1457.649414 92.758 4.9474
1468.212158 92.787 4.5668
1478.851440 92.810 4.1467
1489.567871 92.824 3.6926
1500.361816 92.830 3.2188
1511.234131 92.827 2.7391
1522.185059 92.815 2.2611
1533.215454 92.795 1.7961
1544.325806 92.768 1.3479
1555.516602 92.735 0.9242
1566.788574 92.696 0.5256
1578.142090 92.653 0.1551
1589.578003 92.605 -0.1866
1601.096680 92.553 -0.4992
1612.698975 92.497 -0.7779
1624.385254 92.436 -1.0200
1636.156250 92.370 -1.2192
1648.012451 92.301 -1.3702
1659.954590 92.228 -1.4677
1671.983398 92.153 -1.5059
1684.099243 92.077 -1.4812
1696.302856 92.002 -1.3866
1708.594971 91.929 -1.2279
1720.976196 91.863 -1.0042
1733.447144 91.803 -0.7283
1746.008423 91.753 -0.4091
1758.660645 91.712 -0.0575
1771.404663 91.680 0.3159
1784.240967 91.657 0.7014
1797.170288 91.644 1.0882
1810.193359 91.639 1.4685
1823.310791 91.641 1.8292
1836.523193 91.646 2.1757
1849.831421 91.651 2.5061
1863.236084 91.658 2.8296
1876.737793 91.665 3.1514
1890.337524 91.673 3.4805
1904.035645 91.679 3.8243
1917.833008 91.686 4.1925
1931.730469 91.694 4.6001
1945.728638 91.708 5.0381
1959.828125 91.731 5.5061
1974.029907 91.764 5.9919
1988.334473 91.805 6.4861
2002.742798 91.857 6.9790
2017.255493 91.919 7.4618
2031.873291 91.991 7.9232
2046.597168 92.072 8.3495
2061.427734 92.160 8.7394
2076.365479 92.251 9.0843
2091.411865 92.346 9.3918
2106.566895 92.442 9.6654
2121.832031 92.541 9.9090
2137.207764 92.640 10.1269
2152.694824 92.741 10.3213
2168.294189 92.843 10.4941
2184.006592 92.947 10.6503
2199.832764 93.050 10.7950
2215.773682 93.157 10.9305
2231.830078 93.266 11.0620
2248.002686 93.380 11.1855
2264.292725 93.499 11.3002
2280.700684 93.624 11.4016
2297.227539 93.756 11.4889
2313.874268 93.896 11.5498
2330.641602 94.048 11.5767
2347.530273 94.207 11.5552
2364.541504 94.374 11.4700
2381.676025 94.546 11.3169
2398.934570 94.722 11.0867
2416.318359 94.900 10.7786
2433.827881 95.079 10.3864
2451.464355 95.256 9.9161
2469.228760 95.428 9.3696
2487.121826 95.596 8.7538
2505.144531 95.761 8.0760
2523.297852 95.921 7.3365
2541.582764 96.077 6.5359
2560.000000 96.226 5.6799
2578.550781 96.368 4.7730
2597.236084 96.503 3.8195
2616.056641 96.632 2.8237
2635.013672 96.753 1.7895
2654.108154 96.865 0.7204
2673.340820 96.971 -0.3781
2692.713135 97.068 -1.5000
2712.225586 97.159 -2.6446
2731.879395 97.243 -3.8097
2751.675781 97.320 -4.9935
2771.615479 97.388 -6.1952
2791.699707 97.448 -7.4086
2811.929688 97.499 -8.6278
2832.305908 97.543 -9.8503
2852.830078 97.580 -11.0734
2873.502930 97.610 -12.2907
2894.325439 97.630 -13.4967
2915.298828 97.644 -14.6866
2936.424316 97.652 -15.8528
2957.702881 97.657 -16.9990
2979.135742 97.660 -18.1243
3000.723633 97.661 -19.2362
3022.468262 97.661 -20.3393
3044.370117 97.661 -21.4409
3066.430908 97.660 -22.5481
3088.651611 97.658 -23.6669
3111.033203 97.655 -24.8046
3133.577148 97.649 -25.9644
3156.284180 97.639 -27.1531
3179.156006 97.624 -28.3672
3202.193359 97.600 -29.6069
3225.397949 97.568 -30.8680
3248.770508 97.527 -32.1489
3272.312500 97.475 -33.4412
3296.024902 97.409 -34.7416
3319.909180 97.328 -36.0321
3343.966797 97.231 -37.3026
3368.198486 97.116 -38.5253
3392.605713 96.980 -39.6813
3417.189941 96.827 -40.7344
3441.952393 96.654 -41.6512
3466.894287 96.469 -42.4050
3492.016846 96.272 -42.9587
3517.321289 96.074 -43.3109
3542.809326 95.882 -43.4345
3568.481934 95.709 -43.3697
3594.340576 95.567 -43.1226
3620.386719 95.462 -42.7688
3646.621582 95.408 -42.3614
3673.046387 95.398 -41.9747
3699.662842 95.434 -41.6872
3726.472168 95.505 -41.5403
3753.475586 95.601 -41.6015
3780.675049 95.711 -41.8693
3808.071289 95.822 -42.3769
3835.666016 95.927 -43.0872
3863.460938 96.012 -43.9905
3891.457275 96.079 -45.0367
3919.656250 96.120 -46.1818
3948.059814 96.139 -47.3973
3976.668945 96.139 -48.6433
4005.485596 96.120 -49.9098
4034.510986 96.085 -51.1749
4063.746582 96.035 -52.4350
4093.194336 95.973 -53.6797
4122.855469 95.898 -54.9080
4152.730957 95.812 -56.1219
4182.823730 95.711 -57.3025
4213.133789 95.590 -58.4387
4243.664062 95.456 -59.5091
4274.415527 95.308 -60.4896
4305.389648 95.151 -61.3759
4336.588379 94.986 -62.1557
4368.013184 94.816 -62.8291
4399.665527 94.643 -63.3891
4431.547363 94.473 -63.8450
4463.660156 94.310 -64.1975
4496.005371 94.155 -64.4649
4528.585449 94.011 -64.6613
4561.401367 93.879 -64.7995
4594.455078 93.757 -64.8932
4627.748535 93.648 -64.9538
4661.283203 93.551 -64.9931
4695.060547 93.467 -65.0229
4729.083008 93.395 -65.0548
4763.352051 93.334 -65.1007
4797.869141 93.285 -65.1726
4832.636719 93.245 -65.2813
4867.655762 93.215 -65.4419
4902.928711 93.189 -65.6548
4938.457520 93.165 -65.9293
4974.243652 93.141 -66.2543
5010.289062 93.114 -66.6300
5046.595703 93.080 -67.0319
5083.165527 93.036 -67.4434
5120.000000 92.984 -67.8411
5157.101562 92.927 -68.1994
5194.472168 92.868 -68.5086
5232.113281 92.809 -68.7478
5270.027344 92.756 -68.9253
5308.216309 92.717 -69.0292
5346.681641 92.697 -69.0987
5385.426270 92.705 -69.1512
5424.451172 92.740 -69.2404
5463.758789 92.807 -69.4101
5503.351562 92.901 -69.7082
5543.230957 93.020 -70.1850
5583.399414 93.155 -70.8760
5623.859375 93.302 -71.8317
5664.611816 93.448 -73.0573
5705.660156 93.581 -74.5836
5747.005859 93.693 -76.3840
5788.650879 93.775 -78.4589
5830.597656 93.819 -80.7566
5872.848633 93.814 -83.2509
5915.405762 93.757 -85.8663
5958.271484 93.641 -88.5458
6001.447266 93.465 -91.2075
6044.936523 93.228 -93.7752
6088.740234 92.933 -96.1745
6132.861816 92.579 -98.3239
6177.303223 92.176 -100.1686
6222.066406 91.726 -101.6325
6267.154297 91.243 -102.6977
6312.568359 90.739 -103.3122
6358.312012 90.229 -103.5031
6404.386719 89.726 -103.2606
6450.795898 89.246 -102.6451
6497.541016 88.806 -101.6888
6544.625000 88.412 -100.4677
6592.049805 88.078 -99.0454
6639.818359 87.805 -97.4912
6687.933594 87.599 -95.8777
6736.396973 87.454 -94.2583
6785.211426 87.368 -92.7001
6834.379883 87.335 -91.2342
6883.904785 87.347 -89.9066
6933.788574 87.400 -88.7386
6984.033691 87.490 -87.7577
7034.642578 87.613 -86.9903
7085.618652 87.766 -86.4602
7136.963867 87.943 -86.2016
7188.681152 88.141 -86.2471
7240.773438 88.349 -86.6242
7293.243164 88.561 -87.3716
7346.092773 88.762 -88.4874
7399.325684 88.941 -89.9957
7452.944336 89.087 -91.8568
7506.951172 89.189 -94.0651
7561.350098 89.238 -96.5426
7616.142578 89.220 -99.2438
7671.332031 89.135 -102.0653
7726.921875 88.974 -104.9171
7782.914551 88.743 -107.7129
7839.312500 88.443 -110.3551
7896.119629 88.078 -112.7908
7953.337891 87.653 -114.9444
8010.971191 87.177 -116.7872
8069.021973 86.656 -118.2717
8127.493164 86.100 -119.3792
8186.388672 85.517 -120.0867
8245.710938 84.911 -120.3598
8305.461914 84.286 -120.1652
8365.647461 83.655 -119.4760
8426.267578 83.026 -118.2399
8487.328125 82.421 -116.4995
8548.831055 81.856 -114.2351
8610.779297 81.360 -111.5839
8673.176758 80.964 -108.6115
8736.026367 80.680 -105.5148
8799.331055 80.539 -102.4509
8863.094727 80.516 -99.6061
8927.320312 80.614 -97.1890
8992.010742 80.784 -95.2904
9057.170898 80.991 -94.0940
9122.802734 81.196 -93.5283
9188.910156 81.352 -93.6528
9255.497070 81.441 -94.2547
9322.566406 81.429 -95.2277
9390.121094 81.316 -96.3074
9458.166016 81.083 -97.2562
9526.704102 80.753 -97.8839
9595.738281 80.329 -97.9313
9665.273438 79.844 -97.3678
9735.311523 79.320 -96.0500
9805.857422 78.795 -94.0606
9876.915039 78.302 -91.3876
9948.487305 77.876 -88.1747
10020.578125 77.561 -84.5012
10093.191406 77.370 -80.5499
10166.331055 77.339 -76.4826
10240.000000 77.448 -72.4430
10314.203125 77.691 -68.5933
10388.944336 78.055 -65.0390
10464.226562 78.533 -61.9103
10540.054688 79.094 -59.2928
10616.432617 79.715 -57.3057
10693.363281 80.368 -55.9808
10770.852539 81.022 -55.3908
10848.902344 81.662 -55.5292
10927.517578 82.265 -56.4350
11006.703125 82.813 -58.0425
11086.461914 83.284 -60.3436
11166.798828 83.672 -63.2028
11247.718750 83.962 -66.5287
11329.223633 84.156 -70.1796
11411.320312 84.250 -74.0261
11494.011719 84.243 -77.9379
11577.301758 84.133 -81.7814
11661.195312 83.927 -85.4375
11745.697266 83.629 -88.7684
11830.811523 83.248 -91.6954
11916.542969 82.791 -94.0965
12002.894531 82.277 -95.9642
12089.873047 81.723 -97.2284
12177.480469 81.147 -97.9563
12265.723633 80.570 -98.1603
12354.606445 80.007 -97.9372
12444.132812 79.478 -97.3599
12534.308594 78.986 -96.5152
12625.136719 78.546 -95.5069
12716.624023 78.142 -94.3574
12808.773438 77.767 -93.1459
12901.591797 77.405 -91.8041
12995.082031 77.037 -90.3261
13089.250000 76.662 -88.6004
13184.099609 76.264 -86.5336
13279.636719 75.865 -84.0639
13375.867188 75.473 -81.0853
13472.793945 75.122 -77.6379
13570.422852 74.836 -73.6709
13668.759766 74.657 -69.3525
13767.809570 74.638 -64.7639
13867.577148 74.769 -60.1198
13968.067383 75.067 -55.6148
14069.285156 75.499 -51.3919
14171.237305 76.047 -47.6269
14273.927734 76.680 -44.4143
14377.362305 77.371 -41.9065
14481.546875 78.088 -40.1044
14586.486328 78.794 -39.0927
14692.185547 79.479 -38.7690
14798.651367 80.120 -39.0871
14905.888672 80.719 -39.9624
15013.902344 81.269 -41.3170
15122.700195 81.770 -43.0829
15232.285156 82.216 -45.1838
15342.664062 82.612 -47.5668
15453.843750 82.960 -50.1612
15565.829102 83.261 -52.9455
15678.625000 83.520 -55.8829
15792.239258 83.733 -58.9491
15906.675781 83.899 -62.1189
16021.942383 84.016 -65.3573
16138.043945 84.085 -68.6351
16254.986328 84.105 -71.9090
16372.777344 84.075 -75.1411
16491.421875 84.000 -78.2869
16610.923828 83.878 -81.2945
16731.294922 83.722 -84.1479
16852.535156 83.536 -86.8016
16974.656250 83.333 -89.2914
17097.662109 83.125 -91.6114
17221.558594 82.917 -93.8406
17346.353516 82.723 -96.0324
17472.052734 82.536 -98.2592
17598.662109 82.359 -100.6049
17726.189453 82.174 -103.0901
17854.640625 81.974 -105.7865
17984.021484 81.738 -108.6239
18114.341797 81.448 -111.6022
18245.605469 81.094 -114.5813
18377.820312 80.662 -117.4698
18510.994141 80.149 -120.1196
18645.132812 79.549 -122.3945
18780.242188 78.867 -124.1650
18916.332031 78.097 -125.2684
19053.408203 77.268 -125.6689
19191.476562 76.395 -125.2424
19330.546875 75.516 -124.0911
19470.623047 74.664 -122.2266
19611.714844 73.864 -119.8022
19753.830078 73.147 -116.9261
19896.974609 72.527 -113.7460
