* Measurement data measured by REW V5.20.13
* Source: C:\Users\kurin\Desktop\Targets and Curves\Resolve\Img\Lecram\Dan_Clark_Audio_Expanse__SPL.txt
* Format: Comma/Tab/Space delimited data
* Dated: Aug 15, 2023 3:24:52 PM
* REW Settings:
*  C-weighting compensation: Off
*  Target level: 75.0 dB
* Note: ; Measurement imported from C:\Users\kurin\Desktop\Targets and Curves\Resolve\Img\Lecram\Dan_Clark_Audio_Expanse__SPL.txt Format: Comma/Tab/Space delimited data 623 values loaded, 5 Hz to 39,792 Hz log spaced 
* Measurement: Dan_Clark_Audio_Expanse__S
* Smoothing: 1/48 octave
* Frequency Step: 1/96 octave
* Start Frequency: 5.000 Hz
*
* Freq(Hz) SPL(dB) Phase(degrees)
5.000000 98.807 -7.2740
5.036232 98.805 -7.2779
5.072727 98.803 -7.2820
5.109486 98.801 -7.2866
5.146511 98.798 -7.2920
5.183805 98.795 -7.2986
5.221369 98.791 -7.3060
5.259205 98.787 -7.3142
5.297316 98.783 -7.3230
5.335702 98.779 -7.3319
5.374367 98.775 -7.3410
5.413311 98.771 -7.3504
5.452538 98.766 -7.3600
5.492050 98.762 -7.3694
5.531847 98.758 -7.3790
5.571934 98.754 -7.3890
5.612310 98.750 -7.3990
5.652979 98.745 -7.4084
5.693943 98.741 -7.4180
5.735204 98.737 -7.4284
5.776763 98.733 -7.4390
5.818624 98.729 -7.4490
5.860788 98.724 -7.4590
5.903258 98.720 -7.4694
5.946035 98.716 -7.4800
5.989123 98.712 -7.4905
6.032523 98.707 -7.5010
6.076237 98.703 -7.5114
6.120268 98.699 -7.5220
6.164618 98.695 -7.5329
6.209289 98.691 -7.5440
6.254284 98.687 -7.5550
6.299605 98.682 -7.5660
6.345255 98.678 -7.5769
6.391235 98.674 -7.5880
6.437549 98.670 -7.5994
6.484198 98.665 -7.6110
6.531185 98.661 -7.6225
6.578513 98.657 -7.6340
6.626183 98.653 -7.6454
6.674199 98.649 -7.6570
6.722563 98.645 -7.6689
6.771278 98.640 -7.6810
6.820345 98.636 -7.6929
6.869768 98.632 -7.7050
6.919549 98.628 -7.7174
6.969691 98.623 -7.7300
7.020196 98.619 -7.7425
7.071068 98.615 -7.7550
7.122308 98.611 -7.7674
7.173919 98.606 -7.7800
7.225904 98.602 -7.7929
7.278266 98.598 -7.8060
7.331007 98.594 -7.8190
7.384131 98.590 -7.8320
7.437639 98.586 -7.8449
7.491535 98.581 -7.8580
7.545822 98.577 -7.8714
7.600502 98.573 -7.8850
7.655579 98.569 -7.8990
7.711054 98.564 -7.9130
7.766932 98.560 -7.9264
7.823214 98.556 -7.9400
7.879904 98.551 -7.9544
7.937005 98.547 -7.9690
7.994520 98.543 -7.9830
8.052452 98.539 -7.9970
8.110803 98.535 -8.0114
8.169578 98.531 -8.0260
8.228777 98.527 -8.0409
8.288406 98.522 -8.0560
8.348468 98.518 -8.0710
8.408964 98.514 -8.0860
8.469899 98.509 -8.1009
8.531276 98.505 -8.1160
8.593097 98.501 -8.1314
8.655366 98.497 -8.1470
8.718086 98.493 -8.1630
8.781260 98.489 -8.1790
8.844893 98.485 -8.1944
8.908987 98.480 -8.2100
8.973545 98.476 -8.2264
9.038571 98.472 -8.2430
9.104069 98.467 -8.2595
9.170040 98.463 -8.2760
9.236490 98.459 -8.2924
9.303422 98.455 -8.3090
9.370838 98.451 -8.3259
9.438744 98.446 -8.3430
9.507140 98.442 -8.3604
9.576033 98.438 -8.3780
9.645425 98.434 -8.3954
9.715320 98.430 -8.4130
9.785721 98.425 -8.4309
9.856632 98.421 -8.4490
9.928058 98.417 -8.4669
10.000000 98.413 -8.4850
10.072464 98.409 -8.5034
10.145453 98.404 -8.5220
10.218971 98.400 -8.5404
10.293022 98.396 -8.5590
10.367610 98.392 -8.5779
10.442738 98.387 -8.5970
10.518411 98.383 -8.6164
10.594631 98.379 -8.6360
10.671404 98.375 -8.6554
10.748734 98.371 -8.6750
10.826623 98.367 -8.6949
10.905077 98.362 -8.7150
10.984100 98.358 -8.7354
11.063695 98.354 -8.7560
11.143867 98.350 -8.7764
11.224621 98.345 -8.7970
11.305959 98.341 -8.8179
11.387886 98.337 -8.8390
11.470407 98.333 -8.8599
11.553527 98.328 -8.8810
11.637249 98.324 -8.9029
11.721577 98.320 -8.9250
11.806517 98.316 -8.9469
11.892071 98.312 -8.9690
11.978246 98.308 -8.9914
12.065045 98.303 -9.0140
12.152473 98.299 -9.0364
12.240536 98.295 -9.0590
12.329235 98.291 -9.0818
12.418578 98.286 -9.1050
12.508568 98.282 -9.1289
12.599211 98.278 -9.1530
12.690510 98.274 -9.1770
12.782471 98.270 -9.2010
12.875097 98.266 -9.2249
12.968395 98.261 -9.2490
13.062370 98.257 -9.2739
13.157025 98.253 -9.2990
13.252366 98.249 -9.3239
13.348398 98.244 -9.3490
13.445127 98.240 -9.3748
13.542556 98.236 -9.4010
13.640691 98.231 -9.4269
13.739536 98.227 -9.4530
13.839099 98.223 -9.4794
13.939383 98.219 -9.5060
14.040393 98.215 -9.5329
14.142136 98.211 -9.5600
14.244616 98.207 -9.5874
14.347837 98.202 -9.6150
14.451808 98.198 -9.6429
14.556532 98.194 -9.6710
14.662014 98.189 -9.6994
14.768262 98.185 -9.7280
14.875278 98.181 -9.7568
14.983070 98.177 -9.7860
15.091644 98.173 -9.8158
15.201005 98.168 -9.8460
15.311157 98.164 -9.8759
15.422109 98.160 -9.9060
15.533863 98.156 -9.9363
15.646428 98.152 -9.9670
15.759809 98.147 -9.9984
15.874010 98.143 -10.0300
15.989040 98.139 -10.0614
16.104904 98.135 -10.0930
16.221605 98.131 -10.1253
16.339155 98.126 -10.1580
16.457554 98.122 -10.1908
16.576813 98.118 -10.2240
16.696936 98.114 -10.2574
16.817928 98.110 -10.2910
16.939798 98.106 -10.3248
17.062551 98.101 -10.3590
17.186193 98.097 -10.3938
17.310732 98.093 -10.4290
17.436172 98.089 -10.4639
17.562521 98.084 -10.4990
17.689787 98.080 -10.5348
17.817974 98.076 -10.5710
17.947090 98.072 -10.6073
18.077143 98.067 -10.6440
18.208138 98.063 -10.6808
18.340080 98.059 -10.7180
18.472980 98.055 -10.7554
18.606844 98.051 -10.7930
18.741676 98.047 -10.8305
18.877487 98.042 -10.8680
19.014280 98.038 -10.9056
19.152065 98.034 -10.9430
19.290850 98.029 -10.9797
19.430639 98.025 -11.0160
19.571442 98.021 -11.0520
19.713264 98.018 -11.0880
19.856115 98.014 -11.1238
20.000000 98.011 -11.1600
20.144928 98.008 -11.1965
20.290907 98.006 -11.2340
20.437943 98.004 -11.2728
20.586044 98.003 -11.3140
20.735220 98.002 -11.3586
20.885475 98.001 -11.4069
21.036821 98.000 -11.4590
21.189262 98.000 -11.5159
21.342808 98.000 -11.5790
21.497467 98.000 -11.6479
21.653246 97.999 -11.7226
21.810154 97.998 -11.8029
21.968201 97.996 -11.8893
22.127390 97.993 -11.9789
22.287735 97.988 -12.0705
22.449242 97.981 -12.1599
22.611917 97.972 -12.2424
22.775772 97.963 -12.3189
22.940815 97.954 -12.3887
23.107054 97.946 -12.4519
23.274498 97.937 -12.5082
23.443153 97.929 -12.5589
23.613033 97.922 -12.6037
23.784142 97.916 -12.6470
23.956491 97.913 -12.6925
24.130091 97.911 -12.7419
24.304947 97.910 -12.7985
24.481071 97.909 -12.8619
24.658470 97.909 -12.9330
24.837156 97.909 -13.0119
25.017136 97.909 -13.0989
25.198421 97.909 -13.1949
25.381020 97.909 -13.3009
25.564941 97.909 -13.4169
25.750195 97.908 -13.5433
25.936790 97.905 -13.6798
26.124741 97.901 -13.8280
26.314051 97.895 -13.9828
26.504732 97.885 -14.1422
26.696796 97.871 -14.2988
26.890253 97.854 -14.4442
27.085112 97.834 -14.5789
27.281382 97.815 -14.7013
27.479073 97.794 -14.8099
27.678198 97.771 -14.9030
27.878765 97.747 -14.9789
28.080786 97.725 -15.0318
28.284271 97.705 -15.0720
28.489231 97.690 -15.1063
28.695675 97.678 -15.1390
28.903616 97.666 -15.1762
29.113064 97.656 -15.2179
29.324028 97.648 -15.2650
29.536524 97.641 -15.3209
29.750557 97.636 -15.3901
29.966141 97.630 -15.4709
30.183289 97.623 -15.5643
30.402010 97.615 -15.6669
30.622314 97.606 -15.7755
30.844217 97.596 -15.8899
31.067726 97.584 -16.0096
31.292856 97.571 -16.1318
31.519617 97.555 -16.2550
31.748020 97.537 -16.3739
31.978081 97.517 -16.4819
32.209808 97.496 -16.5819
32.443211 97.477 -16.6739
32.678310 97.457 -16.7599
32.915108 97.437 -16.8419
33.153625 97.416 -16.9199
33.393871 97.396 -16.9947
33.635857 97.376 -17.0659
33.879597 97.355 -17.1341
34.125103 97.334 -17.1969
34.372387 97.313 -17.2513
34.621464 97.293 -17.2999
34.872345 97.274 -17.3443
35.125042 97.256 -17.3850
35.379574 97.238 -17.4221
35.635948 97.221 -17.4580
35.894180 97.206 -17.4923
36.154285 97.194 -17.5329
36.416275 97.185 -17.5871
36.680161 97.177 -17.6559
36.945961 97.167 -17.7455
37.213688 97.156 -17.8478
37.483353 97.142 -17.9576
37.754974 97.125 -18.0718
38.028561 97.107 -18.1864
38.304131 97.086 -18.2989
38.581699 97.063 -18.4061
38.861279 97.038 -18.5059
39.142883 97.012 -18.5927
39.426529 96.987 -18.6729
39.712231 96.964 -18.7506
40.000000 96.942 -18.8269
40.289856 96.917 -18.9054
40.581814 96.892 -18.9819
40.875885 96.866 -19.0516
41.172089 96.841 -19.1199
41.470440 96.817 -19.1911
41.770950 96.793 -19.2639
42.073643 96.766 -19.3401
42.378525 96.737 -19.4139
42.685616 96.707 -19.4789
42.994934 96.677 -19.5389
43.306492 96.648 -19.5960
43.620308 96.618 -19.6489
43.936401 96.586 -19.6984
44.254780 96.552 -19.7399
44.575470 96.518 -19.7675
44.898483 96.484 -19.7870
45.223835 96.453 -19.8016
45.551544 96.422 -19.8130
45.881630 96.390 -19.8249
46.214108 96.358 -19.8340
46.548996 96.325 -19.8364
46.886307 96.293 -19.8380
47.226067 96.263 -19.8459
47.568283 96.231 -19.8520
47.912983 96.193 -19.8531
48.260181 96.152 -19.8410
48.609894 96.112 -19.8043
48.962143 96.072 -19.7501
49.316940 96.034 -19.6824
49.674313 95.997 -19.6001
50.034271 95.959 -19.5025
50.396843 95.922 -19.3932
50.762039 95.891 -19.2735
51.129883 95.862 -19.1492
51.500389 95.833 -19.0284
51.873581 95.805 -18.9052
52.249481 95.777 -18.7750
52.628101 95.751 -18.6422
53.009464 95.728 -18.5102
53.393593 95.705 -18.3772
53.780506 95.680 -18.2445
54.170223 95.656 -18.1072
54.562763 95.633 -17.9579
54.958145 95.612 -17.8052
55.356396 95.595 -17.6562
55.757530 95.578 -17.5082
56.161572 95.559 -17.3640
56.568542 95.539 -17.2153
56.978462 95.519 -17.0544
57.391350 95.499 -16.8823
57.807232 95.481 -16.6969
58.226128 95.464 -16.5003
58.648056 95.451 -16.2930
59.073048 95.440 -16.0784
59.501114 95.432 -15.8590
59.932281 95.427 -15.6384
60.366577 95.426 -15.4193
60.804020 95.429 -15.2064
61.244629 95.435 -15.0050
61.688435 95.444 -14.8163
62.135452 95.455 -14.6437
62.585712 95.468 -14.4853
63.039234 95.480 -14.3414
63.496040 95.493 -14.2092
63.956161 95.506 -14.0857
64.419617 95.520 -13.9722
64.886421 95.535 -13.8684
65.356621 95.551 -13.7761
65.830215 95.567 -13.6988
66.307251 95.583 -13.6311
66.787743 95.597 -13.5690
67.271713 95.610 -13.5131
67.759193 95.625 -13.4627
68.250206 95.640 -13.4181
68.744774 95.654 -13.3806
69.242928 95.668 -13.3461
69.744690 95.681 -13.3106
70.250084 95.694 -13.2741
70.759148 95.707 -13.2336
71.271896 95.722 -13.1941
71.788361 95.741 -13.1582
72.308571 95.762 -13.1300
72.832550 95.783 -13.1143
73.360321 95.806 -13.1110
73.891922 95.830 -13.1203
74.427376 95.856 -13.1459
74.966705 95.883 -13.1926
75.509949 95.910 -13.2579
76.057121 95.934 -13.3428
76.608261 95.957 -13.4418
77.163399 95.978 -13.5495
77.722557 95.998 -13.6668
78.285767 96.018 -13.7927
78.853058 96.037 -13.9267
79.424461 96.055 -14.0665
80.000000 96.072 -14.2157
80.579712 96.090 -14.3767
81.163628 96.108 -14.5507
81.751770 96.124 -14.7407
82.344177 96.138 -14.9436
82.940880 96.150 -15.1572
83.541901 96.160 -15.3805
84.147285 96.168 -15.6132
84.757050 96.173 -15.8515
85.371231 96.174 -16.0928
85.989868 96.173 -16.3345
86.612984 96.169 -16.5738
87.240616 96.163 -16.8085
87.872803 96.154 -17.0350
88.509560 96.144 -17.2546
89.150940 96.134 -17.4679
89.796967 96.122 -17.6736
90.447670 96.108 -17.8712
91.103088 96.092 -18.0586
91.763260 96.077 -18.2318
92.428215 96.062 -18.3967
93.097992 96.049 -18.5571
93.772614 96.037 -18.7147
94.452133 96.025 -18.8729
95.136566 96.013 -19.0297
95.825966 96.000 -19.1837
96.520363 95.988 -19.3357
97.219788 95.977 -19.4854
97.924286 95.966 -19.6347
98.633881 95.956 -19.7851
99.348625 95.946 -19.9367
100.068542 95.937 -20.0896
100.793686 95.929 -20.2456
101.524078 95.922 -20.4045
102.259766 95.916 -20.5716
103.000778 95.913 -20.7515
103.747162 95.911 -20.9466
104.498962 95.909 -21.1607
105.256203 95.906 -21.3935
106.018929 95.903 -21.6472
106.787186 95.897 -21.9185
107.561012 95.888 -22.2065
108.340446 95.876 -22.5055
109.125526 95.860 -22.8090
109.916290 95.842 -23.1174
110.712791 95.822 -23.4292
111.515060 95.800 -23.7443
112.323143 95.774 -24.0635
113.137085 95.746 -24.3833
113.956924 95.715 -24.6994
114.782700 95.682 -25.0152
115.614464 95.648 -25.3330
116.452255 95.612 -25.6524
117.296112 95.572 -25.9755
118.146095 95.529 -26.2963
119.002228 95.481 -26.6108
119.864563 95.430 -26.9152
120.733154 95.376 -27.2047
121.608040 95.318 -27.4784
122.489258 95.258 -27.7353
123.376869 95.195 -27.9715
124.270905 95.129 -28.1816
125.171425 95.063 -28.3687
126.078468 94.998 -28.5308
126.992081 94.935 -28.6767
127.912323 94.874 -28.8150
128.839233 94.814 -28.9447
129.772842 94.752 -29.0671
130.713242 94.690 -29.1838
131.660431 94.632 -29.2935
132.614502 94.574 -29.4057
133.575485 94.518 -29.5320
134.543427 94.460 -29.6647
135.518387 94.397 -29.8031
136.500412 94.329 -29.9377
137.489548 94.258 -30.0590
138.485855 94.184 -30.1667
139.489380 94.108 -30.2599
140.500168 94.028 -30.3319
141.518295 93.943 -30.3790
142.543793 93.855 -30.3920
143.576721 93.764 -30.3595
144.617142 93.672 -30.2842
145.665100 93.583 -30.1634
146.720642 93.496 -30.0025
147.783844 93.413 -29.8048
148.854752 93.333 -29.5737
149.933411 93.259 -29.3101
151.019897 93.190 -29.0237
152.114243 93.130 -28.7223
153.216522 93.076 -28.4129
154.326797 93.027 -28.1047
155.445114 92.984 -27.7997
156.571533 92.947 -27.5005
157.706116 92.915 -27.2136
158.848923 92.889 -26.9466
160.000000 92.867 -26.6986
161.159424 92.845 -26.4728
162.327255 92.825 -26.2654
163.503540 92.807 -26.0725
164.688354 92.791 -25.8983
165.881760 92.778 -25.7451
167.083801 92.767 -25.6153
168.294571 92.756 -25.5117
169.514099 92.746 -25.4352
170.742462 92.737 -25.3864
171.979736 92.727 -25.3680
173.225967 92.717 -25.3850
174.481232 92.703 -25.4309
175.745605 92.683 -25.5044
177.019119 92.658 -25.5948
178.301880 92.627 -25.6904
179.593933 92.592 -25.7917
180.895340 92.554 -25.8956
182.206177 92.511 -26.0007
183.526520 92.464 -26.1076
184.856430 92.411 -26.2088
186.195984 92.352 -26.2979
187.545227 92.289 -26.3718
188.904266 92.223 -26.4265
190.273132 92.153 -26.4590
191.651932 92.078 -26.4678
193.040726 91.999 -26.4451
194.439575 91.915 -26.3835
195.848572 91.829 -26.2794
197.267761 91.743 -26.1229
198.697250 91.659 -25.9245
200.137085 91.581 -25.6875
201.587372 91.507 -25.4246
203.048157 91.439 -25.1496
204.519531 91.375 -24.8639
206.001556 91.313 -24.5727
207.494324 91.254 -24.2777
208.997925 91.199 -23.9818
210.512405 91.146 -23.6867
212.037857 91.094 -23.3968
213.574371 91.043 -23.1067
215.122025 90.991 -22.8123
216.680893 90.939 -22.5138
218.251053 90.890 -22.2081
219.832581 90.842 -21.9009
221.425583 90.797 -21.5964
223.030121 90.752 -21.2968
224.646286 90.708 -21.0076
226.274170 90.663 -20.7227
227.913849 90.615 -20.4405
229.565399 90.564 -20.1527
231.228928 90.511 -19.8514
232.904510 90.455 -19.5340
234.592224 90.399 -19.1974
236.292191 90.342 -18.8360
238.004456 90.282 -18.4433
239.729126 90.223 -18.0192
241.466309 90.167 -17.5574
243.216080 90.116 -17.0694
244.978516 90.071 -16.5618
246.753738 90.032 -16.0425
248.541809 89.998 -15.5210
250.342850 89.969 -14.9995
252.156937 89.943 -14.4831
253.984161 89.921 -13.9724
255.824646 89.902 -13.4689
257.678467 89.885 -12.9742
259.545685 89.872 -12.4909
261.426483 89.860 -12.0182
263.320862 89.848 -11.5576
265.229004 89.837 -11.1052
267.150970 89.826 -10.6584
269.086853 89.815 -10.2153
271.036774 89.804 -9.7735
273.000824 89.793 -9.3323
274.979095 89.783 -8.8903
276.971710 89.773 -8.4464
278.978760 89.764 -7.9992
281.000336 89.755 -7.5482
283.036591 89.747 -7.0922
285.087585 89.741 -6.6314
287.153442 89.736 -6.1650
289.234283 89.732 -5.6953
291.330200 89.731 -5.2242
293.441284 89.731 -4.7513
295.567688 89.732 -4.2764
297.709503 89.734 -3.8003
299.866821 89.739 -3.3225
302.039795 89.747 -2.8454
304.228485 89.756 -2.3724
306.433044 89.766 -1.9003
308.653595 89.777 -1.4265
310.890228 89.789 -0.9523
313.143066 89.805 -0.4778
315.412231 89.823 -0.0053
317.697845 89.842 0.4623
320.000000 89.862 0.9266
322.318848 89.885 1.3893
324.654510 89.910 1.8466
327.007080 89.938 2.2940
329.376709 89.967 2.7356
331.763519 89.994 3.1731
334.167603 90.022 3.6096
336.589142 90.052 4.0497
339.028198 90.084 4.4917
341.484924 90.117 4.9352
343.959473 90.153 5.3808
346.451935 90.191 5.8308
348.962463 90.234 6.2798
351.491211 90.282 6.7249
354.038239 90.334 7.1607
356.603760 90.390 7.5821
359.187866 90.451 7.9848
361.790680 90.515 8.3635
364.412354 90.583 8.7170
367.053040 90.652 9.0418
369.712860 90.724 9.3391
372.391968 90.796 9.6092
375.090454 90.870 9.8513
377.808533 90.945 10.0643
380.546265 91.020 10.2495
383.303864 91.094 10.4084
386.081451 91.168 10.5397
388.879150 91.243 10.6412
391.697144 91.317 10.7158
394.535522 91.387 10.7638
397.394501 91.455 10.7900
400.274170 91.523 10.8011
403.174744 91.590 10.7911
406.096313 91.657 10.7556
409.039062 91.722 10.6952
412.003113 91.784 10.6084
414.988647 91.843 10.4974
417.995850 91.900 10.3640
421.024811 91.953 10.2085
424.075714 92.002 10.0288
427.148743 92.046 9.8336
430.244049 92.081 9.6284
433.361786 92.110 9.4217
436.502106 92.134 9.2226
439.665161 92.154 9.0346
442.851166 92.169 8.8640
446.060242 92.180 8.7114
449.292572 92.190 8.5817
452.548340 92.199 8.4683
455.827698 92.209 8.3669
459.130798 92.219 8.2753
462.457855 92.228 8.1906
465.809021 92.236 8.1112
469.184448 92.245 8.0345
472.584381 92.253 7.9602
476.008911 92.260 7.8858
479.458252 92.266 7.8152
482.932617 92.269 7.7514
486.432159 92.271 7.6952
489.957031 92.272 7.6484
493.507477 92.273 7.6101
497.083618 92.273 7.5802
500.685699 92.273 7.5581
504.313873 92.273 7.5435
507.968323 92.273 7.5350
511.649292 92.273 7.5315
515.356934 92.273 7.5320
519.091370 92.273 7.5350
522.852966 92.273 7.5410
526.641724 92.272 7.5500
530.458008 92.271 7.5620
534.301941 92.269 7.5756
538.173706 92.266 7.5949
542.073547 92.260 7.6219
546.001648 92.253 7.6608
549.958191 92.245 7.7167
553.943420 92.237 7.7897
557.957520 92.229 7.8824
562.000671 92.223 7.9926
566.073181 92.219 8.1208
570.175171 92.217 8.2625
574.306885 92.219 8.4161
578.468567 92.225 8.5735
582.660400 92.236 8.7275
586.882568 92.250 8.8735
591.135376 92.267 9.0039
595.419006 92.286 9.1196
599.733643 92.305 9.2189
604.079590 92.324 9.3027
608.456970 92.344 9.3705
612.866089 92.363 9.4248
617.307190 92.380 9.4662
621.780457 92.396 9.4999
626.286133 92.410 9.5312
630.824463 92.422 9.5609
635.395691 92.434 9.5924
640.000000 92.445 9.6229
644.637695 92.457 9.6509
649.309021 92.468 9.6759
654.014160 92.479 9.6964
658.753418 92.488 9.7139
663.527039 92.496 9.7288
668.335205 92.502 9.7439
673.178284 92.506 9.7610
678.056396 92.509 9.7839
682.969849 92.509 9.8171
687.918945 92.509 9.8608
692.903870 92.509 9.9177
697.924927 92.509 9.9857
702.982422 92.510 10.0646
708.076477 92.511 10.1527
713.207520 92.514 10.2498
718.375732 92.518 10.3516
723.581360 92.525 10.4552
728.824707 92.535 10.5557
734.106079 92.546 10.6464
739.425720 92.558 10.7297
744.783936 92.569 10.8049
750.180908 92.580 10.8738
755.617065 92.590 10.9377
761.092529 92.600 10.9978
766.607727 92.609 11.0553
772.162903 92.617 11.1108
777.758301 92.624 11.1635
783.394287 92.629 11.2188
789.071045 92.632 11.2813
794.789001 92.634 11.3527
800.548340 92.636 11.4364
806.349487 92.639 11.5316
812.192627 92.642 11.6400
818.078125 92.646 11.7576
824.006226 92.654 11.8833
829.977295 92.664 12.0096
835.991699 92.678 12.1294
842.049622 92.694 12.2396
848.151428 92.711 12.3344
854.297485 92.728 12.4147
860.488098 92.746 12.4797
866.723572 92.763 12.5298
873.004211 92.779 12.5635
879.330322 92.792 12.5859
885.702332 92.802 12.5998
892.120483 92.809 12.6110
898.585144 92.813 12.6255
905.096680 92.814 12.6449
911.655396 92.814 12.6723
918.261597 92.811 12.7088
924.915710 92.806 12.7559
931.618042 92.799 12.8168
938.368896 92.791 12.8959
945.168762 92.782 12.9916
952.017822 92.773 13.1038
958.916504 92.764 13.2325
965.865234 92.755 13.3778
972.864319 92.747 13.5394
979.914062 92.740 13.7181
987.014954 92.734 13.9103
994.167236 92.731 14.1128
1001.371399 92.729 14.3252
1008.627747 92.728 14.5454
1015.936646 92.729 14.7750
1023.298584 92.731 15.0158
1030.713867 92.734 15.2662
1038.182739 92.739 15.5255
1045.705933 92.747 15.7928
1053.283447 92.756 16.0674
1060.916016 92.768 16.3478
1068.603882 92.783 16.6333
1076.347412 92.801 16.9208
1084.147095 92.822 17.2078
1092.003296 92.846 17.4921
1099.916382 92.872 17.7719
1107.886841 92.902 18.0439
1115.915039 92.935 18.3042
1124.001343 92.971 18.5521
1132.146362 93.006 18.7843
1140.350342 93.042 19.0042
1148.613770 93.078 19.2142
1156.937134 93.115 19.4142
1165.320801 93.152 19.6034
1173.765137 93.190 19.7852
1182.270752 93.225 19.9622
1190.838013 93.261 20.1353
1199.467285 93.298 20.3079
1208.159180 93.337 20.4754
1216.913940 93.377 20.6340
1225.732178 93.418 20.7835
1234.614380 93.458 20.9217
1243.560913 93.499 21.0495
1252.572266 93.540 21.1676
1261.648926 93.581 21.2746
1270.791382 93.621 21.3683
1280.000000 93.659 21.4527
1289.275391 93.694 21.5294
1298.618042 93.728 21.6037
1308.028320 93.759 21.6817
1317.506836 93.789 21.7626
1327.054077 93.818 21.8475
1336.670410 93.846 21.9376
1346.356567 93.872 22.0352
1356.112793 93.898 22.1396
1365.939697 93.924 22.2506
1375.837891 93.949 22.3685
1385.807739 93.974 22.4922
1395.849854 93.998 22.6255
1405.964844 94.021 22.7717
1416.152954 94.043 22.9304
1426.415039 94.066 23.1020
1436.751465 94.090 23.2873
1447.162720 94.114 23.4856
1457.649414 94.139 23.7011
1468.212158 94.163 23.9380
1478.851440 94.189 24.1950
1489.567871 94.219 24.4747
1500.361816 94.254 24.7689
1511.234131 94.295 25.0724
1522.185059 94.341 25.3786
1533.215454 94.392 25.6808
1544.325806 94.448 25.9737
1555.516602 94.508 26.2510
1566.788574 94.573 26.5090
1578.142090 94.640 26.7408
1589.578003 94.708 26.9492
1601.096680 94.775 27.1323
1612.698975 94.841 27.2973
1624.385254 94.905 27.4476
1636.156250 94.968 27.5924
1648.012451 95.025 27.7407
1659.954590 95.082 27.8964
1671.983398 95.140 28.0676
1684.099243 95.200 28.2502
1696.302856 95.261 28.4441
1708.594971 95.326 28.6451
1720.976196 95.394 28.8523
1733.447144 95.466 29.0561
1746.008423 95.544 29.2472
1758.660645 95.625 29.4233
1771.404663 95.706 29.5767
1784.240967 95.788 29.7145
1797.170288 95.868 29.8403
1810.193359 95.949 29.9566
1823.310791 96.030 30.0647
1836.523193 96.110 30.1706
1849.831421 96.187 30.2784
1863.236084 96.264 30.3945
1876.737793 96.342 30.5290
1890.337524 96.423 30.6743
1904.035645 96.510 30.8280
1917.833008 96.602 30.9844
1931.730469 96.696 31.1389
1945.728638 96.795 31.2854
1959.828125 96.901 31.4175
1974.029907 97.012 31.5316
1988.334473 97.123 31.6217
2002.742798 97.237 31.6888
2017.255493 97.354 31.7315
2031.873291 97.474 31.7500
2046.597168 97.593 31.7409
2061.427734 97.711 31.7132
2076.365479 97.828 31.6740
2091.411865 97.945 31.6252
2106.566895 98.064 31.5734
2121.832031 98.185 31.5113
2137.207764 98.311 31.4323
2152.694824 98.438 31.3414
2168.294189 98.565 31.2443
2184.006592 98.694 31.1316
2199.832764 98.834 30.9983
2215.773682 98.976 30.8367
2231.830078 99.119 30.6346
2248.002686 99.262 30.4000
2264.292725 99.406 30.1375
2280.700684 99.549 29.8453
2297.227539 99.695 29.5224
2313.874268 99.840 29.1715
2330.641602 99.984 28.7934
2347.530273 100.126 28.3928
2364.541504 100.269 27.9756
2381.676025 100.413 27.5380
2398.934570 100.560 27.0801
2416.318359 100.709 26.5962
2433.827881 100.860 26.0832
2451.464355 101.012 25.5344
2469.228760 101.169 24.9436
2487.121826 101.327 24.3068
2505.144531 101.484 23.6179
2523.297852 101.639 22.8765
2541.582764 101.794 22.0791
2560.000000 101.945 21.2289
2578.550781 102.091 20.3254
2597.236084 102.231 19.3765
2616.056641 102.365 18.3892
2635.013672 102.493 17.3654
2654.108154 102.617 16.3074
2673.340820 102.735 15.2208
2692.713135 102.843 14.1105
2712.225586 102.945 12.9813
2731.879395 103.042 11.8409
2751.675781 103.134 10.6854
2771.615479 103.221 9.5110
2791.699707 103.303 8.3243
2811.929688 103.375 7.1289
2832.305908 103.442 5.9306
2852.830078 103.503 4.7386
2873.502930 103.561 3.5472
2894.325439 103.616 2.3541
2915.298828 103.669 1.1575
2936.424316 103.717 -0.0460
2957.702881 103.761 -1.2547
2979.135742 103.802 -2.4669
3000.723633 103.839 -3.6867
3022.468262 103.874 -4.9179
3044.370117 103.904 -6.1592
3066.430908 103.928 -7.4141
3088.651611 103.946 -8.6733
3111.033203 103.956 -9.9300
3133.577148 103.961 -11.1811
3156.284180 103.961 -12.4206
3179.156006 103.956 -13.6502
3202.193359 103.947 -14.8686
3225.397949 103.935 -16.0783
3248.770508 103.920 -17.2820
3272.312500 103.900 -18.4776
3296.024902 103.876 -19.6638
3319.909180 103.847 -20.8416
3343.966797 103.817 -22.0140
3368.198486 103.781 -23.1745
3392.605713 103.737 -24.3203
3417.189941 103.688 -25.4429
3441.952393 103.635 -26.5301
3466.894287 103.579 -27.5893
3492.016846 103.524 -28.6243
3517.321289 103.467 -29.6344
3542.809326 103.406 -30.6176
3568.481934 103.345 -31.5806
3594.340576 103.289 -32.5255
3620.386719 103.233 -33.4635
3646.621582 103.178 -34.4092
3673.046387 103.120 -35.3555
3699.662842 103.058 -36.3010
3726.472168 102.992 -37.2427
3753.475586 102.925 -38.1814
3780.675049 102.851 -39.1039
3808.071289 102.767 -40.0031
3835.666016 102.676 -40.8610
3863.460938 102.580 -41.6539
3891.457275 102.483 -42.3926
3919.656250 102.392 -43.0793
3948.059814 102.303 -43.7172
3976.668945 102.213 -44.3080
4005.485596 102.127 -44.8584
4034.510986 102.052 -45.3677
4063.746582 101.986 -45.8587
4093.194336 101.931 -46.3529
4122.855469 101.883 -46.8535
4152.730957 101.839 -47.3712
4182.823730 101.798 -47.9044
4213.133789 101.763 -48.4540
4243.664062 101.730 -49.0233
4274.415527 101.699 -49.6171
4305.389648 101.670 -50.2319
4336.588379 101.642 -50.8647
4368.013184 101.615 -51.5188
4399.665527 101.591 -52.1971
4431.547363 101.567 -52.8995
4463.660156 101.542 -53.6278
4496.005371 101.515 -54.3792
4528.585449 101.489 -55.1522
4561.401367 101.461 -55.9452
4594.455078 101.430 -56.7578
4627.748535 101.396 -57.5849
4661.283203 101.361 -58.4206
4695.060547 101.324 -59.2668
4729.083008 101.287 -60.1238
4763.352051 101.249 -60.9909
4797.869141 101.210 -61.8667
4832.636719 101.170 -62.7535
4867.655762 101.132 -63.6479
4902.928711 101.096 -64.5644
4938.457520 101.065 -65.5120
4974.243652 101.037 -66.5051
5010.289062 101.011 -67.5583
5046.595703 100.985 -68.6812
5083.165527 100.958 -69.8858
5120.000000 100.927 -71.1804
5157.101562 100.891 -72.5820
5194.472168 100.841 -74.0765
5232.113281 100.771 -75.6672
5270.027344 100.679 -77.3186
5308.216309 100.558 -79.0081
5346.681641 100.410 -80.6988
5385.426270 100.231 -82.3619
5424.451172 100.022 -83.9505
5463.758789 99.778 -85.4190
5503.351562 99.506 -86.7340
5543.230957 99.212 -87.8477
5583.399414 98.903 -88.7571
5623.859375 98.584 -89.4383
5664.611816 98.265 -89.9062
5705.660156 97.950 -90.1549
5747.005859 97.649 -90.2231
5788.650879 97.371 -90.1328
5830.597656 97.117 -89.9283
5872.848633 96.892 -89.6500
5915.405762 96.693 -89.3317
5958.271484 96.522 -89.0152
6001.447266 96.372 -88.7165
6044.936523 96.239 -88.4683
6088.740234 96.118 -88.2619
6132.861816 96.001 -88.1077
6177.303223 95.888 -87.9796
6222.066406 95.771 -87.8639
6267.154297 95.655 -87.7337
6312.568359 95.534 -87.5586
6358.312012 95.419 -87.3353
6404.386719 95.314 -87.0418
6450.795898 95.225 -86.7048
6497.541016 95.159 -86.3313
6544.625000 95.117 -85.9588
6592.049805 95.105 -85.6069
6639.818359 95.124 -85.3371
6687.933594 95.182 -85.1995
6736.396973 95.268 -85.2482
6785.211426 95.374 -85.5538
6834.379883 95.486 -86.1164
6883.904785 95.591 -86.9649
6933.788574 95.684 -88.0816
6984.033691 95.759 -89.4708
7034.642578 95.806 -91.0943
7085.618652 95.811 -92.9401
7136.963867 95.772 -94.9327
7188.681152 95.679 -97.0126
7240.773438 95.537 -99.1185
7293.243164 95.346 -101.1854
7346.092773 95.106 -103.1644
7399.325684 94.819 -105.0025
7452.944336 94.488 -106.6463
7506.951172 94.112 -108.0365
7561.350098 93.702 -109.1381
7616.142578 93.265 -109.8971
7671.332031 92.811 -110.3118
7726.921875 92.348 -110.3495
7782.914551 91.891 -110.0494
7839.312500 91.455 -109.4162
7896.119629 91.049 -108.5213
7953.337891 90.687 -107.4110
8010.971191 90.373 -106.1658
8069.021973 90.117 -104.8596
8127.493164 89.913 -103.5597
8186.388672 89.760 -102.3492
8245.710938 89.644 -101.2554
8305.461914 89.555 -100.3429
8365.647461 89.479 -99.5816
8426.267578 89.400 -98.9844
8487.328125 89.312 -98.4864
8548.831055 89.206 -98.0438
8610.779297 89.087 -97.6064
8673.176758 88.953 -97.1159
8736.026367 88.814 -96.5523
8799.331055 88.671 -95.8657
8863.094727 88.541 -95.0873
8927.320312 88.435 -94.2083
8992.010742 88.360 -93.3008
9057.170898 88.326 -92.4089
9122.802734 88.327 -91.6089
9188.910156 88.369 -90.9776
9255.497070 88.435 -90.5576
9322.566406 88.513 -90.4209
9390.121094 88.591 -90.5555
9458.166016 88.654 -90.9924
9526.704102 88.692 -91.6738
9595.738281 88.689 -92.5868
9665.273438 88.638 -93.6273
9735.311523 88.526 -94.7187
9805.857422 88.361 -95.7646
9876.915039 88.142 -96.6586
9948.487305 87.880 -97.3539
10020.578125 87.581 -97.7731
10093.191406 87.257 -97.9031
10166.331055 86.911 -97.6920
10240.000000 86.565 -97.1795
10314.203125 86.240 -96.3610
10388.944336 85.941 -95.3184
10464.226562 85.682 -94.1143
10540.054688 85.458 -92.8040
10616.432617 85.273 -91.4588
10693.363281 85.117 -90.0921
10770.852539 84.983 -88.7567
10848.902344 84.862 -87.4034
10927.517578 84.738 -86.0140
11006.703125 84.623 -84.5472
11086.461914 84.520 -82.9587
11166.798828 84.439 -81.2389
11247.718750 84.379 -79.3359
11329.223633 84.372 -77.3335
11411.320312 84.455 -75.2438
11494.011719 84.618 -73.2324
11577.301758 84.870 -71.4320
11661.195312 85.187 -69.9561
11745.697266 85.559 -68.9379
11830.811523 85.959 -68.4510
11916.542969 86.366 -68.6251
12002.894531 86.747 -69.4238
12089.873047 87.064 -70.9076
12177.480469 87.306 -72.9143
12265.723633 87.454 -75.3788
12354.606445 87.497 -78.0672
12444.132812 87.412 -80.7960
12534.308594 87.214 -83.3451
12625.136719 86.903 -85.4715
12716.624023 86.499 -87.0583
12808.773438 86.020 -87.9234
12901.591797 85.484 -88.0218
12995.082031 84.891 -87.2107
13089.250000 84.314 -85.6010
13184.099609 83.812 -83.1742
13279.636719 83.422 -80.1826
13375.867188 83.201 -76.7843
13472.793945 83.149 -73.2460
13570.422852 83.299 -69.8216
13668.759766 83.597 -66.7082
13767.809570 84.018 -64.1758
13867.577148 84.509 -62.2592
13968.067383 85.014 -61.0935
14069.285156 85.518 -60.6415
14171.237305 85.998 -60.9594
14273.927734 86.428 -61.9005
14377.362305 86.768 -63.3954
14481.546875 87.036 -65.2647
14586.486328 87.232 -67.3248
14692.185547 87.366 -69.5170
14798.651367 87.450 -71.7319
14905.888672 87.485 -73.9383
15013.902344 87.475 -76.0671
15122.700195 87.430 -78.1245
15232.285156 87.364 -80.0828
15342.664062 87.277 -81.9766
15453.843750 87.174 -83.8279
15565.829102 87.051 -85.6492
15678.625000 86.907 -87.4706
15792.239258 86.736 -89.2624
15906.675781 86.530 -91.0277
16021.942383 86.286 -92.6973
16138.043945 86.000 -94.2407
16254.986328 85.666 -95.5443
16372.777344 85.274 -96.5140
16491.421875 84.841 -97.0593
16610.923828 84.375 -97.0476
16731.294922 83.905 -96.5127
16852.535156 83.451 -95.4015
16974.656250 83.047 -93.8436
17097.662109 82.725 -91.8869
17221.558594 82.503 -89.7274
17346.353516 82.419 -87.5077
17472.052734 82.454 -85.4397
17598.662109 82.621 -83.7505
17726.189453 82.863 -82.5384
17854.640625 83.141 -81.9890
17984.021484 83.425 -82.0648
18114.341797 83.683 -82.8333
18245.605469 83.891 -84.1610
18377.820312 84.019 -86.0008
18510.994141 84.063 -88.1589
18645.132812 84.007 -90.4861
18780.242188 83.855 -92.7978
18916.332031 83.602 -94.8961
19053.408203 83.267 -96.6711
19191.476562 82.861 -97.9459
19330.546875 82.407 -98.7242
19470.623047 81.919 -98.9267
19611.714844 81.425 -98.6300
19753.830078 80.948 -97.8493
19896.974609 80.508 -96.6920
