* Measurement data measured by REW V5.20.13
* Source: C:\Users\kurin\Desktop\Targets and Curves\Resolve\Img\Lecram\DT 900 Pro X_SPL.txt
* Format: Comma/Tab/Space delimited data
* Dated: Aug 15, 2023 3:30:22 PM
* REW Settings:
*  C-weighting compensation: Off
*  Target level: 75.0 dB
* Note: ; Measurement imported from C:\Users\kurin\Desktop\Targets and Curves\Resolve\Img\Lecram\DT 900 Pro X_SPL.txt Format: Comma/Tab/Space delimited data 623 values loaded, 5 Hz to 39,792 Hz log spaced 
* Measurement: DT 900 Pro X_SPL
* Smoothing: 1/48 octave
* Frequency Step: 1/96 octave
* Start Frequency: 5.000 Hz
*
* Freq(Hz) SPL(dB) Phase(degrees)
5.000000 81.283 35.6990
5.036232 81.295 35.6885
5.072727 81.308 35.6770
5.109486 81.323 35.6630
5.146511 81.340 35.6470
5.183805 81.361 35.6286
5.221369 81.384 35.6090
5.259205 81.407 35.5894
5.297316 81.432 35.5690
5.335702 81.459 35.5467
5.374367 81.486 35.5240
5.413311 81.512 35.5024
5.452538 81.539 35.4810
5.492050 81.566 35.4591
5.531847 81.593 35.4370
5.571934 81.620 35.4146
5.612310 81.647 35.3920
5.652979 81.674 35.3696
5.693943 81.700 35.3470
5.735204 81.727 35.3241
5.776763 81.754 35.3010
5.818624 81.780 35.2776
5.860788 81.807 35.2540
5.903258 81.834 35.2306
5.946035 81.861 35.2070
5.989123 81.887 35.1831
6.032523 81.914 35.1590
6.076237 81.941 35.1351
6.120268 81.968 35.1110
6.164618 81.994 35.0866
6.209289 82.021 35.0620
6.254284 82.048 35.0371
6.299605 82.075 35.0120
6.345255 82.101 34.9871
6.391235 82.128 34.9620
6.437549 82.155 34.9361
6.484198 82.182 34.9100
6.531185 82.209 34.8840
6.578513 82.236 34.8580
6.626183 82.262 34.8321
6.674199 82.289 34.8060
6.722563 82.316 34.7791
6.771278 82.343 34.7520
6.820345 82.369 34.7251
6.869768 82.396 34.6980
6.919549 82.423 34.6706
6.969691 82.450 34.6430
7.020196 82.476 34.6151
7.071068 82.503 34.5870
7.122308 82.530 34.5591
7.173919 82.557 34.5310
7.225904 82.583 34.5021
7.278266 82.610 34.4730
7.331007 82.637 34.4441
7.384131 82.664 34.4150
7.437639 82.691 34.3856
7.491535 82.718 34.3560
7.545822 82.744 34.3261
7.600502 82.771 34.2960
7.655579 82.798 34.2656
7.711054 82.825 34.2350
7.766932 82.851 34.2041
7.823214 82.878 34.1730
7.879904 82.905 34.1416
7.937005 82.932 34.1100
7.994520 82.958 34.0781
8.052452 82.985 34.0460
8.110803 83.012 34.0136
8.169578 83.039 33.9810
8.228777 83.065 33.9486
8.288406 83.092 33.9160
8.348468 83.119 33.8827
8.408964 83.146 33.8490
8.469899 83.172 33.8151
8.531276 83.199 33.7810
8.593097 83.226 33.7471
8.655366 83.253 33.7130
8.718086 83.280 33.6782
8.781260 83.307 33.6430
8.844893 83.333 33.6076
8.908987 83.360 33.5720
8.973545 83.387 33.5361
9.038571 83.414 33.5000
9.104069 83.440 33.4636
9.170040 83.467 33.4270
9.236490 83.494 33.3901
9.303422 83.521 33.3530
9.370838 83.547 33.3157
9.438744 83.574 33.2780
9.507140 83.601 33.2397
9.576033 83.628 33.2010
9.645425 83.654 33.1621
9.715320 83.681 33.1230
9.785721 83.708 33.0836
9.856632 83.735 33.0440
9.928058 83.761 33.0041
10.000000 83.788 32.9640
10.072464 83.815 32.9237
10.145453 83.842 32.8830
10.218971 83.869 32.8417
10.293022 83.896 32.8000
10.367610 83.923 32.7581
10.442738 83.949 32.7160
10.518411 83.976 32.6737
10.594631 84.003 32.6310
10.671404 84.029 32.5877
10.748734 84.056 32.5440
10.826623 84.083 32.5001
10.905077 84.110 32.4560
10.984100 84.136 32.4117
11.063695 84.163 32.3670
11.143867 84.190 32.3218
11.224621 84.217 32.2760
11.305959 84.243 32.2297
11.387886 84.270 32.1830
11.470407 84.297 32.1367
11.553527 84.324 32.0900
11.637249 84.350 32.0423
11.721577 84.377 31.9940
11.806517 84.404 31.9457
11.892071 84.431 31.8970
11.978246 84.458 31.8483
12.065045 84.485 31.7990
12.152473 84.511 31.7488
12.240536 84.538 31.6980
12.329235 84.565 31.6472
12.418578 84.592 31.5960
12.508568 84.618 31.5447
12.599211 84.645 31.4930
12.690510 84.672 31.4408
12.782471 84.699 31.3881
12.875097 84.725 31.3348
12.968395 84.752 31.2810
13.062370 84.779 31.2268
13.157025 84.806 31.1720
13.252366 84.832 31.1168
13.348398 84.859 31.0610
13.445127 84.886 31.0047
13.542556 84.913 30.9481
13.640691 84.940 30.8913
13.739536 84.967 30.8340
13.839099 84.993 30.7758
13.939383 85.020 30.7171
14.040393 85.047 30.6583
14.142136 85.074 30.5990
14.244616 85.100 30.5388
14.347837 85.127 30.4780
14.451808 85.154 30.4168
14.556532 85.181 30.3550
14.662014 85.207 30.2929
14.768262 85.234 30.2301
14.875278 85.261 30.1663
14.983070 85.288 30.1021
15.091644 85.314 30.0379
15.201005 85.341 29.9730
15.311157 85.368 29.9069
15.422109 85.395 29.8400
15.533863 85.421 29.7734
15.646428 85.448 29.7060
15.759809 85.475 29.6374
15.874010 85.502 29.5681
15.989040 85.529 29.4989
16.104904 85.556 29.4291
16.221605 85.582 29.3580
16.339155 85.609 29.2861
16.457554 85.636 29.2139
16.576813 85.663 29.1411
16.696936 85.689 29.0674
16.817928 85.716 28.9930
16.939798 85.743 28.9179
17.062551 85.770 28.8421
17.186193 85.796 28.7659
17.310732 85.823 28.6890
17.436172 85.850 28.6110
17.562521 85.877 28.5321
17.689787 85.903 28.4524
17.817974 85.930 28.3721
17.947090 85.957 28.2910
18.077143 85.984 28.2090
18.208138 86.010 28.1260
18.340080 86.037 28.0421
18.472980 86.064 27.9576
18.606844 86.091 27.8721
18.741676 86.118 27.7852
18.877487 86.145 27.6971
19.014280 86.172 27.6077
19.152065 86.198 27.5171
19.290850 86.224 27.4255
19.430639 86.250 27.3331
19.571442 86.276 27.2392
19.713264 86.302 27.1461
19.856115 86.327 27.0555
20.000000 86.351 26.9681
20.144928 86.376 26.8856
20.290907 86.402 26.8061
20.437943 86.428 26.7280
20.586044 86.455 26.6521
20.735220 86.482 26.5798
20.885475 86.511 26.5071
21.036821 86.543 26.4310
21.189262 86.576 26.3491
21.342808 86.610 26.2577
21.497467 86.645 26.1571
21.653246 86.680 26.0479
21.810154 86.716 25.9262
21.968201 86.754 25.7876
22.127390 86.791 25.6342
22.287735 86.825 25.4654
22.449242 86.858 25.2851
22.611917 86.889 25.0968
22.775772 86.919 24.9012
22.940815 86.947 24.7003
23.107054 86.972 24.4953
23.274498 86.995 24.2875
23.443153 87.016 24.0793
23.613033 87.035 23.8719
23.784142 87.052 23.6692
23.956491 87.066 23.4752
24.130091 87.079 23.2902
24.304947 87.091 23.1152
24.481071 87.103 22.9522
24.658470 87.112 22.8038
24.837156 87.122 22.6692
25.017136 87.133 22.5508
25.198421 87.146 22.4421
25.381020 87.162 22.3382
25.564941 87.180 22.2361
25.750195 87.200 22.1323
25.936790 87.221 22.0231
26.124741 87.245 21.9036
26.314051 87.269 21.7742
26.504732 87.292 21.6326
26.696796 87.315 21.4822
26.890253 87.337 21.3256
27.085112 87.359 21.1632
27.281382 87.380 20.9949
27.479073 87.400 20.8242
27.678198 87.417 20.6555
27.878765 87.434 20.4862
28.080786 87.453 20.3173
28.284271 87.473 20.1432
28.489231 87.492 19.9569
28.695675 87.510 19.7643
28.903616 87.525 19.5685
29.113064 87.539 19.3703
29.324028 87.552 19.1713
29.536524 87.563 18.9722
29.750557 87.572 18.7722
29.966141 87.579 18.5772
30.183289 87.583 18.3930
30.402010 87.585 18.2202
30.622314 87.588 18.0617
30.844217 87.591 17.9162
31.067726 87.593 17.7848
31.292856 87.597 17.6632
31.519617 87.604 17.5494
31.748020 87.614 17.4371
31.978081 87.625 17.3190
32.209808 87.636 17.1962
32.443211 87.647 17.0674
32.678310 87.659 16.9332
32.915108 87.670 16.7932
33.153625 87.681 16.6492
33.393871 87.690 16.5010
33.635857 87.698 16.3542
33.879597 87.704 16.2146
34.125103 87.710 16.0812
34.372387 87.716 15.9564
34.621464 87.724 15.8352
34.872345 87.733 15.7142
35.125042 87.744 15.5912
35.379574 87.755 15.4626
35.635948 87.767 15.3282
35.894180 87.778 15.1861
36.154285 87.789 15.0372
36.416275 87.799 14.8806
36.680161 87.808 14.7203
36.945961 87.814 14.5587
37.213688 87.818 14.4002
37.483353 87.820 14.2497
37.754974 87.822 14.1072
38.028561 87.823 13.9751
38.304131 87.825 13.8522
38.581699 87.827 13.7392
38.861279 87.831 13.6332
39.142883 87.836 13.5331
39.426529 87.843 13.4331
39.712231 87.852 13.3274
40.000000 87.863 13.2152
40.289856 87.874 13.0937
40.581814 87.886 12.9632
40.875885 87.897 12.8225
41.172089 87.908 12.6722
41.470440 87.918 12.5113
41.770950 87.927 12.3443
42.073643 87.932 12.1744
42.378525 87.936 12.0042
42.685616 87.938 11.8374
42.994934 87.940 11.6742
43.306492 87.941 11.5165
43.620308 87.941 11.3632
43.936401 87.941 11.2141
44.254780 87.941 11.0682
44.575470 87.941 10.9249
44.898483 87.941 10.7832
45.223835 87.941 10.6423
45.551544 87.941 10.5012
45.881630 87.941 10.3590
46.214108 87.941 10.2152
46.548996 87.941 10.0690
46.886307 87.940 9.9202
47.226067 87.938 9.7679
47.568283 87.935 9.6143
47.912983 87.930 9.4597
48.260181 87.923 9.3082
48.609894 87.914 9.1637
48.962143 87.904 9.0272
49.316940 87.893 8.9012
49.674313 87.882 8.7852
50.034271 87.870 8.6798
50.396843 87.858 8.5841
50.762039 87.846 8.4975
51.129883 87.834 8.4191
51.500389 87.823 8.3475
51.873581 87.812 8.2841
52.249481 87.800 8.2293
52.628101 87.789 8.1851
53.009464 87.778 8.1537
53.393593 87.768 8.1350
53.780506 87.759 8.1306
54.170223 87.752 8.1370
54.562763 87.749 8.1534
54.958145 87.749 8.1730
55.356396 87.753 8.1894
55.757530 87.760 8.2000
56.161572 87.769 8.2001
56.568542 87.780 8.1890
56.978462 87.793 8.1647
57.391350 87.808 8.1261
57.807232 87.824 8.0705
58.226128 87.840 8.0001
58.648056 87.855 7.9155
59.073048 87.869 7.8192
59.501114 87.883 7.7146
59.932281 87.897 7.6002
60.366577 87.911 7.4769
60.804020 87.925 7.3402
61.244629 87.941 7.1863
61.688435 87.957 7.0143
62.135452 87.971 6.8217
62.585712 87.983 6.6094
63.039234 87.994 6.3772
63.496040 88.002 6.1264
63.956161 88.006 5.8568
64.419617 88.006 5.5735
64.886421 88.001 5.2799
65.356621 87.991 4.9815
65.830215 87.974 4.6824
66.307251 87.952 4.3906
66.787743 87.923 4.1151
67.271713 87.890 3.8575
67.759193 87.854 3.6229
68.250206 87.814 3.4094
68.744774 87.772 3.2148
69.242928 87.727 3.0453
69.744690 87.676 2.9056
70.250084 87.623 2.7982
70.759148 87.569 2.7274
71.271896 87.515 2.6920
71.788361 87.460 2.6923
72.308571 87.405 2.7279
72.832550 87.351 2.7989
73.360321 87.299 2.9048
73.891922 87.248 3.0460
74.427376 87.200 3.2196
74.966705 87.156 3.4242
75.509949 87.115 3.6566
76.057121 87.078 3.9126
76.608261 87.046 4.1944
77.163399 87.017 4.5049
77.722557 86.994 4.8373
78.285767 86.980 5.1898
78.853058 86.974 5.5503
79.424461 86.977 5.9080
80.000000 86.987 6.2563
80.579712 87.005 6.5868
81.163628 87.030 6.8934
81.751770 87.061 7.1681
82.344177 87.096 7.4085
82.940880 87.135 7.6091
83.541901 87.175 7.7727
84.147285 87.215 7.8982
84.757050 87.255 7.9918
85.371231 87.293 8.0598
85.989868 87.330 8.1019
86.612984 87.368 8.1197
87.240616 87.404 8.1140
87.872803 87.438 8.0840
88.509560 87.469 8.0361
89.150940 87.496 7.9755
89.796967 87.521 7.9052
90.447670 87.544 7.8297
91.103088 87.565 7.7492
91.763260 87.584 7.6647
92.428215 87.602 7.5772
93.097992 87.618 7.4874
93.772614 87.633 7.3962
94.452133 87.646 7.3049
95.136566 87.658 7.2122
95.825966 87.670 7.1174
96.520363 87.681 7.0202
97.219788 87.690 6.9185
97.924286 87.697 6.8172
98.633881 87.701 6.7199
99.348625 87.703 6.6282
100.068542 87.705 6.5453
100.793686 87.706 6.4702
101.524078 87.706 6.4030
102.259766 87.706 6.3431
103.000778 87.706 6.2902
103.747162 87.706 6.2441
104.498962 87.706 6.2048
105.256203 87.706 6.1721
106.018929 87.707 6.1460
106.787186 87.708 6.1260
107.561012 87.710 6.1126
108.340446 87.713 6.1030
109.125526 87.718 6.0961
109.916290 87.726 6.0870
110.712791 87.736 6.0710
111.515060 87.747 6.0471
112.323143 87.758 6.0123
113.137085 87.769 5.9671
113.956924 87.781 5.9108
114.782700 87.792 5.8442
115.614464 87.801 5.7666
116.452255 87.809 5.6822
117.296112 87.815 5.5939
118.146095 87.819 5.5052
119.002228 87.822 5.4205
119.864563 87.823 5.3392
120.733154 87.824 5.2622
121.608040 87.824 5.1892
122.489258 87.824 5.1200
123.376869 87.824 5.0542
124.270905 87.824 4.9912
125.171425 87.824 4.9301
126.078468 87.824 4.8697
126.992081 87.824 4.8101
127.912323 87.824 4.7512
128.839233 87.824 4.6921
129.772842 87.824 4.6323
130.713242 87.824 4.5711
131.660431 87.824 4.5079
132.614502 87.824 4.4422
133.575485 87.823 4.3732
134.543427 87.821 4.3011
135.518387 87.819 4.2250
136.500412 87.816 4.1481
137.489548 87.810 4.0720
138.485855 87.801 4.0012
139.489380 87.791 3.9408
140.500168 87.780 3.8911
141.518295 87.769 3.8541
142.543793 87.758 3.8290
143.576721 87.746 3.8163
144.617142 87.735 3.8150
145.665100 87.726 3.8263
146.720642 87.718 3.8449
147.783844 87.713 3.8666
148.854752 87.710 3.8889
149.933411 87.708 3.9078
151.019897 87.706 3.9240
152.114243 87.706 3.9367
153.216522 87.706 3.9460
154.326797 87.706 3.9513
155.445114 87.706 3.9540
156.571533 87.706 3.9551
157.706116 87.706 3.9550
158.848923 87.706 3.9544
160.000000 87.706 3.9530
161.159424 87.706 3.9503
162.327255 87.706 3.9470
163.503540 87.706 3.9441
164.688354 87.706 3.9410
165.881760 87.706 3.9376
167.083801 87.706 3.9340
168.294571 87.706 3.9300
169.514099 87.706 3.9260
170.742462 87.706 3.9224
171.979736 87.706 3.9190
173.225967 87.706 3.9155
174.481232 87.706 3.9120
175.745605 87.706 3.9084
177.019119 87.706 3.9050
178.301880 87.706 3.9018
179.593933 87.706 3.8990
180.895340 87.706 3.8969
182.206177 87.706 3.8950
183.526520 87.706 3.8929
184.856430 87.706 3.8910
186.195984 87.706 3.8893
187.545227 87.706 3.8880
188.904266 87.706 3.8873
190.273132 87.706 3.8870
191.651932 87.706 3.8873
193.040726 87.706 3.8880
194.439575 87.706 3.8889
195.848572 87.706 3.8900
197.267761 87.706 3.8912
198.697250 87.706 3.8930
200.137085 87.706 3.8957
201.587372 87.706 3.8990
203.048157 87.706 3.9027
204.519531 87.706 3.9070
206.001556 87.706 3.9122
207.494324 87.706 3.9180
208.997925 87.706 3.9241
210.512405 87.706 3.9310
212.037857 87.706 3.9390
213.574371 87.706 3.9480
215.122025 87.706 3.9575
216.680893 87.706 3.9680
218.251053 87.706 3.9794
219.832581 87.706 3.9920
221.425583 87.706 4.0058
223.030121 87.706 4.0210
224.646286 87.706 4.0376
226.274170 87.706 4.0560
227.913849 87.706 4.0763
229.565399 87.706 4.0989
231.228928 87.706 4.1242
232.904510 87.706 4.1529
234.592224 87.706 4.1861
236.292191 87.706 4.2239
238.004456 87.707 4.2670
239.729126 87.709 4.3149
241.466309 87.711 4.3682
243.216080 87.715 4.4238
244.978516 87.722 4.4803
246.753738 87.731 4.5329
248.541809 87.742 4.5758
250.342850 87.753 4.6099
252.156937 87.764 4.6340
253.984161 87.775 4.6490
255.824646 87.787 4.6545
257.678467 87.798 4.6530
259.545685 87.807 4.6450
261.426483 87.814 4.6360
263.320862 87.819 4.6312
265.229004 87.823 4.6330
267.150970 87.828 4.6470
269.086853 87.833 4.6689
271.036774 87.840 4.6980
273.000824 87.849 4.7289
274.979095 87.861 4.7567
276.971710 87.875 4.7799
278.978760 87.890 4.7967
281.000336 87.907 4.8030
283.036591 87.926 4.7949
285.087585 87.946 4.7701
287.153442 87.966 4.7227
289.234283 87.985 4.6592
291.330200 88.000 4.5838
293.441284 88.014 4.4982
295.567688 88.026 4.4052
297.709503 88.037 4.3063
299.866821 88.045 4.2027
302.039795 88.051 4.0983
304.228485 88.055 3.9975
306.433044 88.057 3.9003
308.653595 88.058 3.8089
310.890228 88.059 3.7212
313.143066 88.059 3.6363
315.412231 88.059 3.5532
317.697845 88.058 3.4712
320.000000 88.057 3.3892
322.318848 88.056 3.3057
324.654510 88.053 3.2223
327.007080 88.048 3.1386
329.376709 88.042 3.0592
331.763519 88.033 2.9878
334.167603 88.023 2.9262
336.589142 88.012 2.8774
339.028198 88.000 2.8411
341.484924 87.989 2.8184
343.959473 87.978 2.8080
346.451935 87.968 2.8104
348.962463 87.959 2.8220
351.491211 87.952 2.8408
354.038239 87.947 2.8629
356.603760 87.944 2.8843
359.187866 87.943 2.9039
361.790680 87.942 2.9196
364.412354 87.941 2.9320
367.053040 87.941 2.9409
369.712860 87.941 2.9470
372.391968 87.941 2.9508
375.090454 87.941 2.9530
377.808533 87.941 2.9544
380.546265 87.941 2.9550
383.303864 87.941 2.9553
386.081451 87.941 2.9550
388.879150 87.941 2.9537
391.697144 87.941 2.9520
394.535522 87.941 2.9505
397.394501 87.941 2.9490
400.274170 87.941 2.9476
403.174744 87.941 2.9460
406.096313 87.941 2.9441
409.039062 87.941 2.9420
412.003113 87.941 2.9399
414.988647 87.941 2.9380
417.995850 87.941 2.9364
421.024811 87.941 2.9350
424.075714 87.941 2.9335
427.148743 87.941 2.9320
430.244049 87.941 2.9304
433.361786 87.941 2.9290
436.502106 87.941 2.9279
439.665161 87.941 2.9270
442.851166 87.941 2.9264
446.060242 87.941 2.9260
449.292572 87.941 2.9254
452.548340 87.941 2.9250
455.827698 87.941 2.9249
459.130798 87.941 2.9250
462.457855 87.941 2.9254
465.809021 87.941 2.9260
469.184448 87.941 2.9264
472.584381 87.941 2.9270
476.008911 87.941 2.9279
479.458252 87.941 2.9290
482.932617 87.941 2.9299
486.432159 87.941 2.9310
489.957031 87.941 2.9329
493.507477 87.941 2.9350
497.083618 87.941 2.9369
500.685699 87.941 2.9390
504.313873 87.941 2.9414
507.968323 87.941 2.9440
511.649292 87.941 2.9469
515.356934 87.941 2.9500
519.091370 87.941 2.9529
522.852966 87.941 2.9560
526.641724 87.941 2.9594
530.458008 87.941 2.9630
534.301941 87.941 2.9669
538.173706 87.941 2.9710
542.073547 87.941 2.9754
546.001648 87.941 2.9800
549.958191 87.941 2.9844
553.943420 87.941 2.9890
557.957520 87.941 2.9939
562.000671 87.941 2.9990
566.073181 87.941 3.0044
570.175171 87.941 3.0100
574.306885 87.941 3.0154
578.468567 87.941 3.0210
582.660400 87.941 3.0269
586.882568 87.941 3.0330
591.135376 87.941 3.0389
595.419006 87.941 3.0450
599.733643 87.941 3.0514
604.079590 87.941 3.0580
608.456970 87.941 3.0645
612.866089 87.941 3.0710
617.307190 87.941 3.0775
621.780457 87.941 3.0840
626.286133 87.941 3.0905
630.824463 87.941 3.0970
635.395691 87.941 3.1035
640.000000 87.941 3.1100
644.637695 87.941 3.1161
649.309021 87.941 3.1220
654.014160 87.941 3.1276
658.753418 87.941 3.1330
663.527039 87.941 3.1382
668.335205 87.941 3.1430
673.178284 87.941 3.1468
678.056396 87.941 3.1500
682.969849 87.941 3.1530
687.918945 87.941 3.1550
692.903870 87.941 3.1553
697.924927 87.941 3.1540
702.982422 87.941 3.1512
708.076477 87.941 3.1460
713.207520 87.941 3.1380
718.375732 87.941 3.1261
723.581360 87.941 3.1091
728.824707 87.940 3.0871
734.106079 87.939 3.0594
739.425720 87.936 3.0261
744.783936 87.933 2.9860
750.180908 87.927 2.9432
755.617065 87.918 2.9003
761.092529 87.906 2.8601
766.607727 87.893 2.8249
772.162903 87.877 2.7981
777.758301 87.858 2.7827
783.394287 87.837 2.7830
789.071045 87.814 2.8041
794.789001 87.789 2.8468
800.548340 87.765 2.9138
806.349487 87.741 3.0046
812.192627 87.717 3.1200
818.078125 87.694 3.2585
824.006226 87.675 3.4218
829.977295 87.660 3.6013
835.991699 87.650 3.7910
842.049622 87.644 3.9843
848.151428 87.643 4.1739
854.297485 87.645 4.3563
860.488098 87.650 4.5260
866.723572 87.658 4.6815
873.004211 87.667 4.8187
879.330322 87.677 4.9396
885.702332 87.686 5.0428
892.120483 87.693 5.1347
898.585144 87.698 5.2199
905.096680 87.702 5.3017
911.655396 87.704 5.3847
918.261597 87.705 5.4697
924.915710 87.706 5.5592
931.618042 87.706 5.6527
938.368896 87.706 5.7502
945.168762 87.706 5.8516
952.017822 87.706 5.9568
958.916504 87.706 6.0656
965.865234 87.706 6.1773
972.864319 87.706 6.2926
979.914062 87.706 6.4115
987.014954 87.706 6.5345
994.167236 87.706 6.6620
1001.371399 87.706 6.7945
1008.627747 87.706 6.9328
1015.936646 87.706 7.0774
1023.298584 87.707 7.2293
1030.713867 87.708 7.3885
1038.182739 87.710 7.5560
1045.705933 87.713 7.7292
1053.283447 87.719 7.9074
1060.916016 87.726 8.0862
1068.603882 87.735 8.2614
1076.347412 87.746 8.4323
1084.147095 87.757 8.5968
1092.003296 87.769 8.7555
1099.916382 87.780 8.9072
1107.886841 87.791 9.0544
1115.915039 87.801 9.1972
1124.001343 87.809 9.3405
1132.146362 87.815 9.4876
1140.350342 87.819 9.6434
1148.613770 87.821 9.8135
1156.937134 87.823 9.9992
1165.320801 87.824 10.2029
1173.765137 87.826 10.4260
1182.270752 87.828 10.6712
1190.838013 87.833 10.9359
1199.467285 87.841 11.2195
1208.159180 87.852 11.5178
1216.913940 87.866 11.8268
1225.732178 87.883 12.1448
1234.614380 87.904 12.4710
1243.560913 87.930 12.7988
1252.572266 87.961 13.1224
1261.648926 87.996 13.4387
1270.791382 88.033 13.7415
1280.000000 88.073 14.0349
1289.275391 88.113 14.3212
1298.618042 88.154 14.5999
1308.028320 88.198 14.8712
1317.506836 88.244 15.1349
1327.054077 88.290 15.3897
1336.670410 88.338 15.6390
1346.356567 88.386 15.8866
1356.112793 88.436 16.1301
1365.939697 88.488 16.3689
1375.837891 88.543 16.6010
1385.807739 88.599 16.8238
1395.849854 88.656 17.0392
1405.964844 88.713 17.2475
1416.152954 88.772 17.4503
1426.415039 88.831 17.6488
1436.751465 88.892 17.8443
1447.162720 88.953 18.0391
1457.649414 89.017 18.2312
1468.212158 89.083 18.4204
1478.851440 89.153 18.6033
1489.567871 89.224 18.7773
1500.361816 89.299 18.9404
1511.234131 89.376 19.0912
1522.185059 89.456 19.2254
1533.215454 89.538 19.3380
1544.325806 89.621 19.4306
1555.516602 89.704 19.5020
1566.788574 89.787 19.5558
1578.142090 89.868 19.5947
1589.578003 89.950 19.6209
1601.096680 90.031 19.6365
1612.698975 90.112 19.6450
1624.385254 90.191 19.6504
1636.156250 90.271 19.6530
1648.012451 90.352 19.6555
1659.954590 90.436 19.6540
1671.983398 90.521 19.6462
1684.099243 90.609 19.6301
1696.302856 90.698 19.6035
1708.594971 90.790 19.5642
1720.976196 90.883 19.5107
1733.447144 90.979 19.4394
1746.008423 91.076 19.3451
1758.660645 91.174 19.2315
1771.404663 91.270 19.1002
1784.240967 91.367 18.9526
1797.170288 91.466 18.7926
1810.193359 91.566 18.6147
1823.310791 91.666 18.4143
1836.523193 91.768 18.1939
1849.831421 91.868 17.9548
1863.236084 91.969 17.6962
1876.737793 92.070 17.4182
1890.337524 92.172 17.1193
1904.035645 92.272 16.7979
1917.833008 92.373 16.4554
1931.730469 92.472 16.0918
1945.728638 92.570 15.7097
1959.828125 92.666 15.3114
1974.029907 92.762 14.8968
1988.334473 92.857 14.4681
2002.742798 92.953 14.0208
2017.255493 93.049 13.5507
2031.873291 93.144 13.0590
2046.597168 93.235 12.5447
2061.427734 93.326 12.0104
2076.365479 93.415 11.4587
2091.411865 93.503 10.8884
2106.566895 93.588 10.2984
2121.832031 93.671 9.6916
2137.207764 93.750 9.0701
2152.694824 93.828 8.4345
2168.294189 93.904 7.7868
2184.006592 93.979 7.1250
2199.832764 94.051 6.4475
2215.773682 94.121 5.7559
2231.830078 94.187 5.0508
2248.002686 94.251 4.3340
2264.292725 94.312 3.6068
2280.700684 94.371 2.8702
2297.227539 94.426 2.1243
2313.874268 94.479 1.3731
2330.641602 94.527 0.6209
2347.530273 94.574 -0.1328
2364.541504 94.620 -0.8863
2381.676025 94.664 -1.6416
2398.934570 94.706 -2.3999
2416.318359 94.747 -3.1616
2433.827881 94.788 -3.9249
2451.464355 94.829 -4.6968
2469.228760 94.872 -5.4830
2487.121826 94.914 -6.2855
2505.144531 94.953 -7.1082
2523.297852 94.991 -7.9511
2541.582764 95.029 -8.8138
2560.000000 95.065 -9.7020
2578.550781 95.099 -10.6226
2597.236084 95.130 -11.5715
2616.056641 95.154 -12.5483
2635.013672 95.173 -13.5497
2654.108154 95.188 -14.5727
2673.340820 95.196 -15.6164
2692.713135 95.197 -16.6816
2712.225586 95.189 -17.7609
2731.879395 95.172 -18.8488
2751.675781 95.146 -19.9400
2771.615479 95.113 -21.0295
2791.699707 95.069 -22.1112
2811.929688 95.014 -23.1824
2832.305908 94.948 -24.2272
2852.830078 94.870 -25.2326
2873.502930 94.780 -26.1870
2894.325439 94.682 -27.0760
2915.298828 94.576 -27.8944
2936.424316 94.463 -28.6345
2957.702881 94.346 -29.2893
2979.135742 94.224 -29.8492
3000.723633 94.103 -30.3152
3022.468262 93.985 -30.6806
3044.370117 93.874 -30.9589
3066.430908 93.774 -31.1553
3088.651611 93.686 -31.2885
3111.033203 93.613 -31.3726
3133.577148 93.554 -31.4268
3156.284180 93.513 -31.4675
3179.156006 93.489 -31.5177
3202.193359 93.483 -31.5984
3225.397949 93.493 -31.7322
3248.770508 93.518 -31.9436
3272.312500 93.554 -32.2474
3296.024902 93.598 -32.6648
3319.909180 93.645 -33.2012
3343.966797 93.691 -33.8715
3368.198486 93.733 -34.6689
3392.605713 93.764 -35.5964
3417.189941 93.781 -36.6389
3441.952393 93.780 -37.7901
3466.894287 93.758 -39.0263
3492.016846 93.711 -40.3332
3517.321289 93.635 -41.6767
3542.809326 93.529 -43.0308
3568.481934 93.391 -44.3570
3594.340576 93.220 -45.6212
3620.386719 93.017 -46.7848
3646.621582 92.782 -47.8117
3673.046387 92.516 -48.6595
3699.662842 92.220 -49.2846
3726.472168 91.900 -49.6530
3753.475586 91.560 -49.7203
3780.675049 91.209 -49.4738
3808.071289 90.853 -48.8834
3835.666016 90.505 -47.9582
3863.460938 90.172 -46.6854
3891.457275 89.867 -45.1012
3919.656250 89.604 -43.2172
3948.059814 89.392 -41.0953
3976.668945 89.244 -38.7777
4005.485596 89.164 -36.3371
4034.510986 89.159 -33.8366
4063.746582 89.227 -31.3477
4093.194336 89.370 -28.9429
4122.855469 89.579 -26.6826
4152.730957 89.848 -24.6394
4182.823730 90.166 -22.8498
4213.133789 90.522 -21.3704
4243.664062 90.905 -20.2117
4274.415527 91.304 -19.4069
4305.389648 91.709 -18.9444
4336.588379 92.109 -18.8342
4368.013184 92.499 -19.0453
4399.665527 92.870 -19.5625
4431.547363 93.218 -20.3476
4463.660156 93.539 -21.3706
4496.005371 93.832 -22.5914
4528.585449 94.094 -23.9712
4561.401367 94.326 -25.4766
4594.455078 94.529 -27.0700
4627.748535 94.703 -28.7258
4661.283203 94.850 -30.4119
4695.060547 94.971 -32.1097
4729.083008 95.071 -33.7930
4763.352051 95.150 -35.4522
4797.869141 95.211 -37.0701
4832.636719 95.258 -38.6432
4867.655762 95.292 -40.1619
4902.928711 95.316 -41.6280
4938.457520 95.332 -43.0389
4974.243652 95.342 -44.3987
5010.289062 95.348 -45.7082
5046.595703 95.351 -46.9738
5083.165527 95.353 -48.2004
5120.000000 95.353 -49.3932
5157.101562 95.353 -50.5576
5194.472168 95.353 -51.6975
5232.113281 95.354 -52.8178
5270.027344 95.356 -53.9215
5308.216309 95.358 -55.0112
5346.681641 95.362 -56.0927
5385.426270 95.370 -57.1703
5424.451172 95.381 -58.2507
5463.758789 95.394 -59.3400
5503.351562 95.410 -60.4446
5543.230957 95.430 -61.5702
5583.399414 95.452 -62.7253
5623.859375 95.477 -63.9176
5664.611816 95.503 -65.1538
5705.660156 95.529 -66.4418
5747.005859 95.554 -67.7849
5788.650879 95.577 -69.1898
5830.597656 95.596 -70.6533
5872.848633 95.608 -72.1774
5915.405762 95.611 -73.7537
5958.271484 95.605 -75.3763
6001.447266 95.588 -77.0393
6044.936523 95.561 -78.7382
6088.740234 95.522 -80.4633
6132.861816 95.470 -82.2058
6177.303223 95.405 -83.9582
6222.066406 95.330 -85.7118
6267.154297 95.241 -87.4603
6312.568359 95.140 -89.1974
6358.312012 95.027 -90.9144
6404.386719 94.902 -92.6023
6450.795898 94.766 -94.2556
6497.541016 94.619 -95.8674
6544.625000 94.463 -97.4333
6592.049805 94.298 -98.9464
6639.818359 94.126 -100.4076
6687.933594 93.948 -101.8141
6736.396973 93.766 -103.1701
6785.211426 93.581 -104.4778
6834.379883 93.394 -105.7406
6883.904785 93.203 -106.9625
6933.788574 93.010 -108.1440
6984.033691 92.815 -109.2877
7034.642578 92.618 -110.3916
7085.618652 92.417 -111.4538
7136.963867 92.214 -112.4760
7188.681152 92.012 -113.4577
7240.773438 91.809 -114.4033
7293.243164 91.605 -115.3146
7346.092773 91.403 -116.1986
7399.325684 91.204 -117.0583
7452.944336 91.007 -117.9077
7506.951172 90.814 -118.7586
7561.350098 90.623 -119.6215
7616.142578 90.432 -120.5090
7671.332031 90.240 -121.4262
7726.921875 90.044 -122.3810
7782.914551 89.843 -123.3768
7839.312500 89.635 -124.4244
7896.119629 89.414 -125.5102
7953.337891 89.173 -126.6360
8010.971191 88.909 -127.7651
8069.021973 88.619 -128.8775
8127.493164 88.298 -129.9237
8186.388672 87.943 -130.8690
8245.710938 87.554 -131.6484
8305.461914 87.126 -132.2069
8365.647461 86.665 -132.4804
8426.267578 86.170 -132.3993
8487.328125 85.654 -131.9246
8548.831055 85.121 -130.9906
8610.779297 84.592 -129.6085
8673.176758 84.081 -127.7456
8736.026367 83.608 -125.4704
8799.331055 83.194 -122.8078
8863.094727 82.853 -119.8572
8927.320312 82.606 -116.6884
8992.010742 82.457 -113.4164
9057.170898 82.418 -110.1475
9122.802734 82.476 -106.9783
9188.910156 82.628 -104.0259
9255.497070 82.854 -101.3357
9322.566406 83.136 -98.9878
9390.121094 83.463 -96.9955
9458.166016 83.822 -95.4029
9526.704102 84.201 -94.1973
9595.738281 84.584 -93.3919
9665.273438 84.967 -92.9534
9735.311523 85.340 -92.8616
9805.857422 85.702 -93.0899
9876.915039 86.048 -93.6140
9948.487305 86.374 -94.4070
10020.578125 86.679 -95.4450
10093.191406 86.960 -96.6957
10166.331055 87.213 -98.1276
10240.000000 87.441 -99.7143
10314.203125 87.644 -101.4249
10388.944336 87.823 -103.2411
10464.226562 87.979 -105.1375
10540.054688 88.114 -107.1041
10616.432617 88.231 -109.1228
10693.363281 88.330 -111.1935
10770.852539 88.417 -113.3092
10848.902344 88.490 -115.4761
10927.517578 88.551 -117.6951
11006.703125 88.601 -119.9765
11086.461914 88.640 -122.3260
11166.798828 88.668 -124.7573
11247.718750 88.685 -127.2840
11329.223633 88.687 -129.9112
11411.320312 88.672 -132.6489
11494.011719 88.636 -135.4953
11577.301758 88.579 -138.4536
11661.195312 88.496 -141.5187
11745.697266 88.385 -144.6934
11830.811523 88.241 -147.9571
11916.542969 88.059 -151.2973
12002.894531 87.837 -154.6920
12089.873047 87.576 -158.1227
12177.480469 87.272 -161.5674
12265.723633 86.921 -165.0130
12354.606445 86.519 -168.4148
12444.132812 86.062 -171.7423
12534.308594 85.550 -174.9391
12625.136719 84.981 -177.9619
12716.624023 84.351 179.2599
12808.773438 83.659 176.7832
12901.591797 82.903 174.6926
12995.082031 82.082 173.0577
13089.250000 81.198 171.9828
13184.099609 80.248 171.5618
13279.636719 79.243 171.8942
13375.867188 78.186 173.0906
13472.793945 77.097 175.2122
13570.422852 75.985 178.3694
13668.759766 74.890 -177.4747
13767.809570 73.835 -172.2575
13867.577148 72.885 -166.1687
13968.067383 72.097 -159.2833
14069.285156 71.522 -151.8871
14171.237305 71.233 -144.1954
14273.927734 71.215 -136.4973
14377.362305 71.501 -129.0808
14481.546875 72.016 -122.1649
14586.486328 72.719 -116.0380
14692.185547 73.549 -110.7788
14798.651367 74.437 -106.5783
14905.888672 75.362 -103.3935
15013.902344 76.280 -101.2768
15122.700195 77.180 -100.1269
15232.285156 78.037 -99.8880
15342.664062 78.849 -100.4721
15453.843750 79.610 -101.7912
15565.829102 80.311 -103.7914
15678.625000 80.948 -106.4113
15792.239258 81.510 -109.5844
15906.675781 81.988 -113.2566
16021.942383 82.378 -117.3300
16138.043945 82.673 -121.7244
16254.986328 82.874 -126.3318
16372.777344 82.979 -131.0542
16491.421875 82.989 -135.7820
16610.923828 82.905 -140.4020
16731.294922 82.735 -144.8260
16852.535156 82.482 -148.9426
16974.656250 82.159 -152.7074
17097.662109 81.775 -156.0388
17221.558594 81.346 -158.9368
17346.353516 80.883 -161.3617
17472.052734 80.401 -163.3522
17598.662109 79.916 -164.9105
17726.189453 79.439 -166.1080
17854.640625 78.986 -166.9930
17984.021484 78.560 -167.6380
18114.341797 78.170 -168.1158
18245.605469 77.812 -168.4742
18377.820312 77.488 -168.7787
18510.994141 77.189 -169.0485
18645.132812 76.911 -169.3330
18780.242188 76.644 -169.6056
18916.332031 76.375 -169.8646
19053.408203 76.107 -170.0829
19191.476562 75.838 -170.2327
19330.546875 75.572 -170.3138
19470.623047 75.308 -170.3150
19611.714844 75.050 -170.2416
19753.830078 74.802 -170.0855
19896.974609 74.568 -169.8764
