* Measurement data measured by REW V5.20.13
* Source: C:\Users\kurin\Desktop\Targets and Curves\Resolve\Img\Files\Moondrop venus_SPL.txt
* Format: Comma/Tab/Space delimited data
* Dated: Aug 14, 2023 6:24:48 PM
* REW Settings:
*  C-weighting compensation: Off
*  Target level: 75.0 dB
* Note: ; Measurement imported from C:\Users\kurin\Desktop\Targets and Curves\Resolve\Img\Files\Moondrop venus_SPL.txt Format: Comma/Tab/Space delimited data 623 values loaded, 5 Hz to 39,792 Hz log spaced 
* Measurement: Moondrop venus_SPL
* Smoothing: 1/48 octave
* Frequency Step: 1/96 octave
* Start Frequency: 5.000 Hz
*
* Freq(Hz) SPL(dB) Phase(degrees)
5.000000 90.607 -7.4270
5.036232 90.604 -7.4208
5.072727 90.601 -7.4140
5.109486 90.598 -7.4056
5.146511 90.594 -7.3960
5.183805 90.589 -7.3854
5.221369 90.583 -7.3740
5.259205 90.578 -7.3619
5.297316 90.572 -7.3490
5.335702 90.566 -7.3352
5.374367 90.559 -7.3210
5.413311 90.552 -7.3070
5.452538 90.546 -7.2930
5.492050 90.539 -7.2791
5.531847 90.533 -7.2650
5.571934 90.526 -7.2506
5.612310 90.520 -7.2360
5.652979 90.514 -7.2216
5.693943 90.508 -7.2070
5.735204 90.502 -7.1921
5.776763 90.495 -7.1770
5.818624 90.489 -7.1620
5.860788 90.482 -7.1470
5.903258 90.476 -7.1321
5.946035 90.469 -7.1170
5.989123 90.463 -7.1016
6.032523 90.456 -7.0860
6.076237 90.449 -7.0706
6.120268 90.443 -7.0550
6.164618 90.437 -7.0391
6.209289 90.431 -7.0230
6.254284 90.425 -7.0071
6.299605 90.418 -6.9910
6.345255 90.411 -6.9746
6.391235 90.405 -6.9580
6.437549 90.398 -6.9416
6.484198 90.392 -6.9250
6.531185 90.385 -6.9081
6.578513 90.379 -6.8910
6.626183 90.373 -6.8740
6.674199 90.367 -6.8570
6.722563 90.361 -6.8401
6.771278 90.354 -6.8230
6.820345 90.348 -6.8051
6.869768 90.341 -6.7870
6.919549 90.335 -6.7696
6.969691 90.328 -6.7520
7.020196 90.322 -6.7336
7.071068 90.315 -6.7150
7.122308 90.308 -6.6971
7.173919 90.302 -6.6790
7.225904 90.296 -6.6601
7.278266 90.290 -6.6410
7.331007 90.284 -6.6220
7.384131 90.277 -6.6030
7.437639 90.271 -6.5841
7.491535 90.264 -6.5650
7.545822 90.257 -6.5456
7.600502 90.251 -6.5260
7.655579 90.244 -6.5061
7.711054 90.238 -6.4860
7.766932 90.232 -6.4655
7.823214 90.226 -6.4450
7.879904 90.220 -6.4251
7.937005 90.213 -6.4050
7.994520 90.206 -6.3841
8.052452 90.200 -6.3630
8.110803 90.193 -6.3421
8.169578 90.187 -6.3210
8.228777 90.180 -6.2996
8.288406 90.174 -6.2780
8.348468 90.168 -6.2561
8.408964 90.162 -6.2340
8.469899 90.156 -6.2121
8.531276 90.149 -6.1900
8.593097 90.143 -6.1676
8.655366 90.136 -6.1450
8.718086 90.130 -6.1221
8.781260 90.123 -6.0990
8.844893 90.117 -6.0761
8.908987 90.110 -6.0530
8.973545 90.103 -6.0296
9.038571 90.097 -6.0060
9.104069 90.091 -5.9821
9.170040 90.085 -5.9580
9.236490 90.079 -5.9336
9.303422 90.072 -5.9090
9.370838 90.065 -5.8846
9.438744 90.059 -5.8600
9.507140 90.052 -5.8351
9.576033 90.046 -5.8100
9.645425 90.039 -5.7846
9.715320 90.033 -5.7590
9.785721 90.027 -5.7331
9.856632 90.021 -5.7070
9.928058 90.015 -5.6811
10.000000 90.008 -5.6550
10.072464 90.002 -5.6281
10.145453 89.995 -5.6010
10.218971 89.989 -5.5741
10.293022 89.982 -5.5470
10.367610 89.976 -5.5197
10.442738 89.969 -5.4920
10.518411 89.962 -5.4636
10.594631 89.956 -5.4350
10.671404 89.950 -5.4066
10.748734 89.944 -5.3780
10.826623 89.938 -5.3491
10.905077 89.931 -5.3200
10.984100 89.925 -5.2906
11.063695 89.918 -5.2610
11.143867 89.911 -5.2311
11.224621 89.905 -5.2010
11.305959 89.898 -5.1706
11.387886 89.892 -5.1400
11.470407 89.886 -5.1097
11.553527 89.880 -5.0790
11.637249 89.874 -5.0472
11.721577 89.867 -5.0150
11.806517 89.861 -4.9831
11.892071 89.854 -4.9510
11.978246 89.848 -4.9186
12.065045 89.841 -4.8860
12.152473 89.835 -4.8532
12.240536 89.828 -4.8200
12.329235 89.821 -4.7861
12.418578 89.815 -4.7520
12.508568 89.809 -4.7181
12.599211 89.803 -4.6840
12.690510 89.797 -4.6492
12.782471 89.790 -4.6140
12.875097 89.784 -4.5787
12.968395 89.777 -4.5430
13.062370 89.771 -4.5066
13.157025 89.764 -4.4700
13.252366 89.757 -4.4336
13.348398 89.751 -4.3970
13.445127 89.745 -4.3597
13.542556 89.739 -4.3220
13.640691 89.733 -4.2842
13.739536 89.726 -4.2460
13.839099 89.720 -4.2072
13.939383 89.713 -4.1680
14.040393 89.707 -4.1287
14.142136 89.700 -4.0890
14.244616 89.693 -4.0487
14.347837 89.687 -4.0080
14.451808 89.680 -3.9672
14.556532 89.674 -3.9260
14.662014 89.668 -3.8842
14.768262 89.662 -3.8420
14.875278 89.656 -3.7997
14.983070 89.649 -3.7570
15.091644 89.643 -3.7137
15.201005 89.636 -3.6700
15.311157 89.630 -3.6262
15.422109 89.623 -3.5820
15.533863 89.616 -3.5373
15.646428 89.610 -3.4920
15.759809 89.604 -3.4463
15.874010 89.598 -3.4000
15.989040 89.592 -3.3532
16.104904 89.585 -3.3060
16.221605 89.579 -3.2588
16.339155 89.572 -3.2111
16.457554 89.566 -3.1624
16.576813 89.559 -3.1130
16.696936 89.553 -3.0633
16.817928 89.546 -3.0130
16.939798 89.539 -2.9624
17.062551 89.533 -2.9111
17.186193 89.527 -2.8589
17.310732 89.521 -2.8060
17.436172 89.515 -2.7528
17.562521 89.508 -2.6990
17.689787 89.502 -2.6444
17.817974 89.495 -2.5891
17.947090 89.489 -2.5329
18.077143 89.482 -2.4760
18.208138 89.475 -2.4190
18.340080 89.469 -2.3611
18.472980 89.463 -2.3015
18.606844 89.457 -2.2410
18.741676 89.451 -2.1801
18.877487 89.444 -2.1181
19.014280 89.438 -2.0544
19.152065 89.431 -1.9891
19.290850 89.424 -1.9219
19.430639 89.418 -1.8530
19.571442 89.412 -1.7824
19.713264 89.407 -1.7101
19.856115 89.402 -1.6359
20.000000 89.397 -1.5611
20.144928 89.393 -1.4864
20.290907 89.389 -1.4131
20.437943 89.386 -1.3425
20.586044 89.383 -1.2750
20.735220 89.381 -1.2117
20.885475 89.378 -1.1521
21.036821 89.375 -1.0969
21.189262 89.372 -1.0441
21.342808 89.367 -0.9925
21.497467 89.361 -0.9401
21.653246 89.355 -0.8840
21.810154 89.348 -0.8251
21.968201 89.342 -0.7635
22.127390 89.335 -0.6991
22.287735 89.328 -0.6314
22.449242 89.322 -0.5621
22.611917 89.317 -0.4925
22.775772 89.311 -0.4231
22.940815 89.305 -0.3551
23.107054 89.298 -0.2871
23.274498 89.291 -0.2181
23.443153 89.284 -0.1481
23.613033 89.277 -0.0768
23.784142 89.270 -0.0041
23.956491 89.262 0.0696
24.130091 89.253 0.1459
24.304947 89.244 0.2265
24.481071 89.234 0.3109
24.658470 89.225 0.3995
24.837156 89.215 0.4919
25.017136 89.205 0.5863
25.198421 89.194 0.6869
25.381020 89.181 0.7967
25.564941 89.168 0.9179
25.750195 89.155 1.0537
25.936790 89.142 1.2038
26.124741 89.130 1.3694
26.314051 89.120 1.5487
26.504732 89.112 1.7426
26.696796 89.107 1.9447
26.890253 89.107 2.1508
27.085112 89.111 2.3558
27.281382 89.118 2.5540
27.479073 89.127 2.7428
27.678198 89.139 2.9189
27.878765 89.154 3.0778
28.080786 89.171 3.2125
28.284271 89.188 3.3269
28.489231 89.203 3.4212
28.695675 89.216 3.4999
28.903616 89.228 3.5659
29.113064 89.237 3.6239
29.324028 89.244 3.6788
29.536524 89.248 3.7329
29.750557 89.250 3.7899
29.966141 89.251 3.8509
30.183289 89.251 3.9180
30.402010 89.250 3.9919
30.622314 89.249 4.0745
30.844217 89.247 4.1639
31.067726 89.246 4.2596
31.292856 89.245 4.3598
31.519617 89.244 4.4625
31.748020 89.244 4.5679
31.978081 89.244 4.6756
32.209808 89.244 4.7859
32.443211 89.244 4.8984
32.678310 89.244 5.0138
32.915108 89.244 5.1328
33.153625 89.245 5.2549
33.393871 89.246 5.3800
33.635857 89.247 5.5068
33.879597 89.249 5.6347
34.125103 89.253 5.7608
34.372387 89.258 5.8828
34.621464 89.263 5.9988
34.872345 89.268 6.1059
35.125042 89.272 6.2059
35.379574 89.274 6.2987
35.635948 89.274 6.3879
35.894180 89.272 6.4758
36.154285 89.267 6.5659
36.416275 89.259 6.6598
36.680161 89.247 6.7658
36.945961 89.231 6.8910
37.213688 89.211 7.0408
37.483353 89.189 7.2213
37.754974 89.166 7.4366
38.028561 89.141 7.6903
38.304131 89.115 7.9896
38.581699 89.088 8.3425
38.861279 89.063 8.7503
39.142883 89.043 9.2196
39.426529 89.031 9.7422
39.712231 89.028 10.3165
40.000000 89.036 10.9301
40.289856 89.058 11.5764
40.581814 89.096 12.2370
40.875885 89.150 12.8995
41.172089 89.222 13.5391
41.470440 89.313 14.1345
41.770950 89.420 14.6632
42.073643 89.540 15.0967
42.378525 89.669 15.4316
42.685616 89.800 15.6525
42.994934 89.932 15.7679
43.306492 90.060 15.7780
43.620308 90.183 15.6922
43.936401 90.299 15.5136
44.254780 90.405 15.2615
44.575470 90.496 14.9489
44.898483 90.575 14.5976
45.223835 90.642 14.2326
45.551544 90.699 13.8575
45.881630 90.749 13.4839
46.214108 90.791 13.1126
46.548996 90.825 12.7459
46.886307 90.853 12.3906
47.226067 90.874 12.0542
47.568283 90.889 11.7365
47.912983 90.901 11.4387
48.260181 90.909 11.1644
48.609894 90.911 10.9166
48.962143 90.910 10.6983
49.316940 90.907 10.5141
49.674313 90.902 10.3632
50.034271 90.897 10.2467
50.396843 90.892 10.1641
50.762039 90.889 10.1172
51.129883 90.889 10.1000
51.500389 90.894 10.1105
51.873581 90.904 10.1389
52.249481 90.921 10.1782
52.628101 90.944 10.2179
53.009464 90.974 10.2487
53.393593 91.010 10.2610
53.780506 91.052 10.2445
54.170223 91.099 10.1921
54.562763 91.149 10.0931
54.958145 91.199 9.9483
55.356396 91.247 9.7528
55.757530 91.293 9.5134
56.161572 91.334 9.2313
56.568542 91.369 8.9175
56.978462 91.395 8.5799
57.391350 91.413 8.2297
57.807232 91.424 7.8791
58.226128 91.428 7.5336
58.648056 91.426 7.2008
59.073048 91.418 6.8865
59.501114 91.404 6.5990
59.932281 91.387 6.3384
60.366577 91.369 6.1093
60.804020 91.349 5.9073
61.244629 91.329 5.7301
61.688435 91.309 5.5762
62.135452 91.289 5.4452
62.585712 91.271 5.3322
63.039234 91.255 5.2331
63.496040 91.241 5.1451
63.956161 91.227 5.0638
64.419617 91.213 4.9901
64.886421 91.201 4.9245
65.356621 91.190 4.8641
65.830215 91.180 4.8065
66.307251 91.171 4.7511
66.787743 91.162 4.6954
67.271713 91.153 4.6421
67.759193 91.144 4.5935
68.250206 91.135 4.5491
68.744774 91.126 4.5096
69.242928 91.118 4.4741
69.744690 91.110 4.4419
70.250084 91.103 4.4131
70.759148 91.096 4.3874
71.271896 91.090 4.3640
71.788361 91.085 4.3428
72.308571 91.081 4.3210
72.832550 91.078 4.2963
73.360321 91.076 4.2681
73.891922 91.074 4.2342
74.427376 91.071 4.1971
74.966705 91.066 4.1573
75.509949 91.061 4.1181
76.057121 91.055 4.0831
76.608261 91.049 4.0521
77.163399 91.043 4.0260
77.722557 91.036 4.0050
78.285767 91.029 3.9903
78.853058 91.023 3.9800
79.424461 91.018 3.9736
80.000000 91.013 3.9680
80.579712 91.010 3.9599
81.163628 91.008 3.9490
81.751770 91.006 3.9333
82.344177 91.003 3.9150
82.940880 90.999 3.8945
83.541901 90.994 3.8750
84.147285 90.988 3.8601
84.757050 90.981 3.8500
85.371231 90.975 3.8459
85.989868 90.968 3.8480
86.612984 90.961 3.8570
87.240616 90.955 3.8720
87.872803 90.950 3.8930
88.509560 90.946 3.9169
89.150940 90.944 3.9408
89.796967 90.942 3.9640
90.447670 90.941 3.9850
91.103088 90.940 4.0040
91.763260 90.940 4.0200
92.428215 90.940 4.0340
93.097992 90.940 4.0462
93.772614 90.940 4.0570
94.452133 90.940 4.0664
95.136566 90.940 4.0750
95.825966 90.940 4.0832
96.520363 90.940 4.0910
97.219788 90.940 4.0986
97.924286 90.940 4.1060
98.633881 90.940 4.1131
99.348625 90.940 4.1200
100.068542 90.940 4.1265
100.793686 90.940 4.1330
101.524078 90.940 4.1399
102.259766 90.940 4.1470
103.000778 90.940 4.1540
103.747162 90.940 4.1610
104.498962 90.940 4.1679
105.256203 90.940 4.1750
106.018929 90.940 4.1824
106.787186 90.940 4.1900
107.561012 90.940 4.1979
108.340446 90.940 4.2060
109.125526 90.940 4.2144
109.916290 90.940 4.2230
110.712791 90.940 4.2314
111.515060 90.940 4.2400
112.323143 90.940 4.2493
113.137085 90.940 4.2590
113.956924 90.940 4.2688
114.782700 90.940 4.2790
115.614464 90.940 4.2899
116.452255 90.940 4.3010
117.296112 90.940 4.3118
118.146095 90.940 4.3230
119.002228 90.940 4.3352
119.864563 90.940 4.3480
120.733154 90.940 4.3608
121.608040 90.940 4.3740
122.489258 90.940 4.3873
123.376869 90.940 4.4010
124.270905 90.940 4.4152
125.171425 90.940 4.4300
126.078468 90.940 4.4457
126.992081 90.940 4.4620
127.912323 90.940 4.4783
128.839233 90.940 4.4950
129.772842 90.940 4.5122
130.713242 90.940 4.5300
131.660431 90.940 4.5486
132.614502 90.940 4.5679
133.575485 90.940 4.5876
134.543427 90.940 4.6080
135.518387 90.940 4.6291
136.500412 90.940 4.6510
137.489548 90.940 4.6731
138.485855 90.940 4.6959
139.489380 90.940 4.7200
140.500168 90.940 4.7449
141.518295 90.940 4.7706
142.543793 90.940 4.7969
143.576721 90.940 4.8239
144.617142 90.940 4.8519
145.665100 90.940 4.8813
146.720642 90.940 4.9119
147.783844 90.940 4.9438
148.854752 90.940 4.9769
149.933411 90.940 5.0112
151.019897 90.940 5.0469
152.114243 90.940 5.0840
153.216522 90.940 5.1229
154.326797 90.940 5.1640
155.445114 90.940 5.2079
156.571533 90.940 5.2551
157.706116 90.940 5.3059
158.848923 90.941 5.3606
160.000000 90.942 5.4189
161.159424 90.944 5.4808
162.327255 90.946 5.5449
163.503540 90.950 5.6105
164.688354 90.955 5.6749
165.881760 90.961 5.7346
167.083801 90.968 5.7909
168.294571 90.974 5.8435
169.514099 90.981 5.8929
170.742462 90.988 5.9391
171.979736 90.995 5.9829
173.225967 91.002 6.0243
174.481232 91.008 6.0649
175.745605 91.014 6.1067
177.019119 91.021 6.1479
178.301880 91.028 6.1870
179.593933 91.036 6.2249
180.895340 91.043 6.2623
182.206177 91.049 6.2989
183.526520 91.056 6.3348
184.856430 91.063 6.3699
186.195984 91.070 6.4038
187.545227 91.076 6.4379
188.904266 91.082 6.4742
190.273132 91.089 6.5109
191.651932 91.096 6.5465
193.040726 91.103 6.5819
194.439575 91.109 6.6178
195.848572 91.116 6.6539
197.267761 91.123 6.6902
198.697250 91.131 6.7269
200.137085 91.138 6.7640
201.587372 91.144 6.8029
203.048157 91.150 6.8456
204.519531 91.157 6.8909
206.001556 91.165 6.9381
207.494324 91.173 6.9869
208.997925 91.181 7.0368
210.512405 91.190 7.0869
212.037857 91.201 7.1368
213.574371 91.212 7.1839
215.122025 91.224 7.2240
216.680893 91.235 7.2609
218.251053 91.245 7.2973
219.832581 91.256 7.3329
221.425583 91.268 7.3693
223.030121 91.280 7.4039
224.646286 91.292 7.4334
226.274170 91.303 7.4619
227.913849 91.313 7.4933
229.565399 91.324 7.5259
231.228928 91.336 7.5603
232.904510 91.349 7.5939
234.592224 91.362 7.6234
236.292191 91.375 7.6509
238.004456 91.388 7.6784
239.729126 91.401 7.7039
241.466309 91.415 7.7256
243.216080 91.429 7.7450
244.978516 91.442 7.7620
246.753738 91.454 7.7789
248.541809 91.466 7.7985
250.342850 91.479 7.8199
252.156937 91.492 7.8436
253.984161 91.505 7.8689
255.824646 91.518 7.8961
257.678467 91.532 7.9239
259.545685 91.547 7.9521
261.426483 91.563 7.9789
263.320862 91.580 8.0027
265.229004 91.598 8.0229
267.150970 91.616 8.0384
269.086853 91.635 8.0500
271.036774 91.653 8.0582
273.000824 91.672 8.0630
274.979095 91.691 8.0647
276.971710 91.710 8.0630
278.978760 91.729 8.0574
281.000336 91.749 8.0480
283.036591 91.769 8.0352
285.087585 91.789 8.0181
287.153442 91.810 7.9955
289.234283 91.830 7.9691
291.330200 91.849 7.9396
293.441284 91.868 7.9081
295.567688 91.887 7.8757
297.709503 91.907 7.8421
299.866821 91.926 7.8075
302.039795 91.946 7.7711
304.228485 91.967 7.7337
306.433044 91.989 7.6911
308.653595 92.013 7.6395
310.890228 92.037 7.5792
313.143066 92.060 7.5088
315.412231 92.082 7.4292
317.697845 92.105 7.3408
320.000000 92.127 7.2443
322.318848 92.148 7.1393
324.654510 92.167 7.0303
327.007080 92.184 6.9218
329.376709 92.200 6.8143
331.763519 92.216 6.7116
334.167603 92.232 6.6093
336.589142 92.250 6.5053
339.028198 92.270 6.3963
341.484924 92.290 6.2788
343.959473 92.310 6.1514
346.451935 92.330 6.0117
348.962463 92.350 5.8594
351.491211 92.369 5.6926
354.038239 92.387 5.5135
356.603760 92.403 5.3234
359.187866 92.417 5.1236
361.790680 92.429 4.9161
364.412354 92.439 4.7006
367.053040 92.447 4.4771
369.712860 92.452 4.2477
372.391968 92.454 4.0136
375.090454 92.452 3.7787
377.808533 92.447 3.5458
380.546265 92.438 3.3197
383.303864 92.425 3.1038
386.081451 92.408 2.9045
388.879150 92.387 2.7284
391.697144 92.364 2.5784
394.535522 92.341 2.4617
397.394501 92.318 2.3722
400.274170 92.297 2.3080
403.174744 92.279 2.2641
406.096313 92.263 2.2366
409.039062 92.251 2.2200
412.003113 92.243 2.2092
414.988647 92.238 2.2000
417.995850 92.236 2.1877
421.024811 92.238 2.1691
424.075714 92.242 2.1407
427.148743 92.249 2.0982
430.244049 92.259 2.0373
433.361786 92.270 1.9543
436.502106 92.282 1.8446
439.665161 92.295 1.7065
442.851166 92.307 1.5366
446.060242 92.317 1.3347
449.292572 92.324 1.0971
452.548340 92.327 0.8309
455.827698 92.322 0.5373
459.130798 92.309 0.2300
462.457855 92.286 -0.0803
465.809021 92.253 -0.3831
469.184448 92.213 -0.6670
472.584381 92.164 -0.9243
476.008911 92.108 -1.1474
479.458252 92.043 -1.3245
482.932617 91.970 -1.4435
486.432159 91.892 -1.4969
489.957031 91.811 -1.4738
493.507477 91.729 -1.3734
497.083618 91.648 -1.1917
500.685699 91.569 -0.9290
504.313873 91.495 -0.5812
507.968323 91.430 -0.1585
511.649292 91.377 0.3375
515.356934 91.338 0.8851
519.091370 91.317 1.4696
522.852966 91.312 2.0680
526.641724 91.326 2.6570
530.458008 91.356 3.2222
534.301941 91.400 3.7450
538.173706 91.457 4.2155
542.073547 91.524 4.6197
546.001648 91.600 4.9520
549.958191 91.682 5.1997
553.943420 91.767 5.3696
557.957520 91.850 5.4617
562.000671 91.932 5.4840
566.073181 92.012 5.4441
570.175171 92.089 5.3434
574.306885 92.163 5.1840
578.468567 92.233 4.9718
582.660400 92.295 4.7101
586.882568 92.351 4.4091
591.135376 92.399 4.0781
595.419006 92.440 3.7233
599.733643 92.475 3.3531
604.079590 92.503 2.9704
608.456970 92.525 2.5794
612.866089 92.541 2.1833
617.307190 92.552 1.7870
621.780457 92.558 1.3903
626.286133 92.561 0.9950
630.824463 92.559 0.6003
635.395691 92.553 0.2053
640.000000 92.542 -0.1887
644.637695 92.527 -0.5807
649.309021 92.508 -0.9697
654.014160 92.484 -1.3560
658.753418 92.454 -1.7337
663.527039 92.419 -2.0980
668.335205 92.378 -2.4459
673.178284 92.333 -2.7731
678.056396 92.284 -3.0790
682.969849 92.231 -3.3629
687.918945 92.174 -3.6211
692.903870 92.113 -3.8495
697.924927 92.049 -4.0493
702.982422 91.985 -4.2205
708.076477 91.918 -4.3635
713.207520 91.849 -4.4808
718.375732 91.778 -4.5668
723.581360 91.704 -4.6172
728.824707 91.628 -4.6310
734.106079 91.553 -4.6037
739.425720 91.478 -4.5413
744.783936 91.406 -4.4487
750.180908 91.334 -4.3255
755.617065 91.263 -4.1718
761.092529 91.193 -3.9907
766.607727 91.127 -3.7834
772.162903 91.064 -3.5558
777.758301 91.004 -3.3168
783.394287 90.944 -3.0599
789.071045 90.882 -2.7851
794.789001 90.818 -2.4821
800.548340 90.754 -2.1425
806.349487 90.689 -1.7604
812.192627 90.625 -1.3292
818.078125 90.562 -0.8429
824.006226 90.503 -0.2909
829.977295 90.450 0.3197
835.991699 90.409 0.9927
842.049622 90.380 1.7063
848.151428 90.369 2.4479
854.297485 90.374 3.1943
860.488098 90.397 3.9246
866.723572 90.436 4.6195
873.004211 90.489 5.2572
879.330322 90.554 5.8241
885.702332 90.628 6.2978
892.120483 90.706 6.6828
898.585144 90.782 6.9707
905.096680 90.855 7.1784
911.655396 90.919 7.3140
918.261597 90.976 7.3958
924.915710 91.022 7.4383
931.618042 91.058 7.4599
938.368896 91.082 7.4790
945.168762 91.098 7.5098
952.017822 91.106 7.5716
958.916504 91.108 7.6686
965.865234 91.106 7.8111
972.864319 91.103 8.0002
979.914062 91.100 8.2414
987.014954 91.099 8.5318
994.167236 91.103 8.8741
1001.371399 91.114 9.2576
1008.627747 91.135 9.6771
1015.936646 91.166 10.1181
1023.298584 91.210 10.5711
1030.713867 91.267 11.0156
1038.182739 91.338 11.4341
1045.705933 91.423 11.8085
1053.283447 91.519 12.1185
1060.916016 91.624 12.3532
1068.603882 91.734 12.4953
1076.347412 91.848 12.5440
1084.147095 91.960 12.4892
1092.003296 92.068 12.3416
1099.916382 92.166 12.1025
1107.886841 92.255 11.7905
1115.915039 92.331 11.4194
1124.001343 92.395 11.0046
1132.146362 92.445 10.5620
1140.350342 92.483 10.1038
1148.613770 92.508 9.6437
1156.937134 92.522 9.1929
1165.320801 92.524 8.7626
1173.765137 92.514 8.3657
1182.270752 92.494 8.0170
1190.838013 92.465 7.7221
1199.467285 92.431 7.4924
1208.159180 92.394 7.3245
1216.913940 92.356 7.2214
1225.732178 92.319 7.1761
1234.614380 92.285 7.1865
1243.560913 92.255 7.2407
1252.572266 92.232 7.3291
1261.648926 92.213 7.4425
1270.791382 92.200 7.5695
1280.000000 92.190 7.7074
1289.275391 92.184 7.8479
1298.618042 92.179 7.9964
1308.028320 92.174 8.1530
1317.506836 92.170 8.3252
1327.054077 92.166 8.5216
1336.670410 92.166 8.7391
1346.356567 92.171 8.9805
1356.112793 92.182 9.2360
1365.939697 92.199 9.5006
1375.837891 92.224 9.7629
1385.807739 92.258 10.0146
1395.849854 92.299 10.2412
1405.964844 92.347 10.4254
1416.152954 92.399 10.5676
1426.415039 92.450 10.6590
1436.751465 92.499 10.7089
1447.162720 92.544 10.7194
1457.649414 92.585 10.7031
1468.212158 92.619 10.6695
1478.851440 92.648 10.6301
1489.567871 92.671 10.5994
1500.361816 92.691 10.5791
1511.234131 92.709 10.5760
1522.185059 92.725 10.5889
1533.215454 92.741 10.6192
1544.325806 92.757 10.6648
1555.516602 92.774 10.7260
1566.788574 92.792 10.7967
1578.142090 92.813 10.8707
1589.578003 92.835 10.9477
1601.096680 92.856 11.0238
1612.698975 92.878 11.1027
1624.385254 92.900 11.1864
1636.156250 92.921 11.2756
1648.012451 92.942 11.3704
1659.954590 92.962 11.4736
1671.983398 92.982 11.5866
1684.099243 93.002 11.7144
1696.302856 93.021 11.8621
1708.594971 93.040 12.0312
1720.976196 93.061 12.2258
1733.447144 93.085 12.4440
1746.008423 93.113 12.6878
1758.660645 93.146 12.9499
1771.404663 93.187 13.2279
1784.240967 93.235 13.5089
1797.170288 93.291 13.7807
1810.193359 93.354 14.0390
1823.310791 93.421 14.2761
1836.523193 93.493 14.4892
1849.831421 93.570 14.6750
1863.236084 93.651 14.8284
1876.737793 93.734 14.9413
1890.337524 93.819 15.0187
1904.035645 93.901 15.0618
1917.833008 93.983 15.0740
1931.730469 94.063 15.0580
1945.728638 94.141 15.0182
1959.828125 94.214 14.9554
1974.029907 94.283 14.8833
1988.334473 94.345 14.8127
2002.742798 94.402 14.7542
2017.255493 94.455 14.7211
2031.873291 94.508 14.7160
2046.597168 94.561 14.7457
2061.427734 94.616 14.8096
2076.365479 94.674 14.9115
2091.411865 94.738 15.0454
2106.566895 94.810 15.2128
2121.832031 94.894 15.3942
2137.207764 94.992 15.5777
2152.694824 95.103 15.7424
2168.294189 95.227 15.8676
2184.006592 95.361 15.9408
2199.832764 95.504 15.9437
2215.773682 95.652 15.8734
2231.830078 95.803 15.7209
2248.002686 95.955 15.4871
2264.292725 96.106 15.1672
2280.700684 96.253 14.7699
2297.227539 96.393 14.2976
2313.874268 96.526 13.7643
2330.641602 96.651 13.1818
2347.530273 96.768 12.5588
2364.541504 96.875 11.9047
2381.676025 96.975 11.2281
2398.934570 97.064 10.5372
2416.318359 97.146 9.8421
2433.827881 97.218 9.1513
2451.464355 97.283 8.4778
2469.228760 97.338 7.8356
2487.121826 97.389 7.2295
2505.144531 97.439 6.6730
2523.297852 97.491 6.1533
2541.582764 97.548 5.6671
2560.000000 97.611 5.1990
2578.550781 97.681 4.7365
2597.236084 97.757 4.2672
2616.056641 97.839 3.7777
2635.013672 97.927 3.2593
2654.108154 98.019 2.6990
2673.340820 98.114 2.0957
2692.713135 98.208 1.4441
2712.225586 98.302 0.7444
2731.879395 98.395 -0.0028
2751.675781 98.488 -0.8032
2771.615479 98.579 -1.6631
2791.699707 98.665 -2.5798
2811.929688 98.742 -3.5552
2832.305908 98.811 -4.5811
2852.830078 98.870 -5.6551
2873.502930 98.917 -6.7611
2894.325439 98.947 -7.8927
2915.298828 98.961 -9.0179
2936.424316 98.955 -10.1079
2957.702881 98.935 -11.1476
2979.135742 98.907 -12.1104
3000.723633 98.873 -13.0023
3022.468262 98.836 -13.8176
3044.370117 98.798 -14.5637
3066.430908 98.763 -15.2404
3088.651611 98.732 -15.8653
3111.033203 98.710 -16.4512
3133.577148 98.695 -17.0124
3156.284180 98.685 -17.5669
3179.156006 98.680 -18.1154
3202.193359 98.677 -18.6649
3225.397949 98.676 -19.2144
3248.770508 98.678 -19.7656
3272.312500 98.681 -20.3175
3296.024902 98.685 -20.8683
3319.909180 98.692 -21.4224
3343.966797 98.703 -21.9820
3368.198486 98.716 -22.5523
3392.605713 98.730 -23.1408
3417.189941 98.744 -23.7432
3441.952393 98.757 -24.3585
3466.894287 98.768 -24.9832
3492.016846 98.779 -25.6161
3517.321289 98.787 -26.2491
3542.809326 98.791 -26.8793
3568.481934 98.793 -27.4892
3594.340576 98.790 -28.0589
3620.386719 98.789 -28.5925
3646.621582 98.799 -29.0808
3673.046387 98.819 -29.5448
3699.662842 98.850 -29.9924
3726.472168 98.898 -30.4548
3753.475586 98.968 -30.9506
3780.675049 99.056 -31.5262
3808.071289 99.163 -32.2284
3835.666016 99.279 -33.0746
3863.460938 99.395 -34.1016
3891.457275 99.505 -35.2969
3919.656250 99.604 -36.6698
3948.059814 99.685 -38.1917
3976.668945 99.739 -39.8565
4005.485596 99.763 -41.6043
4034.510986 99.748 -43.3891
4063.746582 99.701 -45.1627
4093.194336 99.627 -46.8646
4122.855469 99.531 -48.4853
4152.730957 99.416 -49.9930
4182.823730 99.290 -51.3946
4213.133789 99.158 -52.6782
4243.664062 99.025 -53.8695
4274.415527 98.896 -54.9798
4305.389648 98.773 -56.0409
4336.588379 98.659 -57.0848
4368.013184 98.549 -58.1230
4399.665527 98.438 -59.1782
4431.547363 98.326 -60.2487
4463.660156 98.210 -61.3423
4496.005371 98.089 -62.4534
4528.585449 97.957 -63.5825
4561.401367 97.815 -64.7196
4594.455078 97.661 -65.8568
4627.748535 97.495 -66.9885
4661.283203 97.315 -68.1114
4695.060547 97.120 -69.2107
4729.083008 96.906 -70.2789
4763.352051 96.673 -71.2904
4797.869141 96.420 -72.2268
4832.636719 96.144 -73.0581
4867.655762 95.846 -73.7612
4902.928711 95.526 -74.2969
4938.457520 95.180 -74.6290
4974.243652 94.815 -74.7252
5010.289062 94.435 -74.5455
5046.595703 94.047 -74.0761
5083.165527 93.657 -73.2886
5120.000000 93.275 -72.1862
5157.101562 92.908 -70.7528
5194.472168 92.568 -69.0192
5232.113281 92.267 -66.9923
5270.027344 92.014 -64.7279
5308.216309 91.821 -62.2634
5346.681641 91.691 -59.6620
5385.426270 91.633 -56.9797
5424.451172 91.644 -54.2752
5463.758789 91.727 -51.6068
5503.351562 91.878 -49.0313
5543.230957 92.096 -46.6113
5583.399414 92.371 -44.3873
5623.859375 92.696 -42.4151
5664.611816 93.063 -40.7116
5705.660156 93.462 -39.3080
5747.005859 93.887 -38.2178
5788.650879 94.334 -37.4610
5830.597656 94.794 -37.0502
5872.848633 95.260 -37.0075
5915.405762 95.724 -37.3244
5958.271484 96.177 -38.0045
6001.447266 96.615 -39.0338
6044.936523 97.033 -40.4082
6088.740234 97.424 -42.1027
6132.861816 97.778 -44.1073
6177.303223 98.092 -46.3720
6222.066406 98.357 -48.8611
6267.154297 98.575 -51.5213
6312.568359 98.744 -54.3064
6358.312012 98.863 -57.1596
6404.386719 98.928 -60.0256
6450.795898 98.947 -62.8536
6497.541016 98.920 -65.5816
6544.625000 98.855 -68.1873
6592.049805 98.760 -70.6296
6639.818359 98.639 -72.9037
6687.933594 98.495 -74.9903
6736.396973 98.336 -76.8927
6785.211426 98.168 -78.6020
6834.379883 97.997 -80.1355
6883.904785 97.827 -81.5027
6933.788574 97.661 -82.7191
6984.033691 97.501 -83.7995
7034.642578 97.350 -84.7565
7085.618652 97.211 -85.6005
7136.963867 97.087 -86.3534
7188.681152 96.982 -87.0334
7240.773438 96.897 -87.6619
7293.243164 96.831 -88.2591
7346.092773 96.787 -88.8470
7399.325684 96.768 -89.4422
7452.944336 96.774 -90.0816
7506.951172 96.808 -90.7942
7561.350098 96.868 -91.6204
7616.142578 96.952 -92.5971
7671.332031 97.056 -93.7644
7726.921875 97.179 -95.1649
7782.914551 97.310 -96.8277
7839.312500 97.443 -98.7942
7896.119629 97.566 -101.0711
7953.337891 97.672 -103.6841
8010.971191 97.751 -106.6167
8069.021973 97.792 -109.8733
8127.493164 97.788 -113.4165
8186.388672 97.732 -117.2393
8245.710938 97.610 -121.2544
8305.461914 97.407 -125.4077
8365.647461 97.126 -129.5920
8426.267578 96.761 -133.7078
8487.328125 96.314 -137.6756
8548.831055 95.786 -141.4099
8610.779297 95.174 -144.8279
8673.176758 94.474 -147.8491
8736.026367 93.692 -150.3808
8799.331055 92.830 -152.3346
8863.094727 91.900 -153.6162
8927.320312 90.915 -154.1344
8992.010742 89.880 -153.7923
9057.170898 88.793 -152.4771
9122.802734 87.681 -150.1441
9188.910156 86.557 -146.6926
9255.497070 85.458 -142.1783
9322.566406 84.397 -136.5491
9390.121094 83.461 -130.0296
9458.166016 82.731 -122.7165
9526.704102 82.248 -114.9468
9595.738281 82.092 -106.9925
9665.273438 82.226 -99.1476
9735.311523 82.664 -91.7324
9805.857422 83.318 -84.9407
9876.915039 84.122 -79.0573
9948.487305 85.022 -74.1289
10020.578125 85.949 -70.3353
10093.191406 86.878 -67.5574
10166.331055 87.758 -65.7859
10240.000000 88.599 -64.8668
10314.203125 89.391 -64.6738
10388.944336 90.142 -65.1116
10464.226562 90.852 -66.0647
10540.054688 91.521 -67.4655
10616.432617 92.147 -69.2176
10693.363281 92.737 -71.2948
10770.852539 93.296 -73.6332
10848.902344 93.826 -76.2511
10927.517578 94.330 -79.1459
11006.703125 94.801 -82.3171
11086.461914 95.233 -85.7669
11166.798828 95.627 -89.4846
11247.718750 95.982 -93.4639
11329.223633 96.294 -97.6945
11411.320312 96.558 -102.1731
11494.011719 96.771 -106.8730
11577.301758 96.927 -111.7750
11661.195312 97.025 -116.8534
11745.697266 97.064 -122.0865
11830.811523 97.040 -127.4427
11916.542969 96.950 -132.9081
12002.894531 96.784 -138.4065
12089.873047 96.534 -143.8936
12177.480469 96.201 -149.2600
12265.723633 95.782 -154.4235
12354.606445 95.277 -159.2579
12444.132812 94.682 -163.6531
12534.308594 94.000 -167.4791
12625.136719 93.225 -170.5793
12716.624023 92.385 -172.9227
12808.773438 91.494 -174.3865
12901.591797 90.587 -175.0920
12995.082031 89.693 -175.0562
13089.250000 88.844 -174.4721
13184.099609 88.081 -173.4746
13279.636719 87.414 -172.2595
13375.867188 86.882 -171.0316
13472.793945 86.448 -169.8989
13570.422852 86.104 -169.0610
13668.759766 85.804 -168.4480
13767.809570 85.505 -168.1199
13867.577148 85.187 -167.8824
13968.067383 84.814 -167.6215
14069.285156 84.390 -167.1506
14171.237305 83.897 -166.2706
14273.927734 83.368 -164.9027
14377.362305 82.810 -162.8716
14481.546875 82.277 -160.2699
14586.486328 81.811 -157.0612
14692.185547 81.451 -153.4618
14798.651367 81.255 -149.6029
14905.888672 81.211 -145.7093
15013.902344 81.340 -142.0014
15122.700195 81.602 -138.6259
15232.285156 81.976 -135.7890
15342.664062 82.424 -133.5318
15453.843750 82.906 -131.9777
15565.829102 83.403 -131.0850
15678.625000 83.887 -130.8783
15792.239258 84.349 -131.2763
15906.675781 84.772 -132.2269
16021.942383 85.156 -133.6670
16138.043945 85.497 -135.5331
16254.986328 85.786 -137.7730
16372.777344 86.018 -140.3354
16491.421875 86.188 -143.1548
16610.923828 86.296 -146.1813
16731.294922 86.333 -149.3156
16852.535156 86.289 -152.4782
16974.656250 86.174 -155.5588
17097.662109 85.987 -158.4357
17221.558594 85.743 -161.0610
17346.353516 85.451 -163.3439
17472.052734 85.127 -165.2912
17598.662109 84.782 -166.8537
17726.189453 84.438 -168.1105
17854.640625 84.120 -169.0864
17984.021484 83.833 -169.8988
18114.341797 83.595 -170.6499
18245.605469 83.390 -171.4115
18377.820312 83.216 -172.2867
18510.994141 83.057 -173.2838
18645.132812 82.905 -174.4648
18780.242188 82.740 -175.7696
18916.332031 82.542 -177.1962
19053.408203 82.306 -178.6300
19191.476562 82.019 -179.9798
19330.546875 81.692 178.8279
19470.623047 81.329 177.9018
19611.714844 80.946 177.2261
19753.830078 80.557 176.8327
19896.974609 80.170 176.6852
