* Measurement data measured by REW V5.20.13
* Source: C:\Users\kurin\Desktop\Targets and Curves\Resolve\Img\Files\Svyhouk fanny unicorn_SPL.txt
* Format: Comma/Tab/Space delimited data
* Dated: Aug 14, 2023 6:59:29 PM
* REW Settings:
*  C-weighting compensation: Off
*  Target level: 75.0 dB
* Note: ; Measurement imported from C:\Users\kurin\Desktop\Targets and Curves\Resolve\Img\Files\Svyhouk fanny unicorn_SPL.txt Format: Comma/Tab/Space delimited data 623 values loaded, 5 Hz to 39,792 Hz log spaced 
* Measurement: Svyhouk fanny unicorn_SPL
* Smoothing: 1/48 octave
* Frequency Step: 1/96 octave
* Start Frequency: 5.000 Hz
*
* Freq(Hz) SPL(dB) Phase(degrees)
5.000000 63.924 117.8170
5.036232 63.962 117.7972
5.072727 64.004 117.7760
5.109486 64.052 117.7516
5.146511 64.108 117.7240
5.183805 64.175 117.6917
5.221369 64.248 117.6580
5.259205 64.323 117.6263
5.297316 64.402 117.5940
5.335702 64.485 117.5592
5.374367 64.571 117.5240
5.413311 64.656 117.4903
5.452538 64.741 117.4570
5.492050 64.826 117.4236
5.531847 64.911 117.3900
5.571934 64.996 117.3561
5.612310 65.081 117.3220
5.652979 65.166 117.2876
5.693943 65.251 117.2530
5.735204 65.336 117.2181
5.776763 65.421 117.1830
5.818624 65.506 117.1481
5.860788 65.591 117.1130
5.903258 65.676 117.0776
5.946035 65.761 117.0420
5.989123 65.845 117.0061
6.032523 65.930 116.9700
6.076237 66.015 116.9341
6.120268 66.100 116.8980
6.164618 66.185 116.8612
6.209289 66.270 116.8240
6.254284 66.355 116.7866
6.299605 66.440 116.7490
6.345255 66.525 116.7116
6.391235 66.610 116.6740
6.437549 66.695 116.6356
6.484198 66.780 116.5970
6.531185 66.865 116.5586
6.578513 66.950 116.5200
6.626183 67.035 116.4812
6.674199 67.120 116.4420
6.722563 67.205 116.4021
6.771278 67.290 116.3620
6.820345 67.374 116.3221
6.869768 67.459 116.2820
6.919549 67.544 116.2417
6.969691 67.629 116.2010
7.020196 67.714 116.1596
7.071068 67.799 116.1180
7.122308 67.884 116.0766
7.173919 67.969 116.0350
7.225904 68.054 115.9927
7.278266 68.139 115.9500
7.331007 68.224 115.9071
7.384131 68.309 115.8640
7.437639 68.394 115.8206
7.491535 68.479 115.7770
7.545822 68.564 115.7331
7.600502 68.649 115.6890
7.655579 68.733 115.6446
7.711054 68.818 115.6000
7.766932 68.903 115.5551
7.823214 68.988 115.5100
7.879904 69.073 115.4647
7.937005 69.158 115.4190
7.994520 69.243 115.3727
8.052452 69.328 115.3260
8.110803 69.413 115.2792
8.169578 69.498 115.2320
8.228777 69.583 115.1842
8.288406 69.668 115.1360
8.348468 69.753 115.0881
8.408964 69.838 115.0400
8.469899 69.923 114.9912
8.531276 70.008 114.9420
8.593097 70.093 114.8927
8.655366 70.178 114.8430
8.718086 70.262 114.7932
8.781260 70.347 114.7430
8.844893 70.432 114.6922
8.908987 70.517 114.6410
8.973545 70.602 114.5897
9.038571 70.687 114.5380
9.104069 70.772 114.4856
9.170040 70.857 114.4330
9.236490 70.942 114.3806
9.303422 71.027 114.3280
9.370838 71.112 114.2748
9.438744 71.197 114.2210
9.507140 71.282 114.1667
9.576033 71.367 114.1120
9.645425 71.452 114.0572
9.715320 71.537 114.0020
9.785721 71.622 113.9467
9.856632 71.707 113.8910
9.928058 71.791 113.8348
10.000000 71.876 113.7780
10.072464 71.961 113.7207
10.145453 72.046 113.6631
10.218971 72.131 113.6052
10.293022 72.216 113.5470
10.367610 72.301 113.4887
10.442738 72.386 113.4300
10.518411 72.471 113.3707
10.594631 72.556 113.3110
10.671404 72.641 113.2512
10.748734 72.726 113.1910
10.826623 72.811 113.1303
10.905077 72.896 113.0691
10.984100 72.981 113.0072
11.063695 73.066 112.9450
11.143867 73.150 112.8827
11.224621 73.235 112.8200
11.305959 73.320 112.7573
11.387886 73.405 112.6940
11.470407 73.490 112.6298
11.553527 73.575 112.5650
11.637249 73.660 112.5002
11.721577 73.745 112.4351
11.806517 73.830 112.3698
11.892071 73.915 112.3041
11.978246 74.000 112.2378
12.065045 74.085 112.1710
12.152473 74.170 112.1038
12.240536 74.255 112.0360
12.329235 74.340 111.9677
12.418578 74.425 111.8991
12.508568 74.510 111.8302
12.599211 74.595 111.7610
12.690510 74.679 111.6918
12.782471 74.764 111.6221
12.875097 74.849 111.5513
12.968395 74.934 111.4801
13.062370 75.019 111.4087
13.157025 75.104 111.3370
13.252366 75.189 111.2647
13.348398 75.274 111.1921
13.445127 75.359 111.1193
13.542556 75.444 111.0461
13.640691 75.529 110.9723
13.739536 75.614 110.8980
13.839099 75.699 110.8233
13.939383 75.784 110.7481
14.040393 75.869 110.6722
14.142136 75.954 110.5960
14.244616 76.038 110.5197
14.347837 76.123 110.4430
14.451808 76.208 110.3657
14.556532 76.293 110.2880
14.662014 76.378 110.2103
14.768262 76.463 110.1321
14.875278 76.548 110.0528
14.983070 76.633 109.9731
15.091644 76.718 109.8932
15.201005 76.803 109.8131
15.311157 76.888 109.7328
15.422109 76.973 109.6521
15.533863 77.058 109.5703
15.646428 77.143 109.4880
15.759809 77.228 109.4057
15.874010 77.313 109.3231
15.989040 77.398 109.2402
16.104904 77.483 109.1571
16.221605 77.567 109.0733
16.339155 77.652 108.9891
16.457554 77.737 108.9048
16.576813 77.822 108.8201
16.696936 77.907 108.7348
16.817928 77.992 108.6491
16.939798 78.077 108.5628
17.062551 78.162 108.4761
17.186193 78.247 108.3892
17.310732 78.332 108.3021
17.436172 78.417 108.2147
17.562521 78.502 108.1271
17.689787 78.587 108.0388
17.817974 78.672 107.9501
17.947090 78.757 107.8612
18.077143 78.842 107.7721
18.208138 78.926 107.6827
18.340080 79.011 107.5931
18.472980 79.096 107.5032
18.606844 79.181 107.4131
18.741676 79.266 107.3224
18.877487 79.351 107.2321
19.014280 79.436 107.1438
19.152065 79.521 107.0551
19.290850 79.608 106.9646
19.430639 79.696 106.8711
19.571442 79.782 106.7746
19.713264 79.870 106.6691
19.856115 79.961 106.5484
20.000000 80.052 106.4131
20.144928 80.137 106.2587
20.290907 80.219 106.0952
20.437943 80.297 105.9293
20.586044 80.371 105.7671
20.735220 80.439 105.6139
20.885475 80.504 105.4781
21.036821 80.565 105.3687
21.189262 80.623 105.2901
21.342808 80.679 105.2497
21.497467 80.735 105.2480
21.653246 80.793 105.2919
21.810154 80.855 105.3699
21.968201 80.924 105.4765
22.127390 81.000 105.5999
22.287735 81.082 105.7250
22.449242 81.168 105.8549
22.611917 81.255 105.9899
22.775772 81.346 106.1228
22.940815 81.446 106.2450
23.107054 81.548 106.3608
23.274498 81.645 106.4697
23.443153 81.744 106.5788
23.613033 81.849 106.6951
23.784142 81.956 106.8189
23.956491 82.062 106.9506
24.130091 82.171 107.0968
24.304947 82.286 107.2736
24.481071 82.412 107.4528
24.658470 82.555 107.6178
24.837156 82.710 107.7498
25.017136 82.870 107.8252
25.198421 83.036 107.8420
25.381020 83.206 107.7932
25.564941 83.377 107.6712
25.750195 83.549 107.4597
25.936790 83.716 107.1774
26.124741 83.867 106.8281
26.314051 84.008 106.4396
26.504732 84.139 106.0371
26.696796 84.262 105.6325
26.890253 84.375 105.2428
27.085112 84.482 104.8774
27.281382 84.585 104.5549
27.479073 84.689 104.2644
27.678198 84.797 104.0065
27.878765 84.909 103.7653
28.080786 85.027 103.5280
28.284271 85.149 103.2863
28.489231 85.275 103.0278
28.695675 85.403 102.7524
28.903616 85.531 102.4578
29.113064 85.661 102.1385
29.324028 85.795 101.7893
29.536524 85.929 101.4065
29.750557 86.061 100.9813
29.966141 86.190 100.5225
30.183289 86.313 100.0318
30.402010 86.430 99.5216
30.622314 86.539 99.0029
30.844217 86.642 98.4826
31.067726 86.740 97.9715
31.292856 86.835 97.4698
31.519617 86.928 96.9808
31.748020 87.019 96.5056
31.978081 87.107 96.0467
32.209808 87.195 95.6026
32.443211 87.283 95.1757
32.678310 87.373 94.7555
32.915108 87.465 94.3315
33.153625 87.558 93.9065
33.393871 87.647 93.4795
33.635857 87.735 93.0517
33.879597 87.825 92.6237
34.125103 87.914 92.1956
34.372387 88.000 91.7618
34.621464 88.084 91.3386
34.872345 88.161 90.9453
35.125042 88.241 90.5675
35.379574 88.332 90.2015
35.635948 88.426 89.8334
35.894180 88.520 89.4422
36.154285 88.613 89.0456
36.416275 88.702 88.6603
36.680161 88.793 88.2686
36.945961 88.896 87.8596
37.213688 89.001 87.4297
37.483353 89.097 86.9629
37.754974 89.188 86.4857
38.028561 89.274 86.0243
38.304131 89.360 85.5636
38.581699 89.454 85.0962
38.861279 89.547 84.6257
39.142883 89.630 84.1491
39.426529 89.712 83.6786
39.712231 89.796 83.2324
40.000000 89.884 82.7897
40.289856 89.977 82.3356
40.581814 90.072 81.8707
40.875885 90.164 81.3889
41.172089 90.255 80.8948
41.470440 90.347 80.3906
41.770950 90.438 79.8769
42.073643 90.527 79.3528
42.378525 90.614 78.8238
42.685616 90.700 78.2949
42.994934 90.785 77.7657
43.306492 90.871 77.2375
43.620308 90.957 76.7098
43.936401 91.042 76.1852
44.254780 91.130 75.6568
44.575470 91.223 75.1220
44.898483 91.319 74.5709
45.223835 91.415 73.9941
45.551544 91.513 73.3879
45.881630 91.612 72.7440
46.214108 91.709 72.0661
46.548996 91.800 71.3491
46.886307 91.884 70.6112
47.226067 91.959 69.8666
47.568283 92.029 69.1222
47.912983 92.096 68.3882
48.260181 92.160 67.6682
48.609894 92.218 66.9711
48.962143 92.277 66.2910
49.316940 92.342 65.6308
49.674313 92.410 64.9730
50.034271 92.482 64.3029
50.396843 92.556 63.6161
50.762039 92.631 62.9071
51.129883 92.708 62.1653
51.500389 92.789 61.3769
51.873581 92.867 60.5455
52.249481 92.937 59.6649
52.628101 93.000 58.7505
53.009464 93.055 57.8151
53.393593 93.103 56.8606
53.780506 93.144 55.8890
54.170223 93.175 54.9136
54.562763 93.194 53.9448
54.958145 93.205 52.9935
55.356396 93.208 52.0734
55.757530 93.205 51.1864
56.161572 93.196 50.3388
56.568542 93.182 49.5313
56.978462 93.166 48.7692
57.391350 93.150 48.0453
57.807232 93.135 47.3566
58.226128 93.120 46.6961
58.648056 93.107 46.0575
59.073048 93.094 45.4360
59.501114 93.083 44.8242
59.932281 93.072 44.2241
60.366577 93.059 43.6347
60.804020 93.044 43.0570
61.244629 93.030 42.4908
61.688435 93.014 41.9379
62.135452 92.995 41.3955
62.585712 92.973 40.8779
63.039234 92.945 40.3977
63.496040 92.915 39.9567
63.956161 92.889 39.5656
64.419617 92.866 39.2096
64.886421 92.849 38.8787
65.356621 92.837 38.5695
65.830215 92.827 38.2775
66.307251 92.821 37.9965
66.787743 92.822 37.7223
67.271713 92.828 37.4455
67.759193 92.839 37.1530
68.250206 92.851 36.8516
68.744774 92.861 36.5403
69.242928 92.870 36.2286
69.744690 92.880 35.9248
70.250084 92.890 35.6306
70.759148 92.901 35.3518
71.271896 92.915 35.0835
71.788361 92.935 34.8268
72.308571 92.960 34.5695
72.832550 92.992 34.3010
73.360321 93.028 34.0175
73.891922 93.067 33.7137
74.427376 93.110 33.3837
74.966705 93.158 33.0229
75.509949 93.208 32.6228
76.057121 93.260 32.1691
76.608261 93.310 31.6740
77.163399 93.352 31.1414
77.722557 93.389 30.5812
78.285767 93.422 30.0029
78.853058 93.451 29.4112
79.424461 93.473 28.8106
80.000000 93.489 28.2112
80.579712 93.500 27.6232
81.163628 93.506 27.0511
81.751770 93.509 26.5047
82.344177 93.511 25.9781
82.940880 93.516 25.4711
83.541901 93.522 24.9760
84.147285 93.530 24.4859
84.757050 93.539 23.9969
85.371231 93.550 23.5032
85.989868 93.562 23.0030
86.612984 93.574 22.4931
87.240616 93.587 21.9730
87.872803 93.599 21.4418
88.509560 93.611 20.8981
89.150940 93.622 20.3405
89.796967 93.632 19.7682
90.447670 93.640 19.1794
91.103088 93.646 18.5753
91.763260 93.649 17.9546
92.428215 93.648 17.3223
93.097992 93.641 16.6789
93.772614 93.629 16.0363
94.452133 93.609 15.4040
95.136566 93.584 14.7893
95.825966 93.554 14.2019
96.520363 93.521 13.6432
97.219788 93.486 13.1207
97.924286 93.451 12.6260
98.633881 93.420 12.1564
99.348625 93.391 11.7019
100.068542 93.364 11.2511
100.793686 93.338 10.8061
101.524078 93.311 10.3683
102.259766 93.286 9.9281
103.000778 93.267 9.4765
103.747162 93.247 9.0129
104.498962 93.221 8.5252
105.256203 93.190 8.0389
106.018929 93.149 7.5774
106.787186 93.106 7.1358
107.561012 93.068 6.7192
108.340446 93.030 6.3216
109.125526 92.988 5.9376
109.916290 92.945 5.5717
110.712791 92.904 5.2295
111.515060 92.864 4.9017
112.323143 92.828 4.5790
113.137085 92.793 4.2657
113.956924 92.755 3.9646
114.782700 92.718 3.6698
115.614464 92.688 3.3762
116.452255 92.659 3.0826
117.296112 92.625 2.7803
118.146095 92.589 2.4866
119.002228 92.550 2.2193
119.864563 92.512 1.9687
120.733154 92.481 1.7345
121.608040 92.453 1.5055
122.489258 92.427 1.2691
123.376869 92.402 1.0286
124.270905 92.378 0.7818
125.171425 92.354 0.5325
126.078468 92.329 0.2833
126.992081 92.304 0.0356
127.912323 92.279 -0.2083
128.839233 92.255 -0.4485
129.772842 92.231 -0.6859
130.713242 92.208 -0.9165
131.660431 92.184 -1.1335
132.614502 92.163 -1.3464
133.575485 92.149 -1.5573
134.543427 92.140 -1.7815
135.518387 92.136 -2.0340
136.500412 92.134 -2.3184
137.489548 92.132 -2.6493
138.485855 92.127 -3.0101
139.489380 92.113 -3.3961
140.500168 92.092 -3.7862
141.518295 92.064 -4.1527
142.543793 92.035 -4.5101
143.576721 92.013 -4.8617
144.617142 91.991 -5.2132
145.665100 91.964 -5.5748
146.720642 91.934 -5.9370
147.783844 91.904 -6.2871
148.854752 91.875 -6.6440
149.933411 91.854 -7.0226
151.019897 91.831 -7.4230
152.114243 91.800 -7.8574
153.216522 91.762 -8.3037
154.326797 91.716 -8.7468
155.445114 91.664 -9.1780
156.571533 91.606 -9.5847
157.706116 91.544 -9.9642
158.848923 91.478 -10.3080
160.000000 91.411 -10.6203
161.159424 91.345 -10.9014
162.327255 91.279 -11.1545
163.503540 91.213 -11.3805
164.688354 91.149 -11.5856
165.881760 91.089 -11.7738
167.083801 91.032 -11.9525
168.294571 90.978 -12.1307
169.514099 90.925 -12.3086
170.742462 90.874 -12.4882
171.979736 90.823 -12.6735
173.225967 90.775 -12.8707
174.481232 90.726 -13.0755
175.745605 90.672 -13.2887
177.019119 90.615 -13.5005
178.301880 90.556 -13.7023
179.593933 90.494 -13.8905
180.895340 90.430 -14.0564
182.206177 90.365 -14.2067
183.526520 90.305 -14.3438
184.856430 90.246 -14.4727
186.195984 90.186 -14.5995
187.545227 90.125 -14.7227
188.904266 90.066 -14.8408
190.273132 90.008 -14.9607
191.651932 89.952 -15.0918
193.040726 89.893 -15.2256
194.439575 89.828 -15.3579
195.848572 89.761 -15.4847
197.267761 89.695 -15.6016
198.697250 89.625 -15.7048
200.137085 89.549 -15.7908
201.587372 89.471 -15.8529
203.048157 89.393 -15.8787
204.519531 89.316 -15.8810
206.001556 89.244 -15.8700
207.494324 89.172 -15.8411
208.997925 89.095 -15.7921
210.512405 89.020 -15.7262
212.037857 88.953 -15.6434
213.574371 88.887 -15.5512
215.122025 88.821 -15.4629
216.680893 88.753 -15.3613
218.251053 88.681 -15.2280
219.832581 88.612 -15.0804
221.425583 88.557 -14.9285
223.030121 88.504 -14.7774
224.646286 88.445 -14.6425
226.274170 88.384 -14.5024
227.913849 88.322 -14.3384
229.565399 88.260 -14.1575
231.228928 88.202 -13.9604
232.904510 88.146 -13.7477
234.592224 88.090 -13.5215
236.292191 88.036 -13.2777
238.004456 87.984 -13.0082
239.729126 87.936 -12.7258
241.466309 87.899 -12.4367
243.216080 87.868 -12.1528
244.978516 87.842 -11.8858
246.753738 87.822 -11.6417
248.541809 87.808 -11.4286
250.342850 87.798 -11.2514
252.156937 87.790 -11.1167
253.984161 87.783 -11.0282
255.824646 87.778 -10.9926
257.678467 87.770 -11.0079
259.545685 87.757 -11.0773
261.426483 87.737 -11.1917
263.320862 87.710 -11.3444
265.229004 87.674 -11.5304
267.150970 87.629 -11.7477
269.086853 87.572 -11.9803
271.036774 87.500 -12.2206
273.000824 87.412 -12.4414
274.979095 87.306 -12.6191
276.971710 87.186 -12.7358
278.978760 87.055 -12.7660
281.000336 86.914 -12.7083
283.036591 86.769 -12.5545
285.087585 86.618 -12.2999
287.153442 86.462 -11.9370
289.234283 86.306 -11.4664
291.330200 86.157 -10.8800
293.441284 86.015 -10.1980
295.567688 85.886 -9.4307
297.709503 85.770 -8.6003
299.866821 85.669 -7.7226
302.039795 85.583 -6.8267
304.228485 85.516 -5.9448
306.433044 85.459 -5.0824
308.653595 85.404 -4.2657
310.890228 85.348 -3.4642
313.143066 85.285 -2.6598
315.412231 85.220 -1.8414
317.697845 85.156 -0.9952
320.000000 85.089 -0.1107
322.318848 85.015 0.8184
324.654510 84.938 1.8187
327.007080 84.857 2.9221
329.376709 84.781 4.1191
331.763519 84.722 5.4196
334.167603 84.677 6.7965
336.589142 84.649 8.2302
339.028198 84.639 9.7077
341.484924 84.647 11.2142
343.959473 84.673 12.7358
346.451935 84.719 14.2572
348.962463 84.782 15.7668
351.491211 84.861 17.2483
354.038239 84.954 18.7008
356.603760 85.058 20.1185
359.187866 85.174 21.4999
361.790680 85.302 22.8416
364.412354 85.442 24.1434
367.053040 85.590 25.4005
369.712860 85.746 26.6232
372.391968 85.910 27.8236
375.090454 86.086 28.9907
377.808533 86.281 30.1250
380.546265 86.491 31.2049
383.303864 86.716 32.2133
386.081451 86.955 33.1365
388.879150 87.207 33.9610
391.697144 87.470 34.6680
394.535522 87.745 35.2314
397.394501 88.020 35.6600
400.274170 88.286 35.9458
403.174744 88.544 36.1136
406.096313 88.795 36.1812
409.039062 89.036 36.1612
412.003113 89.268 36.0669
414.988647 89.491 35.9136
417.995850 89.709 35.7194
421.024811 89.920 35.4888
424.075714 90.127 35.2348
427.148743 90.331 34.9500
430.244049 90.536 34.6331
433.361786 90.739 34.2782
436.502106 90.939 33.8784
439.665161 91.135 33.4354
442.851166 91.329 32.9514
446.060242 91.521 32.4187
449.292572 91.715 31.8310
452.548340 91.905 31.1871
455.827698 92.088 30.4811
459.130798 92.263 29.7205
462.457855 92.432 28.9125
465.809021 92.593 28.0528
469.184448 92.746 27.1325
472.584381 92.887 26.1730
476.008911 93.007 25.1858
479.458252 93.115 24.1931
482.932617 93.212 23.2206
486.432159 93.300 22.2700
489.957031 93.379 21.3502
493.507477 93.453 20.4647
497.083618 93.522 19.6266
500.685699 93.592 18.8156
504.313873 93.669 18.0212
507.968323 93.748 17.2276
511.649292 93.825 16.4126
515.356934 93.901 15.5848
519.091370 93.972 14.7444
522.852966 94.041 13.8938
526.641724 94.106 13.0363
530.458008 94.168 12.1689
534.301941 94.228 11.2879
538.173706 94.283 10.3990
542.073547 94.331 9.5025
546.001648 94.374 8.6110
549.958191 94.410 7.7400
553.943420 94.443 6.8818
557.957520 94.479 6.0390
562.000671 94.515 5.1959
566.073181 94.552 4.3341
570.175171 94.586 3.4639
574.306885 94.611 2.5871
578.468567 94.632 1.7100
582.660400 94.651 0.8402
586.882568 94.667 -0.0250
591.135376 94.679 -0.8882
595.419006 94.687 -1.7431
599.733643 94.691 -2.5865
604.079590 94.691 -3.4121
608.456970 94.687 -4.2086
612.866089 94.683 -4.9874
617.307190 94.685 -5.7520
621.780457 94.688 -6.5155
626.286133 94.692 -7.2940
630.824463 94.694 -8.0814
635.395691 94.693 -8.8786
640.000000 94.688 -9.6802
644.637695 94.681 -10.4828
649.309021 94.670 -11.2813
654.014160 94.654 -12.0712
658.753418 94.635 -12.8474
663.527039 94.614 -13.5986
668.335205 94.593 -14.3385
673.178284 94.578 -15.0749
678.056396 94.564 -15.8145
682.969849 94.547 -16.5682
687.918945 94.529 -17.3313
692.903870 94.510 -18.1024
697.924927 94.488 -18.8832
702.982422 94.464 -19.6789
708.076477 94.436 -20.4781
713.207520 94.399 -21.2733
718.375732 94.357 -22.0582
723.581360 94.313 -22.8193
728.824707 94.268 -23.5703
734.106079 94.225 -24.3221
739.425720 94.180 -25.0713
744.783936 94.128 -25.8214
750.180908 94.072 -26.5634
755.617065 94.012 -27.2907
761.092529 93.948 -27.9995
766.607727 93.880 -28.6859
772.162903 93.807 -29.3427
777.758301 93.730 -29.9580
783.394287 93.653 -30.5410
789.071045 93.581 -31.0951
794.789001 93.510 -31.6261
800.548340 93.438 -32.1417
806.349487 93.367 -32.6403
812.192627 93.299 -33.1185
818.078125 93.234 -33.5893
824.006226 93.174 -34.0656
829.977295 93.114 -34.5443
835.991699 93.050 -35.0312
842.049622 92.983 -35.5122
848.151428 92.913 -35.9739
854.297485 92.842 -36.4194
860.488098 92.774 -36.8460
866.723572 92.707 -37.2585
873.004211 92.640 -37.6622
879.330322 92.573 -38.0536
885.702332 92.506 -38.4312
892.120483 92.440 -38.7947
898.585144 92.376 -39.1390
905.096680 92.315 -39.4777
911.655396 92.263 -39.8219
918.261597 92.213 -40.1747
924.915710 92.161 -40.5442
931.618042 92.110 -40.9266
938.368896 92.061 -41.3202
945.168762 92.011 -41.7255
952.017822 91.959 -42.1470
958.916504 91.904 -42.5714
965.865234 91.843 -42.9882
972.864319 91.779 -43.3925
979.914062 91.716 -43.7718
987.014954 91.654 -44.1386
994.167236 91.597 -44.5008
1001.371399 91.542 -44.8607
1008.627747 91.486 -45.2233
1015.936646 91.430 -45.5885
1023.298584 91.379 -45.9563
1030.713867 91.328 -46.3308
1038.182739 91.278 -46.7175
1045.705933 91.227 -47.1123
1053.283447 91.177 -47.5145
1060.916016 91.125 -47.9183
1068.603882 91.071 -48.3169
1076.347412 91.018 -48.7114
1084.147095 90.969 -49.0963
1092.003296 90.923 -49.4837
1099.916382 90.882 -49.8795
1107.886841 90.847 -50.2962
1115.915039 90.820 -50.7451
1124.001343 90.797 -51.2351
1132.146362 90.777 -51.7758
1140.350342 90.760 -52.3766
1148.613770 90.747 -53.0466
1156.937134 90.736 -53.7957
1165.320801 90.724 -54.6341
1173.765137 90.709 -55.5696
1182.270752 90.691 -56.6069
1190.838013 90.668 -57.7660
1199.467285 90.640 -59.0670
1208.159180 90.598 -60.5150
1216.913940 90.536 -62.1287
1225.732178 90.446 -63.8874
1234.614380 90.327 -65.8056
1243.560913 90.161 -67.7945
1252.572266 89.930 -69.8167
1261.648926 89.635 -71.7307
1270.791382 89.269 -73.4156
1280.000000 88.840 -74.7705
1289.275391 88.350 -75.6755
1298.618042 87.811 -76.0676
1308.028320 87.221 -75.8263
1317.506836 86.623 -75.0028
1327.054077 86.045 -73.5514
1336.670410 85.522 -71.6432
1346.356567 85.095 -69.3860
1356.112793 84.761 -66.9273
1365.939697 84.530 -64.4121
1375.837891 84.395 -61.9549
1385.807739 84.364 -59.7035
1395.849854 84.400 -57.7033
1405.964844 84.472 -56.0653
1416.152954 84.567 -54.7393
1426.415039 84.659 -53.7317
1436.751465 84.746 -52.9814
1447.162720 84.815 -52.4471
1457.649414 84.868 -52.0762
1468.212158 84.897 -51.8119
1478.851440 84.909 -51.6256
1489.567871 84.908 -51.4717
1500.361816 84.894 -51.3455
1511.234131 84.871 -51.2296
1522.185059 84.838 -51.1165
1533.215454 84.797 -50.9926
1544.325806 84.750 -50.8586
1555.516602 84.702 -50.7094
1566.788574 84.651 -50.5497
1578.142090 84.598 -50.3867
1589.578003 84.541 -50.2088
1601.096680 84.477 -50.0068
1612.698975 84.412 -49.7810
1624.385254 84.351 -49.5260
1636.156250 84.291 -49.2493
1648.012451 84.233 -48.9562
1659.954590 84.176 -48.6472
1671.983398 84.123 -48.3229
1684.099243 84.073 -47.9884
1696.302856 84.029 -47.6454
1708.594971 83.991 -47.3045
1720.976196 83.960 -46.9735
1733.447144 83.934 -46.6633
1746.008423 83.914 -46.3863
1758.660645 83.898 -46.1459
1771.404663 83.884 -45.9495
1784.240967 83.870 -45.7975
1797.170288 83.856 -45.6964
1810.193359 83.839 -45.6362
1823.310791 83.815 -45.6119
1836.523193 83.784 -45.6139
1849.831421 83.749 -45.6351
1863.236084 83.706 -45.6639
1876.737793 83.654 -45.6897
1890.337524 83.595 -45.7020
1904.035645 83.532 -45.6829
1917.833008 83.467 -45.6442
1931.730469 83.406 -45.5904
1945.728638 83.344 -45.5253
1959.828125 83.279 -45.4519
1974.029907 83.215 -45.3763
1988.334473 83.156 -45.2994
2002.742798 83.099 -45.2402
2017.255493 83.045 -45.2210
2031.873291 82.988 -45.2329
2046.597168 82.921 -45.2787
2061.427734 82.846 -45.3447
2076.365479 82.765 -45.4221
2091.411865 82.674 -45.4987
2106.566895 82.569 -45.5646
2121.832031 82.453 -45.6039
2137.207764 82.326 -45.5998
2152.694824 82.190 -45.5443
2168.294189 82.043 -45.4257
2184.006592 81.889 -45.2390
2199.832764 81.730 -44.9751
2215.773682 81.567 -44.6355
2231.830078 81.402 -44.2231
2248.002686 81.234 -43.7253
2264.292725 81.059 -43.1357
2280.700684 80.883 -42.4383
2297.227539 80.704 -41.6112
2313.874268 80.531 -40.6651
2330.641602 80.369 -39.5965
2347.530273 80.220 -38.4262
2364.541504 80.086 -37.1681
2381.676025 79.968 -35.8402
2398.934570 79.871 -34.4609
2416.318359 79.792 -33.0424
2433.827881 79.731 -31.5988
2451.464355 79.687 -30.1421
2469.228760 79.664 -28.6889
2487.121826 79.656 -27.2402
2505.144531 79.659 -25.8024
2523.297852 79.678 -24.3755
2541.582764 79.715 -22.9562
2560.000000 79.772 -21.5601
2578.550781 79.845 -20.1869
2597.236084 79.942 -18.8808
2616.056641 80.075 -17.6791
2635.013672 80.225 -16.6042
2654.108154 80.381 -15.6915
2673.340820 80.544 -14.9399
2692.713135 80.717 -14.3506
2712.225586 80.892 -13.9514
2731.879395 81.070 -13.7798
2751.675781 81.234 -13.8094
2771.615479 81.367 -14.0397
2791.699707 81.473 -14.4300
2811.929688 81.553 -14.9411
2832.305908 81.605 -15.5668
2852.830078 81.626 -16.3037
2873.502930 81.607 -17.1044
2894.325439 81.539 -17.9352
2915.298828 81.426 -18.7514
2936.424316 81.275 -19.5373
2957.702881 81.066 -20.1727
2979.135742 80.775 -20.5903
3000.723633 80.418 -20.6140
3022.468262 79.995 -20.0677
3044.370117 79.527 -18.8821
3066.430908 79.027 -16.9435
3088.651611 78.514 -14.2092
3111.033203 77.985 -10.5489
3133.577148 77.530 -6.1128
3156.284180 77.234 -0.9052
3179.156006 77.111 4.7633
3202.193359 77.210 10.6533
3225.397949 77.510 16.5414
3248.770508 78.025 22.1827
3272.312500 78.694 27.4028
3296.024902 79.469 31.9657
3319.909180 80.315 35.8130
3343.966797 81.191 38.7743
3368.198486 82.070 40.9515
3392.605713 82.909 42.3474
3417.189941 83.711 43.0929
3441.952393 84.464 43.2945
3466.894287 85.180 43.0301
3492.016846 85.866 42.4017
3517.321289 86.521 41.4431
3542.809326 87.145 40.2054
3568.481934 87.736 38.7382
3594.340576 88.288 37.1104
3620.386719 88.817 35.3169
3646.621582 89.339 33.3860
3673.046387 89.845 31.2864
3699.662842 90.330 28.9950
3726.472168 90.795 26.5149
3753.475586 91.239 23.8491
3780.675049 91.660 20.9764
3808.071289 92.059 17.8767
3835.666016 92.424 14.5494
3863.460938 92.749 10.9753
3891.457275 93.025 7.1905
3919.656250 93.243 3.2078
3948.059814 93.402 -0.9216
3976.668945 93.500 -5.1705
4005.485596 93.528 -9.4541
4034.510986 93.474 -13.7150
4063.746582 93.344 -17.8428
4093.194336 93.135 -21.7310
4122.855469 92.857 -25.3094
4152.730957 92.517 -28.4867
4182.823730 92.123 -31.2201
4213.133789 91.679 -33.4444
4243.664062 91.201 -35.1393
4274.415527 90.700 -36.2500
4305.389648 90.197 -36.8155
4336.588379 89.717 -36.8275
4368.013184 89.274 -36.3742
4399.665527 88.890 -35.5077
4431.547363 88.573 -34.3304
4463.660156 88.341 -32.9194
4496.005371 88.196 -31.4017
4528.585449 88.152 -29.8985
4561.401367 88.185 -28.5042
4594.455078 88.283 -27.3562
4627.748535 88.421 -26.4458
4661.283203 88.571 -25.8276
4695.060547 88.727 -25.4483
4729.083008 88.876 -25.3014
4763.352051 89.010 -25.2998
4797.869141 89.115 -25.3795
4832.636719 89.207 -25.4627
4867.655762 89.291 -25.4420
4902.928711 89.388 -25.3417
4938.457520 89.520 -25.1138
4974.243652 89.695 -24.8701
5010.289062 89.938 -24.6715
5046.595703 90.230 -24.6247
5083.165527 90.565 -24.8400
5120.000000 90.924 -25.3685
5157.101562 91.295 -26.2931
5194.472168 91.662 -27.6284
5232.113281 92.013 -29.4420
5270.027344 92.325 -31.6569
5308.216309 92.572 -34.2681
5346.681641 92.753 -37.1256
5385.426270 92.853 -40.1088
5424.451172 92.886 -43.1224
5463.758789 92.862 -46.0508
5503.351562 92.781 -48.8339
5543.230957 92.641 -51.3875
5583.399414 92.460 -53.6676
5623.859375 92.245 -55.5923
5664.611816 92.015 -57.1910
5705.660156 91.792 -58.4458
5747.005859 91.582 -59.4186
5788.650879 91.399 -60.1462
5830.597656 91.248 -60.6866
5872.848633 91.136 -61.0886
5915.405762 91.064 -61.4174
5958.271484 91.041 -61.7407
6001.447266 91.055 -62.1000
6044.936523 91.100 -62.5516
6088.740234 91.174 -63.1188
6132.861816 91.273 -63.8352
6177.303223 91.392 -64.7251
6222.066406 91.525 -65.8219
6267.154297 91.663 -67.1319
6312.568359 91.801 -68.6770
6358.312012 91.931 -70.4426
6404.386719 92.044 -72.4289
6450.795898 92.137 -74.6123
6497.541016 92.204 -76.9825
6544.625000 92.242 -79.4991
6592.049805 92.241 -82.1268
6639.818359 92.207 -84.8388
6687.933594 92.144 -87.6095
6736.396973 92.044 -90.3996
6785.211426 91.897 -93.1836
6834.379883 91.710 -95.8943
6883.904785 91.478 -98.4570
6933.788574 91.216 -100.8670
6984.033691 90.940 -103.0937
7034.642578 90.644 -105.1422
7085.618652 90.324 -107.0090
7136.963867 89.993 -108.6900
7188.681152 89.654 -110.1611
7240.773438 89.320 -111.4777
7293.243164 89.011 -112.6835
7346.092773 88.711 -113.7916
7399.325684 88.407 -114.8317
7452.944336 88.108 -115.7983
7506.951172 87.827 -116.6860
7561.350098 87.554 -117.5248
7616.142578 87.290 -118.3443
7671.332031 87.029 -119.1409
7726.921875 86.766 -119.9170
7782.914551 86.508 -120.6831
7839.312500 86.262 -121.4364
7896.119629 86.024 -122.2197
7953.337891 85.801 -123.0779
8010.971191 85.578 -124.0019
8069.021973 85.340 -124.9982
8127.493164 85.093 -126.0642
8186.388672 84.846 -127.2001
8245.710938 84.583 -128.4044
8305.461914 84.294 -129.7060
8365.647461 83.969 -131.0152
8426.267578 83.592 -132.2736
8487.328125 83.175 -133.4134
8548.831055 82.728 -134.3649
8610.779297 82.241 -135.0750
8673.176758 81.709 -135.4981
8736.026367 81.134 -135.5419
8799.331055 80.504 -135.0950
8863.094727 79.856 -134.1672
8927.320312 79.225 -132.6986
8992.010742 78.619 -130.7902
9057.170898 78.052 -128.4951
9122.802734 77.540 -125.8994
9188.910156 77.102 -123.0799
9255.497070 76.737 -120.1173
9322.566406 76.453 -117.1019
9390.121094 76.237 -114.0809
9458.166016 76.082 -111.1371
9526.704102 75.973 -108.2541
9595.738281 75.894 -105.4475
9665.273438 75.849 -102.7014
9735.311523 75.838 -100.0059
9805.857422 75.858 -97.3582
9876.915039 75.901 -94.7523
9948.487305 75.977 -92.1878
10020.578125 76.087 -89.6517
10093.191406 76.236 -87.1762
10166.331055 76.430 -84.7813
10240.000000 76.667 -82.4908
10314.203125 76.945 -80.3242
10388.944336 77.269 -78.3141
10464.226562 77.643 -76.4730
10540.054688 78.067 -74.8796
10616.432617 78.554 -73.5978
10693.363281 79.079 -72.6882
10770.852539 79.623 -72.2258
10848.902344 80.174 -72.2297
10927.517578 80.718 -72.7401
11006.703125 81.241 -73.7660
11086.461914 81.737 -75.3632
11166.798828 82.178 -77.4323
11247.718750 82.531 -79.9380
11329.223633 82.812 -82.7420
11411.320312 83.023 -85.7117
11494.011719 83.169 -88.7922
11577.301758 83.261 -91.9119
11661.195312 83.292 -94.9902
11745.697266 83.248 -97.9318
11830.811523 83.159 -100.7085
11916.542969 83.046 -103.2414
12002.894531 82.913 -105.5884
12089.873047 82.772 -107.7801
12177.480469 82.618 -109.8228
12265.723633 82.446 -111.7253
12354.606445 82.268 -113.5096
12444.132812 82.098 -115.1924
12534.308594 81.926 -116.7985
12625.136719 81.747 -118.3636
12716.624023 81.561 -119.8712
12808.773438 81.365 -121.3161
12901.591797 81.161 -122.6983
12995.082031 80.954 -124.0184
13089.250000 80.738 -125.2699
13184.099609 80.509 -126.4536
13279.636719 80.270 -127.5486
13375.867188 80.021 -128.5312
13472.793945 79.768 -129.4103
13570.422852 79.520 -130.1826
13668.759766 79.273 -130.8622
13767.809570 79.027 -131.4591
13867.577148 78.784 -131.9831
13968.067383 78.549 -132.4399
14069.285156 78.320 -132.8527
14171.237305 78.102 -133.2455
14273.927734 77.888 -133.6230
14377.362305 77.674 -134.0070
14481.546875 77.456 -134.3702
14586.486328 77.228 -134.7107
14692.185547 76.986 -134.9728
14798.651367 76.725 -135.1171
14905.888672 76.451 -135.0907
15013.902344 76.163 -134.8279
15122.700195 75.877 -134.3276
15232.285156 75.603 -133.5539
15342.664062 75.357 -132.5478
15453.843750 75.149 -131.3046
15565.829102 75.000 -129.9257
15678.625000 74.934 -128.4667
15792.239258 74.947 -127.0622
15906.675781 75.045 -125.8379
16021.942383 75.208 -124.8783
16138.043945 75.422 -124.2982
16254.986328 75.668 -124.1317
16372.777344 75.929 -124.4615
16491.421875 76.185 -125.2553
16610.923828 76.406 -126.5339
16731.294922 76.590 -128.2181
16852.535156 76.723 -130.2614
16974.656250 76.803 -132.5862
17097.662109 76.823 -135.1299
17221.558594 76.780 -137.8006
17346.353516 76.666 -140.5156
17472.052734 76.484 -143.1831
17598.662109 76.236 -145.7008
17726.189453 75.931 -148.0172
17854.640625 75.579 -150.0469
17984.021484 75.188 -151.7911
18114.341797 74.768 -153.2277
18245.605469 74.321 -154.3446
18377.820312 73.848 -155.1191
18510.994141 73.368 -155.5614
18645.132812 72.896 -155.6484
18780.242188 72.444 -155.4567
18916.332031 72.033 -155.0447
19053.408203 71.650 -154.4468
19191.476562 71.287 -153.7082
19330.546875 70.956 -152.8539
19470.623047 70.665 -151.9068
19611.714844 70.410 -150.9186
19753.830078 70.194 -149.9440
19896.974609 70.006 -148.9976
