* Measurement data measured by REW V5.20.13
* Source: C:\Users\kurin\Desktop\Targets and Curves\Resolve\Img\Lecram\Audeze_LCD-X_2021_SPL.txt
* Format: Comma/Tab/Space delimited data
* Dated: Aug 15, 2023 3:20:24 PM
* REW Settings:
*  C-weighting compensation: Off
*  Target level: 75.0 dB
* Note: ; Measurement imported from C:\Users\kurin\Desktop\Targets and Curves\Resolve\Img\Lecram\Audeze_LCD-X_2021_SPL.txt Format: Comma/Tab/Space delimited data 623 values loaded, 5 Hz to 39,792 Hz log spaced 
* Measurement: Audeze_LCD-X_2021_SPL
* Smoothing: 1/48 octave
* Frequency Step: 1/96 octave
* Start Frequency: 5.000 Hz
*
* Freq(Hz) SPL(dB) Phase(degrees)
5.000000 90.307 40.7090
5.036232 90.320 40.6999
5.072727 90.335 40.6900
5.109486 90.352 40.6778
5.146511 90.371 40.6640
5.183805 90.394 40.6484
5.221369 90.420 40.6320
5.259205 90.446 40.6158
5.297316 90.474 40.5990
5.335702 90.504 40.5811
5.374367 90.534 40.5630
5.413311 90.563 40.5455
5.452538 90.593 40.5280
5.492050 90.623 40.5101
5.531847 90.653 40.4920
5.571934 90.683 40.4740
5.612310 90.713 40.4560
5.652979 90.743 40.4381
5.693943 90.773 40.4200
5.735204 90.803 40.4016
5.776763 90.833 40.3830
5.818624 90.862 40.3646
5.860788 90.892 40.3460
5.903258 90.922 40.3271
5.946035 90.952 40.3080
5.989123 90.982 40.2891
6.032523 91.012 40.2700
6.076237 91.042 40.2506
6.120268 91.072 40.2310
6.164618 91.101 40.2111
6.209289 91.131 40.1910
6.254284 91.161 40.1710
6.299605 91.191 40.1510
6.345255 91.221 40.1311
6.391235 91.251 40.1110
6.437549 91.281 40.0906
6.484198 91.311 40.0700
6.531185 91.340 40.0491
6.578513 91.370 40.0280
6.626183 91.400 40.0070
6.674199 91.430 39.9860
6.722563 91.460 39.9651
6.771278 91.490 39.9440
6.820345 91.520 39.9221
6.869768 91.550 39.9000
6.919549 91.580 39.8780
6.969691 91.610 39.8560
7.020196 91.639 39.8341
7.071068 91.669 39.8120
7.122308 91.699 39.7896
7.173919 91.729 39.7670
7.225904 91.759 39.7441
7.278266 91.789 39.7210
7.331007 91.819 39.6976
7.384131 91.849 39.6740
7.437639 91.878 39.6506
7.491535 91.908 39.6270
7.545822 91.938 39.6031
7.600502 91.968 39.5790
7.655579 91.998 39.5551
7.711054 92.028 39.5310
7.766932 92.058 39.5061
7.823214 92.088 39.4810
7.879904 92.117 39.4560
7.937005 92.147 39.4310
7.994520 92.177 39.4061
8.052452 92.207 39.3810
8.110803 92.237 39.3551
8.169578 92.267 39.3290
8.228777 92.297 39.3031
8.288406 92.327 39.2770
8.348468 92.357 39.2506
8.408964 92.387 39.2240
8.469899 92.416 39.1971
8.531276 92.446 39.1700
8.593097 92.476 39.1431
8.655366 92.506 39.1160
8.718086 92.536 39.0881
8.781260 92.566 39.0600
8.844893 92.596 39.0321
8.908987 92.626 39.0040
8.973545 92.655 38.9756
9.038571 92.685 38.9470
9.104069 92.715 38.9181
9.170040 92.745 38.8890
9.236490 92.775 38.8596
9.303422 92.805 38.8300
9.370838 92.835 38.8006
9.438744 92.865 38.7710
9.507140 92.894 38.7406
9.576033 92.924 38.7100
9.645425 92.954 38.6796
9.715320 92.984 38.6490
9.785721 93.014 38.6176
9.856632 93.044 38.5860
9.928058 93.074 38.5546
10.000000 93.104 38.5230
10.072464 93.134 38.4912
10.145453 93.164 38.4590
10.218971 93.193 38.4261
10.293022 93.223 38.3930
10.367610 93.253 38.3601
10.442738 93.283 38.3270
10.518411 93.313 38.2937
10.594631 93.343 38.2600
10.671404 93.373 38.2256
10.748734 93.403 38.1910
10.826623 93.432 38.1566
10.905077 93.462 38.1220
10.984100 93.492 38.0872
11.063695 93.522 38.0520
11.143867 93.552 38.0162
11.224621 93.582 37.9800
11.305959 93.612 37.9436
11.387886 93.642 37.9070
11.470407 93.671 37.8701
11.553527 93.701 37.8330
11.637249 93.731 37.7956
11.721577 93.761 37.7580
11.806517 93.791 37.7202
11.892071 93.821 37.6820
11.978246 93.851 37.6437
12.065045 93.881 37.6050
12.152473 93.911 37.5657
12.240536 93.941 37.5260
12.329235 93.970 37.4861
12.418578 94.000 37.4460
12.508568 94.030 37.4057
12.599211 94.060 37.3650
12.690510 94.090 37.3237
12.782471 94.120 37.2820
12.875097 94.150 37.2402
12.968395 94.180 37.1980
13.062370 94.209 37.1557
13.157025 94.239 37.1130
13.252366 94.269 37.0697
13.348398 94.299 37.0260
13.445127 94.329 36.9822
13.542556 94.359 36.9380
13.640691 94.389 36.8933
13.739536 94.419 36.8480
13.839099 94.448 36.8022
13.939383 94.478 36.7560
14.040393 94.508 36.7102
14.142136 94.538 36.6640
14.244616 94.568 36.6168
14.347837 94.598 36.5690
14.451808 94.628 36.5212
14.556532 94.658 36.4730
14.662014 94.688 36.4243
14.768262 94.718 36.3751
14.875278 94.747 36.3253
14.983070 94.777 36.2751
15.091644 94.807 36.2243
15.201005 94.837 36.1730
15.311157 94.867 36.1213
15.422109 94.897 36.0690
15.533863 94.927 36.0163
15.646428 94.957 35.9630
15.759809 94.986 35.9093
15.874010 95.016 35.8550
15.989040 95.046 35.7999
16.104904 95.076 35.7440
16.221605 95.106 35.6878
16.339155 95.136 35.6311
16.457554 95.166 35.5739
16.576813 95.196 35.5160
16.696936 95.225 35.4574
16.817928 95.255 35.3980
16.939798 95.285 35.3379
17.062551 95.315 35.2771
17.186193 95.345 35.2155
17.310732 95.375 35.1530
17.436172 95.405 35.0895
17.562521 95.435 35.0250
17.689787 95.464 34.9601
17.817974 95.494 34.8941
17.947090 95.524 34.8267
18.077143 95.554 34.7580
18.208138 95.584 34.6878
18.340080 95.614 34.6161
18.472980 95.644 34.5429
18.606844 95.674 34.4680
18.741676 95.704 34.3914
18.877487 95.734 34.3121
19.014280 95.764 34.2294
19.152065 95.793 34.1431
19.290850 95.823 34.0531
19.430639 95.852 33.9591
19.571442 95.881 33.8602
19.713264 95.909 33.7571
19.856115 95.935 33.6497
20.000000 95.960 33.5401
20.144928 95.984 33.4303
20.290907 96.006 33.3211
20.437943 96.026 33.2126
20.586044 96.045 33.1091
20.735220 96.061 33.0131
20.885475 96.075 32.9291
21.036821 96.087 32.8623
21.189262 96.099 32.8121
21.342808 96.111 32.7789
21.497467 96.124 32.7640
21.653246 96.136 32.7691
21.810154 96.150 32.7930
21.968201 96.167 32.8372
22.127390 96.188 32.8949
22.287735 96.213 32.9621
22.449242 96.243 33.0309
22.611917 96.277 33.0939
22.775772 96.316 33.1469
22.940815 96.358 33.1846
23.107054 96.403 33.2030
23.274498 96.451 33.1959
23.443153 96.499 33.1641
23.613033 96.545 33.1033
23.784142 96.590 33.0221
23.956491 96.632 32.9255
24.130091 96.671 32.8191
24.304947 96.707 32.7088
24.481071 96.740 32.5991
24.658470 96.771 32.4969
24.837156 96.801 32.4021
25.017136 96.831 32.3188
25.198421 96.862 32.2411
25.381020 96.895 32.1654
25.564941 96.929 32.0881
25.750195 96.964 32.0042
25.936790 96.999 31.9131
26.124741 97.034 31.8118
26.314051 97.068 31.7022
26.504732 97.100 31.5826
26.696796 97.130 31.4611
26.890253 97.155 31.3436
27.085112 97.178 31.2351
27.281382 97.200 31.1430
27.479073 97.221 31.0671
27.678198 97.242 31.0104
27.878765 97.264 30.9710
28.080786 97.288 30.9500
28.284271 97.314 30.9410
28.489231 97.344 30.9395
28.695675 97.378 30.9410
28.903616 97.414 30.9396
29.113064 97.452 30.9350
29.324028 97.493 30.9252
29.536524 97.535 30.9100
29.750557 97.579 30.8880
29.966141 97.624 30.8610
30.183289 97.670 30.8310
30.402010 97.718 30.7970
30.622314 97.768 30.7593
30.844217 97.820 30.7161
31.067726 97.874 30.6672
31.292856 97.932 30.6081
31.519617 97.994 30.5358
31.748020 98.059 30.4451
31.978081 98.127 30.3306
32.209808 98.197 30.1902
32.443211 98.269 30.0216
32.678310 98.343 29.8203
32.915108 98.419 29.5819
33.153625 98.495 29.3044
33.393871 98.570 28.9840
33.635857 98.643 28.6216
33.879597 98.714 28.2149
34.125103 98.781 27.7696
34.372387 98.841 27.2888
34.621464 98.896 26.7778
34.872345 98.945 26.2414
35.125042 98.987 25.6847
35.379574 99.022 25.1122
35.635948 99.049 24.5307
35.894180 99.069 23.9465
36.154285 99.081 23.3648
36.416275 99.087 22.7917
36.680161 99.086 22.2309
36.945961 99.079 21.6862
37.213688 99.065 21.1628
37.483353 99.046 20.6660
37.754974 99.022 20.1987
38.028561 98.993 19.7649
38.304131 98.961 19.3665
38.581699 98.926 19.0070
38.861279 98.890 18.6855
39.142883 98.853 18.4039
39.426529 98.817 18.1573
39.712231 98.783 17.9425
40.000000 98.750 17.7553
40.289856 98.719 17.5915
40.581814 98.691 17.4482
40.875885 98.665 17.3227
41.172089 98.641 17.2102
41.470440 98.621 17.1053
41.770950 98.603 17.0072
42.073643 98.585 16.9120
42.378525 98.567 16.8221
42.685616 98.551 16.7385
42.994934 98.535 16.6611
43.306492 98.520 16.5893
43.620308 98.505 16.5261
43.936401 98.489 16.4741
44.254780 98.474 16.4331
44.575470 98.461 16.4042
44.898483 98.450 16.3850
45.223835 98.440 16.3733
45.551544 98.431 16.3690
45.881630 98.424 16.3720
46.214108 98.419 16.3800
46.548996 98.416 16.3906
46.886307 98.415 16.4040
47.226067 98.414 16.4187
47.568283 98.415 16.4370
47.912983 98.416 16.4606
48.260181 98.419 16.4890
48.609894 98.424 16.5223
48.962143 98.432 16.5589
49.316940 98.441 16.5974
49.674313 98.453 16.6369
50.034271 98.467 16.6778
50.396843 98.485 16.7149
50.762039 98.507 16.7449
51.129883 98.533 16.7630
51.500389 98.561 16.7635
51.873581 98.591 16.7460
52.249481 98.623 16.7093
52.628101 98.656 16.6501
53.009464 98.691 16.5642
53.393593 98.727 16.4532
53.780506 98.760 16.3160
54.170223 98.791 16.1563
54.562763 98.821 15.9768
54.958145 98.849 15.7793
55.356396 98.874 15.5648
55.757530 98.896 15.3384
56.161572 98.914 15.1045
56.568542 98.928 14.8664
56.978462 98.940 14.6290
57.391350 98.949 14.3924
57.807232 98.957 14.1579
58.226128 98.962 13.9264
58.648056 98.965 13.6995
59.073048 98.966 13.4774
59.501114 98.966 13.2613
59.932281 98.965 13.0494
60.366577 98.963 12.8391
60.804020 98.959 12.6333
61.244629 98.953 12.4338
61.688435 98.945 12.2413
62.135452 98.936 12.0569
62.585712 98.926 11.8823
63.039234 98.914 11.7188
63.496040 98.900 11.5692
63.956161 98.885 11.4381
64.419617 98.871 11.3222
64.886421 98.858 11.2210
65.356621 98.847 11.1311
65.830215 98.837 11.0497
66.307251 98.828 10.9741
66.787743 98.821 10.9021
67.271713 98.816 10.8301
67.759193 98.813 10.7539
68.250206 98.810 10.6732
68.744774 98.807 10.5852
69.242928 98.803 10.4932
69.744690 98.799 10.3979
70.250084 98.793 10.3032
70.759148 98.786 10.2131
71.271896 98.778 10.1272
71.788361 98.770 10.0463
72.308571 98.762 9.9701
72.832550 98.753 9.8988
73.360321 98.745 9.8321
73.891922 98.737 9.7709
74.427376 98.730 9.7131
74.966705 98.723 9.6559
75.509949 98.715 9.6021
76.057121 98.707 9.5540
76.608261 98.698 9.5111
77.163399 98.690 9.4738
77.722557 98.683 9.4421
78.285767 98.675 9.4160
78.853058 98.668 9.3960
79.424461 98.662 9.3838
80.000000 98.657 9.3750
80.579712 98.654 9.3660
81.163628 98.653 9.3560
81.751770 98.652 9.3433
82.344177 98.651 9.3280
82.940880 98.651 9.3097
83.541901 98.651 9.2890
84.147285 98.651 9.2663
84.757050 98.651 9.2420
85.371231 98.651 9.2169
85.989868 98.651 9.1911
86.612984 98.651 9.1652
87.240616 98.651 9.1391
87.872803 98.651 9.1126
88.509560 98.651 9.0861
89.150940 98.651 9.0595
89.796967 98.651 9.0331
90.447670 98.651 9.0068
91.103088 98.651 8.9811
91.763260 98.651 8.9563
92.428215 98.651 8.9320
93.097992 98.651 8.9077
93.772614 98.651 8.8840
94.452133 98.651 8.8616
95.136566 98.651 8.8400
95.825966 98.651 8.8190
96.520363 98.651 8.7990
97.219788 98.651 8.7809
97.924286 98.651 8.7640
98.633881 98.651 8.7480
99.348625 98.651 8.7340
100.068542 98.651 8.7235
100.793686 98.651 8.7160
101.524078 98.651 8.7115
102.259766 98.652 8.7100
103.000778 98.653 8.7122
103.747162 98.656 8.7160
104.498962 98.660 8.7204
105.256203 98.666 8.7220
106.018929 98.673 8.7172
106.787186 98.681 8.7060
107.561012 98.688 8.6871
108.340446 98.696 8.6610
109.125526 98.704 8.6279
109.916290 98.711 8.5881
110.712791 98.718 8.5405
111.515060 98.723 8.4891
112.323143 98.726 8.4367
113.137085 98.728 8.3851
113.956924 98.729 8.3370
114.782700 98.730 8.2921
115.614464 98.730 8.2510
116.452255 98.730 8.2131
117.296112 98.730 8.1782
118.146095 98.730 8.1461
119.002228 98.730 8.1165
119.864563 98.730 8.0891
120.733154 98.730 8.0631
121.608040 98.730 8.0391
122.489258 98.730 8.0171
123.376869 98.730 7.9970
124.270905 98.730 7.9786
125.171425 98.730 7.9620
126.078468 98.730 7.9473
126.992081 98.730 7.9350
127.912323 98.730 7.9259
128.839233 98.730 7.9200
129.772842 98.731 7.9179
130.713242 98.732 7.9190
131.660431 98.733 7.9235
132.614502 98.735 7.9300
133.575485 98.739 7.9379
134.543427 98.744 7.9440
135.518387 98.751 7.9454
136.500412 98.758 7.9410
137.489548 98.765 7.9286
138.485855 98.773 7.9091
139.489380 98.781 7.8824
140.500168 98.788 7.8491
141.518295 98.795 7.8087
142.543793 98.800 7.7641
143.576721 98.804 7.7171
144.617142 98.806 7.6701
145.665100 98.808 7.6262
146.720642 98.809 7.5851
147.783844 98.810 7.5480
148.854752 98.810 7.5141
149.933411 98.810 7.4828
151.019897 98.810 7.4541
152.114243 98.810 7.4280
153.216522 98.810 7.4041
154.326797 98.810 7.3818
155.445114 98.810 7.3610
156.571533 98.810 7.3414
157.706116 98.810 7.3230
158.848923 98.810 7.3059
160.000000 98.810 7.2900
161.159424 98.810 7.2755
162.327255 98.810 7.2620
163.503540 98.810 7.2490
164.688354 98.810 7.2370
165.881760 98.810 7.2265
167.083801 98.810 7.2170
168.294571 98.810 7.2085
169.514099 98.810 7.2010
170.742462 98.810 7.1946
171.979736 98.810 7.1890
173.225967 98.810 7.1840
174.481232 98.810 7.1800
175.745605 98.810 7.1774
177.019119 98.810 7.1760
178.301880 98.810 7.1754
179.593933 98.810 7.1760
180.895340 98.810 7.1779
182.206177 98.810 7.1810
183.526520 98.810 7.1849
184.856430 98.810 7.1900
186.195984 98.810 7.1968
187.545227 98.810 7.2050
188.904266 98.810 7.2143
190.273132 98.810 7.2250
191.651932 98.810 7.2372
193.040726 98.810 7.2510
194.439575 98.810 7.2665
195.848572 98.810 7.2839
197.267761 98.810 7.3038
198.697250 98.810 7.3259
200.137085 98.810 7.3499
201.587372 98.810 7.3769
203.048157 98.810 7.4078
204.519531 98.810 7.4429
206.001556 98.810 7.4826
207.494324 98.810 7.5269
208.997925 98.812 7.5763
210.512405 98.814 7.6299
212.037857 98.817 7.6874
213.574371 98.821 7.7469
215.122025 98.827 7.8069
216.680893 98.834 7.8658
218.251053 98.842 7.9211
219.832581 98.851 7.9738
221.425583 98.861 8.0251
223.030121 98.871 8.0729
224.646286 98.883 8.1160
226.274170 98.895 8.1539
227.913849 98.907 8.1848
229.565399 98.919 8.2119
231.228928 98.930 8.2386
232.904510 98.942 8.2629
234.592224 98.955 8.2852
236.292191 98.968 8.3030
238.004456 98.982 8.3126
239.729126 98.996 8.3180
241.466309 99.008 8.3220
243.216080 99.020 8.3240
244.978516 99.034 8.3255
246.753738 99.048 8.3230
248.541809 99.062 8.3122
250.342850 99.076 8.2970
252.156937 99.087 8.2808
253.984161 99.099 8.2621
255.824646 99.113 8.2416
257.678467 99.127 8.2161
259.545685 99.140 8.1810
261.426483 99.153 8.1411
263.320862 99.163 8.0997
265.229004 99.173 8.0571
267.150970 99.183 8.0154
269.086853 99.193 7.9731
271.036774 99.202 7.9293
273.000824 99.210 7.8851
274.979095 99.218 7.8421
276.971710 99.227 7.7981
278.978760 99.236 7.7513
281.000336 99.244 7.7021
283.036591 99.252 7.6506
285.087585 99.259 7.5962
287.153442 99.266 7.5379
289.234283 99.273 7.4772
291.330200 99.278 7.4140
293.441284 99.281 7.3512
295.567688 99.283 7.2914
297.709503 99.285 7.2351
299.866821 99.286 7.1840
302.039795 99.286 7.1371
304.228485 99.286 7.0942
306.433044 99.286 7.0551
308.653595 99.286 7.0198
310.890228 99.286 6.9871
313.143066 99.286 6.9558
315.412231 99.286 6.9261
317.697845 99.286 6.8978
320.000000 99.286 6.8701
322.318848 99.286 6.8423
324.654510 99.286 6.8141
327.007080 99.285 6.7848
329.376709 99.284 6.7551
331.763519 99.283 6.7245
334.167603 99.280 6.6951
336.589142 99.275 6.6676
339.028198 99.269 6.6461
341.484924 99.262 6.6348
343.959473 99.254 6.6330
346.451935 99.247 6.6410
348.962463 99.239 6.6589
351.491211 99.231 6.6877
354.038239 99.223 6.7259
356.603760 99.217 6.7738
359.187866 99.213 6.8278
361.790680 99.210 6.8849
364.412354 99.208 6.9438
367.053040 99.207 7.0023
369.712860 99.206 7.0608
372.391968 99.206 7.1191
375.090454 99.206 7.1778
377.808533 99.206 7.2369
380.546265 99.206 7.2978
383.303864 99.206 7.3617
386.081451 99.206 7.4288
388.879150 99.206 7.4990
391.697144 99.206 7.5738
394.535522 99.206 7.6547
397.394501 99.206 7.7417
400.274170 99.207 7.8351
403.174744 99.208 7.9357
406.096313 99.210 8.0451
409.039062 99.213 8.1616
412.003113 99.218 8.2849
414.988647 99.225 8.4116
417.995850 99.233 8.5380
421.024811 99.243 8.6646
424.075714 99.255 8.7913
427.148743 99.268 8.9156
430.244049 99.283 9.0347
433.361786 99.298 9.1496
436.502106 99.313 9.2597
439.665161 99.329 9.3677
442.851166 99.345 9.4760
446.060242 99.361 9.5847
449.292572 99.377 9.6936
452.548340 99.394 9.8047
455.827698 99.411 9.9196
459.130798 99.428 10.0386
462.457855 99.447 10.1627
465.809021 99.467 10.2916
469.184448 99.487 10.4258
472.584381 99.510 10.5646
476.008911 99.536 10.7087
479.458252 99.564 10.8545
482.932617 99.594 10.9994
486.432159 99.628 11.1406
489.957031 99.665 11.2765
493.507477 99.705 11.4016
497.083618 99.749 11.5097
500.685699 99.795 11.6017
504.313873 99.840 11.6761
507.968323 99.887 11.7338
511.649292 99.935 11.7751
515.356934 99.984 11.8009
519.091370 100.032 11.8119
522.852966 100.080 11.8100
526.641724 100.128 11.7979
530.458008 100.176 11.7741
534.301941 100.225 11.7379
538.173706 100.274 11.6902
542.073547 100.322 11.6315
546.001648 100.370 11.5623
549.958191 100.418 11.4835
553.943420 100.467 11.3943
557.957520 100.515 11.2935
562.000671 100.563 11.1824
566.073181 100.611 11.0620
570.175171 100.659 10.9314
574.306885 100.707 10.7905
578.468567 100.756 10.6385
582.660400 100.804 10.4756
586.882568 100.852 10.2996
591.135376 100.901 10.1086
595.419006 100.951 9.9017
599.733643 100.999 9.6779
604.079590 101.047 9.4369
608.456970 101.094 9.1775
612.866089 101.139 8.9010
617.307190 101.182 8.6071
621.780457 101.224 8.2990
626.286133 101.263 7.9801
630.824463 101.300 7.6491
635.395691 101.336 7.3047
640.000000 101.369 6.9502
644.637695 101.398 6.5878
649.309021 101.425 6.2193
654.014160 101.450 5.8487
658.753418 101.474 5.4723
663.527039 101.497 5.0866
668.335205 101.517 4.6943
673.178284 101.533 4.2964
678.056396 101.547 3.8954
682.969849 101.559 3.4941
687.918945 101.569 3.0924
692.903870 101.576 2.6908
697.924927 101.581 2.2904
702.982422 101.584 1.8927
708.076477 101.585 1.4964
713.207520 101.586 1.1018
718.375732 101.587 0.7054
723.581360 101.586 0.3045
728.824707 101.584 -0.1025
734.106079 101.581 -0.5182
739.425720 101.576 -0.9425
744.783936 101.569 -1.3772
750.180908 101.558 -1.8194
755.617065 101.544 -2.2678
761.092529 101.526 -2.7194
766.607727 101.505 -3.1714
772.162903 101.480 -3.6224
777.758301 101.451 -4.0698
783.394287 101.418 -4.5135
789.071045 101.383 -4.9511
794.789001 101.345 -5.3864
800.548340 101.305 -5.8221
806.349487 101.262 -6.2594
812.192627 101.215 -6.7017
818.078125 101.163 -7.1464
824.006226 101.106 -7.5945
829.977295 101.041 -8.0384
835.991699 100.968 -8.4759
842.049622 100.886 -8.8925
848.151428 100.793 -9.2765
854.297485 100.690 -9.6168
860.488098 100.580 -9.9013
866.723572 100.462 -10.1223
873.004211 100.338 -10.2707
879.330322 100.207 -10.3389
885.702332 100.073 -10.3151
892.120483 99.937 -10.2026
898.585144 99.806 -9.9989
905.096680 99.678 -9.7102
911.655396 99.555 -9.3403
918.261597 99.438 -8.8938
924.915710 99.330 -8.3729
931.618042 99.232 -7.7892
938.368896 99.146 -7.1520
945.168762 99.072 -6.4706
952.017822 99.010 -5.7537
958.916504 98.960 -5.0119
965.865234 98.926 -4.2554
972.864319 98.904 -3.4948
979.914062 98.895 -2.7424
987.014954 98.897 -2.0028
994.167236 98.909 -1.2828
1001.371399 98.931 -0.5874
1008.627747 98.964 0.0781
1015.936646 99.005 0.7084
1023.298584 99.053 1.2966
1030.713867 99.108 1.8423
1038.182739 99.167 2.3426
1045.705933 99.231 2.7981
1053.283447 99.299 3.2080
1060.916016 99.369 3.5735
1068.603882 99.439 3.8944
1076.347412 99.511 4.1749
1084.147095 99.582 4.4184
1092.003296 99.654 4.6274
1099.916382 99.725 4.8047
1107.886841 99.796 4.9534
1115.915039 99.865 5.0769
1124.001343 99.934 5.1767
1132.146362 100.002 5.2558
1140.350342 100.071 5.3138
1148.613770 100.139 5.3520
1156.937134 100.208 5.3680
1165.320801 100.277 5.3596
1173.765137 100.347 5.3272
1182.270752 100.415 5.2702
1190.838013 100.482 5.1894
1199.467285 100.548 5.0855
1208.159180 100.613 4.9585
1216.913940 100.676 4.8083
1225.732178 100.739 4.6357
1234.614380 100.800 4.4418
1243.560913 100.859 4.2259
1252.572266 100.916 3.9874
1261.648926 100.972 3.7271
1270.791382 101.024 3.4453
1280.000000 101.073 3.1422
1289.275391 101.120 2.8178
1298.618042 101.164 2.4725
1308.028320 101.203 2.1050
1317.506836 101.238 1.7207
1327.054077 101.267 1.3233
1336.670410 101.290 0.9166
1346.356567 101.308 0.5047
1356.112793 101.321 0.0905
1365.939697 101.327 -0.3235
1375.837891 101.327 -0.7313
1385.807739 101.321 -1.1285
1395.849854 101.308 -1.5075
1405.964844 101.289 -1.8613
1416.152954 101.265 -2.1849
1426.415039 101.236 -2.4724
1436.751465 101.204 -2.7201
1447.162720 101.169 -2.9220
1457.649414 101.134 -3.0785
1468.212158 101.100 -3.1850
1478.851440 101.068 -3.2508
1489.567871 101.042 -3.2791
1500.361816 101.023 -3.2840
1511.234131 101.012 -3.2756
1522.185059 101.008 -3.2690
1533.215454 101.011 -3.2794
1544.325806 101.020 -3.3168
1555.516602 101.033 -3.3954
1566.788574 101.047 -3.5174
1578.142090 101.060 -3.6925
1589.578003 101.068 -3.9110
1601.096680 101.067 -4.1715
1612.698975 101.057 -4.4578
1624.385254 101.037 -4.7591
1636.156250 101.004 -5.0577
1648.012451 100.957 -5.3387
1659.954590 100.897 -5.5822
1671.983398 100.825 -5.7676
1684.099243 100.741 -5.8827
1696.302856 100.649 -5.9110
1708.594971 100.550 -5.8445
1720.976196 100.446 -5.6726
1733.447144 100.338 -5.3875
1746.008423 100.229 -4.9778
1758.660645 100.122 -4.4435
1771.404663 100.023 -3.7775
1784.240967 99.933 -2.9895
1797.170288 99.857 -2.0819
1810.193359 99.797 -1.0692
1823.310791 99.757 0.0397
1836.523193 99.739 1.2262
1849.831421 99.745 2.4757
1863.236084 99.777 3.7671
1876.737793 99.836 5.0808
1890.337524 99.923 6.3983
1904.035645 100.036 7.6995
1917.833008 100.175 8.9700
1931.730469 100.340 10.1960
1945.728638 100.532 11.3562
1959.828125 100.753 12.4322
1974.029907 100.998 13.4012
1988.334473 101.266 14.2398
2002.742798 101.554 14.9315
2017.255493 101.858 15.4562
2031.873291 102.175 15.8010
2046.597168 102.501 15.9459
2061.427734 102.830 15.8927
2076.365479 103.155 15.6315
2091.411865 103.474 15.1763
2106.566895 103.783 14.5331
2121.832031 104.081 13.7157
2137.207764 104.364 12.7347
2152.694824 104.630 11.6057
2168.294189 104.879 10.3424
2184.006592 105.107 8.9625
2199.832764 105.312 7.4806
2215.773682 105.494 5.9195
2231.830078 105.651 4.3001
2248.002686 105.785 2.6439
2264.292725 105.894 0.9719
2280.700684 105.980 -0.6929
2297.227539 106.042 -2.3279
2313.874268 106.083 -3.9107
2330.641602 106.105 -5.4129
2347.530273 106.113 -6.8301
2364.541504 106.113 -8.1458
2381.676025 106.108 -9.3676
2398.934570 106.101 -10.4934
2416.318359 106.097 -11.5375
2433.827881 106.099 -12.5046
2451.464355 106.110 -13.4222
2469.228760 106.134 -14.3098
2487.121826 106.171 -15.1962
2505.144531 106.220 -16.1113
2523.297852 106.278 -17.0715
2541.582764 106.342 -18.1007
2560.000000 106.410 -19.2059
2578.550781 106.478 -20.4045
2597.236084 106.541 -21.6899
2616.056641 106.594 -23.0689
2635.013672 106.635 -24.5177
2654.108154 106.659 -26.0218
2673.340820 106.667 -27.5592
2692.713135 106.659 -29.1073
2712.225586 106.637 -30.6548
2731.879395 106.601 -32.1846
2751.675781 106.553 -33.6911
2771.615479 106.495 -35.1602
2791.699707 106.430 -36.6007
2811.929688 106.362 -38.0123
2832.305908 106.289 -39.4075
2852.830078 106.213 -40.7964
2873.502930 106.131 -42.1849
2894.325439 106.046 -43.5825
2915.298828 105.952 -44.9886
2936.424316 105.850 -46.4096
2957.702881 105.736 -47.8338
2979.135742 105.607 -49.2574
3000.723633 105.465 -50.6629
3022.468262 105.305 -52.0379
3044.370117 105.130 -53.3630
3066.430908 104.936 -54.6203
3088.651611 104.727 -55.7949
3111.033203 104.504 -56.8670
3133.577148 104.271 -57.8337
3156.284180 104.029 -58.6850
3179.156006 103.781 -59.4228
3202.193359 103.528 -60.0446
3225.397949 103.272 -60.5529
3248.770508 103.016 -60.9489
3272.312500 102.760 -61.2330
3296.024902 102.505 -61.4073
3319.909180 102.251 -61.4680
3343.966797 102.000 -61.4145
3368.198486 101.752 -61.2391
3392.605713 101.507 -60.9339
3417.189941 101.270 -60.4983
3441.952393 101.044 -59.9230
3466.894287 100.835 -59.2274
3492.016846 100.647 -58.4172
3517.321289 100.485 -57.5243
3542.809326 100.351 -56.5691
3568.481934 100.247 -55.5915
3594.340576 100.179 -54.6257
3620.386719 100.141 -53.7102
3646.621582 100.133 -52.8892
3673.046387 100.146 -52.1801
3699.662842 100.175 -51.6163
3726.472168 100.212 -51.1926
3753.475586 100.250 -50.9228
3780.675049 100.285 -50.7834
3808.071289 100.309 -50.7680
3835.666016 100.320 -50.8385
3863.460938 100.311 -50.9666
3891.457275 100.284 -51.1153
3919.656250 100.240 -51.2443
3948.059814 100.183 -51.3357
3976.668945 100.115 -51.3585
4005.485596 100.041 -51.3114
4034.510986 99.965 -51.1795
4063.746582 99.890 -50.9732
4093.194336 99.822 -50.6913
4122.855469 99.762 -50.3538
4152.730957 99.714 -49.9758
4182.823730 99.675 -49.5700
4213.133789 99.646 -49.1541
4243.664062 99.624 -48.7280
4274.415527 99.608 -48.3000
4305.389648 99.597 -47.8622
4336.588379 99.589 -47.4118
4368.013184 99.586 -46.9423
4399.665527 99.589 -46.4462
4431.547363 99.600 -45.9226
4463.660156 99.618 -45.3673
4496.005371 99.648 -44.7830
4528.585449 99.690 -44.1649
4561.401367 99.749 -43.5310
4594.455078 99.829 -42.8909
4627.748535 99.929 -42.2660
4661.283203 100.051 -41.6742
4695.060547 100.193 -41.1365
4729.083008 100.359 -40.6710
4763.352051 100.545 -40.3035
4797.869141 100.750 -40.0618
4832.636719 100.970 -39.9581
4867.655762 101.199 -40.0135
4902.928711 101.435 -40.2295
4938.457520 101.674 -40.6158
4974.243652 101.913 -41.1690
5010.289062 102.147 -41.8914
5046.595703 102.375 -42.7752
5083.165527 102.594 -43.8178
5120.000000 102.801 -45.0059
5157.101562 102.993 -46.3307
5194.472168 103.169 -47.7757
5232.113281 103.327 -49.3259
5270.027344 103.466 -50.9675
5308.216309 103.588 -52.6869
5346.681641 103.691 -54.4682
5385.426270 103.772 -56.2947
5424.451172 103.836 -58.1549
5463.758789 103.882 -60.0305
5503.351562 103.914 -61.9247
5543.230957 103.933 -63.8322
5583.399414 103.940 -65.7605
5623.859375 103.934 -67.7144
5664.611816 103.914 -69.6972
5705.660156 103.880 -71.7175
5747.005859 103.826 -73.7644
5788.650879 103.750 -75.8421
5830.597656 103.648 -77.9114
5872.848633 103.514 -79.9498
5915.405762 103.350 -81.9112
5958.271484 103.154 -83.7550
6001.447266 102.930 -85.4418
6044.936523 102.679 -86.9228
6088.740234 102.410 -88.1843
6132.861816 102.132 -89.1859
6177.303223 101.854 -89.9597
6222.066406 101.591 -90.5072
6267.154297 101.347 -90.8805
6312.568359 101.132 -91.1148
6358.312012 100.946 -91.2634
6404.386719 100.796 -91.3777
6450.795898 100.677 -91.4983
6497.541016 100.585 -91.6834
6544.625000 100.511 -91.9316
6592.049805 100.446 -92.2663
6639.818359 100.387 -92.6698
6687.933594 100.331 -93.1342
6736.396973 100.278 -93.6522
6785.211426 100.227 -94.2109
6834.379883 100.179 -94.8187
6883.904785 100.139 -95.4737
6933.788574 100.103 -96.1951
6984.033691 100.074 -96.9981
7034.642578 100.047 -97.8942
7085.618652 100.021 -98.9035
7136.963867 99.989 -100.0152
7188.681152 99.945 -101.2352
7240.773438 99.887 -102.5333
7293.243164 99.810 -103.8911
7346.092773 99.716 -105.2790
7399.325684 99.600 -106.6637
7452.944336 99.472 -108.0381
7506.951172 99.333 -109.3738
7561.350098 99.192 -110.7021
7616.142578 99.055 -112.0294
7671.332031 98.921 -113.4037
7726.921875 98.793 -114.8621
7782.914551 98.667 -116.4454
7839.312500 98.541 -118.2052
7896.119629 98.403 -120.1492
7953.337891 98.242 -122.3181
8010.971191 98.047 -124.6642
8069.021973 97.805 -127.1898
8127.493164 97.505 -129.7842
8186.388672 97.131 -132.3849
8245.710938 96.682 -134.8486
8305.461914 96.148 -137.0463
8365.647461 95.535 -138.8716
8426.267578 94.845 -140.1922
8487.328125 94.087 -140.9556
8548.831055 93.265 -141.0607
8610.779297 92.401 -140.5206
8673.176758 91.511 -139.2942
8736.026367 90.621 -137.4446
8799.331055 89.760 -135.0128
8863.094727 88.932 -132.0262
8927.320312 88.146 -128.5337
8992.010742 87.409 -124.5117
9057.170898 86.729 -119.9535
9122.802734 86.120 -114.8554
9188.910156 85.587 -109.1839
9255.497070 85.170 -103.0215
9322.566406 84.894 -96.3713
9390.121094 84.802 -89.4401
9458.166016 84.950 -82.3534
9526.704102 85.315 -75.3633
9595.738281 85.914 -68.6955
9665.273438 86.686 -62.5557
9735.311523 87.593 -57.1879
9805.857422 88.584 -52.7026
9876.915039 89.607 -49.3086
9948.487305 90.628 -46.9539
10020.578125 91.595 -45.7089
10093.191406 92.508 -45.4112
10166.331055 93.347 -45.9682
10240.000000 94.114 -47.2366
10314.203125 94.805 -49.0800
10388.944336 95.423 -51.3851
10464.226562 95.968 -54.0166
10540.054688 96.446 -56.9032
10616.432617 96.866 -59.9411
10693.363281 97.231 -63.0950
10770.852539 97.545 -66.3018
10848.902344 97.815 -69.5464
10927.517578 98.047 -72.7902
11006.703125 98.244 -76.0414
11086.461914 98.412 -79.2931
11166.798828 98.550 -82.5519
11247.718750 98.661 -85.8231
11329.223633 98.743 -89.1031
11411.320312 98.797 -92.3927
11494.011719 98.822 -95.6842
11577.301758 98.818 -98.9737
11661.195312 98.785 -102.2509
11745.697266 98.725 -105.5044
11830.811523 98.639 -108.7326
11916.542969 98.527 -111.9282
12002.894531 98.392 -115.0965
12089.873047 98.234 -118.2367
12177.480469 98.053 -121.3603
12265.723633 97.851 -124.4808
12354.606445 97.623 -127.5922
12444.132812 97.365 -130.7009
12534.308594 97.075 -133.7824
12625.136719 96.749 -136.8319
12716.624023 96.381 -139.7966
12808.773438 95.964 -142.6456
12901.591797 95.498 -145.3085
12995.082031 94.978 -147.7223
13089.250000 94.411 -149.8333
13184.099609 93.798 -151.5824
13279.636719 93.144 -152.9242
13375.867188 92.450 -153.7978
13472.793945 91.729 -154.1892
13570.422852 90.993 -154.0526
13668.759766 90.256 -153.4232
13767.809570 89.535 -152.3091
13867.577148 88.837 -150.7463
13968.067383 88.169 -148.7608
14069.285156 87.544 -146.3915
14171.237305 86.979 -143.6715
14273.927734 86.475 -140.6438
14377.362305 86.040 -137.3477
14481.546875 85.680 -133.8267
14586.486328 85.401 -130.1168
14692.185547 85.211 -126.2786
14798.651367 85.118 -122.3597
14905.888672 85.126 -118.4377
15013.902344 85.239 -114.5757
15122.700195 85.455 -110.8645
15232.285156 85.780 -107.3838
15342.664062 86.199 -104.2300
15453.843750 86.710 -101.5011
15565.829102 87.289 -99.2726
15678.625000 87.919 -97.6394
15792.239258 88.580 -96.6386
15906.675781 89.253 -96.3452
16021.942383 89.912 -96.7410
16138.043945 90.530 -97.8592
16254.986328 91.096 -99.6180
16372.777344 91.591 -101.9836
16491.421875 92.014 -104.8449
16610.923828 92.356 -108.1172
16731.294922 92.619 -111.6856
16852.535156 92.797 -115.4351
16974.656250 92.902 -119.2806
17097.662109 92.937 -123.1056
17221.558594 92.912 -126.8882
17346.353516 92.839 -130.5650
17472.052734 92.720 -134.1456
17598.662109 92.563 -137.6151
17726.189453 92.369 -140.9847
17854.640625 92.144 -144.2666
17984.021484 91.883 -147.4437
18114.341797 91.581 -150.5203
18245.605469 91.237 -153.4439
18377.820312 90.846 -156.1850
18510.994141 90.410 -158.6774
18645.132812 89.924 -160.8602
18780.242188 89.399 -162.6871
18916.332031 88.838 -164.0928
19053.408203 88.255 -165.0747
19191.476562 87.658 -165.5933
19330.546875 87.065 -165.6945
19470.623047 86.492 -165.3824
19611.714844 85.954 -164.7454
19753.830078 85.469 -163.8458
19896.974609 85.038 -162.7669
