* Measurement data measured by REW V5.20.13
* Source: C:\Users\kurin\Desktop\Targets and Curves\Resolve\Img\Files\Focal Bathys_SPL.txt
* Format: Comma/Tab/Space delimited data
* Dated: Aug 14, 2023 3:36:43 PM
* REW Settings:
*  C-weighting compensation: Off
*  Target level: 75.0 dB
* Note: ; Measurement imported from C:\Users\kurin\Desktop\Targets and Curves\Resolve\Img\Files\Focal Bathys_SPL.txt Format: Comma/Tab/Space delimited data 623 values loaded, 5 Hz to 39,792 Hz log spaced 
* Measurement: Focal Bathys_SPL
* Smoothing: 1/48 octave
* Frequency Step: 1/96 octave
* Start Frequency: 5.000 Hz
*
* Freq(Hz) SPL(dB) Phase(degrees)
5.000000 94.405 7.9230
5.036232 94.408 7.9173
5.072727 94.411 7.9110
5.109486 94.415 7.9031
5.146511 94.419 7.8940
5.183805 94.424 7.8834
5.221369 94.430 7.8720
5.259205 94.436 7.8603
5.297316 94.442 7.8480
5.335702 94.449 7.8346
5.374367 94.456 7.8210
5.413311 94.463 7.8081
5.452538 94.469 7.7950
5.492050 94.476 7.7811
5.531847 94.483 7.7670
5.571934 94.490 7.7535
5.612310 94.496 7.7400
5.652979 94.503 7.7261
5.693943 94.510 7.7120
5.735204 94.517 7.6981
5.776763 94.523 7.6840
5.818624 94.529 7.6696
5.860788 94.536 7.6550
5.903258 94.543 7.6405
5.946035 94.550 7.6260
5.989123 94.557 7.6116
6.032523 94.563 7.5970
6.076237 94.570 7.5821
6.120268 94.577 7.5670
6.164618 94.583 7.5521
6.209289 94.590 7.5370
6.254284 94.597 7.5216
6.299605 94.604 7.5060
6.345255 94.611 7.4906
6.391235 94.617 7.4750
6.437549 94.623 7.4591
6.484198 94.630 7.4430
6.531185 94.637 7.4271
6.578513 94.644 7.4110
6.626183 94.650 7.3946
6.674199 94.657 7.3780
6.722563 94.664 7.3615
6.771278 94.671 7.3450
6.820345 94.677 7.3286
6.869768 94.684 7.3120
6.919549 94.691 7.2946
6.969691 94.698 7.2770
7.020196 94.705 7.2600
7.071068 94.711 7.2430
7.122308 94.717 7.2256
7.173919 94.724 7.2080
7.225904 94.731 7.1901
7.278266 94.738 7.1720
7.331007 94.744 7.1541
7.384131 94.751 7.1360
7.437639 94.758 7.1176
7.491535 94.765 7.0990
7.545822 94.771 7.0806
7.600502 94.778 7.0620
7.655579 94.785 7.0431
7.711054 94.792 7.0240
7.766932 94.799 7.0051
7.823214 94.805 6.9860
7.879904 94.811 6.9666
7.937005 94.818 6.9470
7.994520 94.825 6.9276
8.052452 94.832 6.9080
8.110803 94.839 6.8881
8.169578 94.845 6.8680
8.228777 94.852 6.8476
8.288406 94.859 6.8270
8.348468 94.866 6.8066
8.408964 94.872 6.7860
8.469899 94.878 6.7651
8.531276 94.885 6.7440
8.593097 94.892 6.7226
8.655366 94.899 6.7010
8.718086 94.906 6.6796
8.781260 94.912 6.6580
8.844893 94.919 6.6361
8.908987 94.926 6.6140
8.973545 94.933 6.5921
9.038571 94.939 6.5700
9.104069 94.946 6.5471
9.170040 94.953 6.5240
9.236490 94.960 6.5016
9.303422 94.966 6.4790
9.370838 94.972 6.4556
9.438744 94.979 6.4320
9.507140 94.986 6.4086
9.576033 94.993 6.3850
9.645425 94.999 6.3611
9.715320 95.006 6.3370
9.785721 95.013 6.3126
9.856632 95.020 6.2880
9.928058 95.026 6.2631
10.000000 95.033 6.2380
10.072464 95.040 6.2131
10.145453 95.047 6.1880
10.218971 95.054 6.1626
10.293022 95.060 6.1370
10.367610 95.066 6.1111
10.442738 95.073 6.0850
10.518411 95.080 6.0586
10.594631 95.087 6.0320
10.671404 95.093 6.0056
10.748734 95.100 5.9790
10.826623 95.107 5.9522
10.905077 95.114 5.9250
10.984100 95.120 5.8971
11.063695 95.127 5.8690
11.143867 95.134 5.8410
11.224621 95.141 5.8130
11.305959 95.148 5.7851
11.387886 95.154 5.7570
11.470407 95.160 5.7282
11.553527 95.167 5.6990
11.637249 95.174 5.6696
11.721577 95.181 5.6400
11.806517 95.187 5.6101
11.892071 95.194 5.5800
11.978246 95.201 5.5501
12.065045 95.208 5.5200
12.152473 95.215 5.4892
12.240536 95.221 5.4580
12.329235 95.227 5.4266
12.418578 95.234 5.3950
12.508568 95.241 5.3636
12.599211 95.248 5.3320
12.690510 95.254 5.2996
12.782471 95.261 5.2670
12.875097 95.268 5.2347
12.968395 95.275 5.2020
13.062370 95.282 5.1687
13.157025 95.288 5.1350
13.252366 95.295 5.1011
13.348398 95.302 5.0670
13.445127 95.309 5.0327
13.542556 95.315 4.9980
13.640691 95.321 4.9632
13.739536 95.328 4.9280
13.839099 95.335 4.8921
13.939383 95.342 4.8560
14.040393 95.348 4.8201
14.142136 95.355 4.7840
14.244616 95.362 4.7472
14.347837 95.369 4.7100
14.451808 95.376 4.6726
14.556532 95.382 4.6350
14.662014 95.389 4.5972
14.768262 95.396 4.5590
14.875278 95.403 4.5202
14.983070 95.409 4.4810
15.091644 95.415 4.4417
15.201005 95.422 4.4020
15.311157 95.429 4.3618
15.422109 95.436 4.3210
15.533863 95.442 4.2797
15.646428 95.449 4.2380
15.759809 95.456 4.1967
15.874010 95.463 4.1550
15.989040 95.469 4.1123
16.104904 95.476 4.0690
16.221605 95.483 4.0257
16.339155 95.490 3.9821
16.457554 95.497 3.9383
16.576813 95.503 3.8940
16.696936 95.509 3.8488
16.817928 95.516 3.8030
16.939798 95.523 3.7572
17.062551 95.530 3.7111
17.186193 95.536 3.6643
17.310732 95.543 3.6170
17.436172 95.550 3.5693
17.562521 95.557 3.5210
17.689787 95.563 3.4723
17.817974 95.570 3.4231
17.947090 95.577 3.3734
18.077143 95.584 3.3230
18.208138 95.591 3.2719
18.340080 95.597 3.2201
18.472980 95.603 3.1674
18.606844 95.610 3.1140
18.741676 95.617 3.0600
18.877487 95.624 3.0051
19.014280 95.631 2.9487
19.152065 95.637 2.8911
19.290850 95.643 2.8322
19.430639 95.650 2.7720
19.571442 95.657 2.7102
19.713264 95.663 2.6471
19.856115 95.668 2.5825
20.000000 95.673 2.5181
20.144928 95.677 2.4549
20.290907 95.681 2.3941
20.437943 95.685 2.3367
20.586044 95.688 2.2830
20.735220 95.691 2.2339
20.885475 95.695 2.1881
21.036821 95.700 2.1458
21.189262 95.706 2.1041
21.342808 95.713 2.0596
21.497467 95.720 2.0131
21.653246 95.727 1.9643
21.810154 95.734 1.9131
21.968201 95.741 1.8593
22.127390 95.749 1.8031
22.287735 95.756 1.7440
22.449242 95.764 1.6830
22.611917 95.771 1.6213
22.775772 95.779 1.5581
22.940815 95.787 1.4929
23.107054 95.794 1.4261
23.274498 95.800 1.3578
23.443153 95.807 1.2881
23.613033 95.815 1.2170
23.784142 95.822 1.1451
23.956491 95.828 1.0724
24.130091 95.833 1.0001
24.304947 95.839 0.9300
24.481071 95.846 0.8601
24.658470 95.853 0.7893
24.837156 95.860 0.7171
25.017136 95.866 0.6422
25.198421 95.873 0.5651
25.381020 95.880 0.4861
25.564941 95.888 0.4051
25.750195 95.895 0.3215
25.936790 95.901 0.2371
26.124741 95.906 0.1541
26.314051 95.912 0.0711
26.504732 95.918 -0.0121
26.696796 95.925 -0.0969
26.890253 95.932 -0.1847
27.085112 95.939 -0.2759
27.281382 95.946 -0.3714
27.479073 95.953 -0.4709
27.678198 95.959 -0.5750
27.878765 95.965 -0.6819
28.080786 95.969 -0.7904
28.284271 95.971 -0.8979
28.489231 95.973 -1.0016
28.695675 95.974 -1.1009
28.903616 95.975 -1.1939
29.113064 95.977 -1.2819
29.324028 95.979 -1.3644
29.536524 95.981 -1.4439
29.750557 95.985 -1.5215
29.966141 95.991 -1.6009
30.183289 95.997 -1.6866
30.402010 96.004 -1.7779
30.622314 96.011 -1.8757
30.844217 96.018 -1.9799
31.067726 96.025 -2.0908
31.292856 96.031 -2.2078
31.519617 96.037 -2.3317
31.748020 96.041 -2.4588
31.978081 96.044 -2.5862
32.209808 96.045 -2.7128
32.443211 96.046 -2.8370
32.678310 96.046 -2.9588
32.915108 96.046 -3.0779
33.153625 96.046 -3.1949
33.393871 96.046 -3.3100
33.635857 96.046 -3.4238
33.879597 96.046 -3.5366
34.125103 96.046 -3.6488
34.372387 96.046 -3.7608
34.621464 96.046 -3.8728
34.872345 96.046 -3.9852
35.125042 96.046 -4.0979
35.379574 96.046 -4.2107
35.635948 96.046 -4.3239
35.894180 96.046 -4.4375
36.154285 96.046 -4.5518
36.416275 96.046 -4.6668
36.680161 96.046 -4.7828
36.945961 96.046 -4.9005
37.213688 96.046 -5.0198
37.483353 96.046 -5.1406
37.754974 96.046 -5.2638
38.028561 96.046 -5.3903
38.304131 96.046 -5.5198
38.581699 96.046 -5.6522
38.861279 96.045 -5.7878
39.142883 96.044 -5.9279
39.426529 96.041 -6.0698
39.712231 96.037 -6.2119
40.000000 96.031 -6.3518
40.289856 96.025 -6.4862
40.581814 96.018 -6.6158
40.875885 96.011 -6.7398
41.172089 96.004 -6.8588
41.470440 95.997 -6.9729
41.770950 95.991 -7.0828
42.073643 95.985 -7.1880
42.378525 95.981 -7.2929
42.685616 95.979 -7.4015
42.994934 95.977 -7.5148
43.306492 95.975 -7.6357
43.620308 95.973 -7.7628
43.936401 95.970 -7.8966
44.254780 95.967 -8.0348
44.575470 95.963 -8.1760
44.898483 95.957 -8.3178
45.223835 95.950 -8.4570
45.551544 95.943 -8.5948
45.881630 95.936 -8.7310
46.214108 95.929 -8.8658
46.548996 95.922 -8.9990
46.886307 95.914 -9.1318
47.226067 95.907 -9.2647
47.568283 95.900 -9.3988
47.912983 95.893 -9.5354
48.260181 95.885 -9.6738
48.609894 95.876 -9.8138
48.962143 95.867 -9.9548
49.316940 95.858 -10.0966
49.674313 95.848 -10.2378
50.034271 95.837 -10.3771
50.396843 95.826 -10.5138
50.762039 95.814 -10.6454
51.129883 95.803 -10.7758
51.500389 95.793 -10.9088
51.873581 95.782 -11.0428
52.249481 95.770 -11.1779
52.628101 95.758 -11.3128
53.009464 95.746 -11.4453
53.393593 95.734 -11.5778
53.780506 95.722 -11.7122
54.170223 95.710 -11.8468
54.562763 95.696 -11.9803
54.958145 95.681 -12.1128
55.356396 95.668 -12.2435
55.757530 95.654 -12.3738
56.161572 95.640 -12.5048
56.568542 95.625 -12.6358
56.978462 95.610 -12.7665
57.391350 95.595 -12.8968
57.807232 95.580 -13.0266
58.226128 95.564 -13.1558
58.648056 95.548 -13.2846
59.073048 95.531 -13.4118
59.501114 95.513 -13.5359
59.932281 95.495 -13.6578
60.366577 95.478 -13.7781
60.804020 95.460 -13.8968
61.244629 95.442 -14.0137
61.688435 95.424 -14.1298
62.135452 95.407 -14.2459
62.585712 95.389 -14.3618
63.039234 95.371 -14.4779
63.496040 95.352 -14.5938
63.956161 95.333 -14.7092
64.419617 95.313 -14.8238
64.886421 95.294 -14.9377
65.356621 95.274 -15.0498
65.830215 95.253 -15.1593
66.307251 95.231 -15.2658
66.787743 95.210 -15.3680
67.271713 95.189 -15.4678
67.759193 95.168 -15.5669
68.250206 95.147 -15.6648
68.744774 95.126 -15.7616
69.242928 95.105 -15.8578
69.744690 95.085 -15.9541
70.250084 95.064 -16.0508
70.759148 95.042 -16.1493
71.271896 95.020 -16.2468
71.788361 94.997 -16.3407
72.308571 94.974 -16.4328
72.832550 94.952 -16.5250
73.360321 94.929 -16.6148
73.891922 94.905 -16.7005
74.427376 94.880 -16.7828
74.966705 94.856 -16.8614
75.509949 94.833 -16.9389
76.057121 94.810 -17.0189
76.608261 94.787 -17.0988
77.163399 94.763 -17.1773
77.722557 94.738 -17.2538
78.285767 94.714 -17.3272
78.853058 94.689 -17.3989
79.424461 94.665 -17.4707
80.000000 94.640 -17.5409
80.579712 94.615 -17.6086
81.163628 94.589 -17.6729
81.751770 94.563 -17.7320
82.344177 94.537 -17.7879
82.940880 94.512 -17.8415
83.541901 94.487 -17.8939
84.147285 94.463 -17.9474
84.757050 94.438 -17.9999
85.371231 94.413 -18.0494
85.989868 94.388 -18.0979
86.612984 94.364 -18.1461
87.240616 94.340 -18.1959
87.872803 94.317 -18.2507
88.509560 94.293 -18.3069
89.150940 94.267 -18.3623
89.796967 94.240 -18.4159
90.447670 94.214 -18.4658
91.103088 94.187 -18.5129
91.763260 94.160 -18.5580
92.428215 94.133 -18.5999
93.097992 94.105 -18.6372
93.772614 94.077 -18.6709
94.452133 94.050 -18.7014
95.136566 94.023 -18.7289
95.825966 93.996 -18.7534
96.520363 93.969 -18.7769
97.219788 93.944 -18.8010
97.924286 93.919 -18.8269
98.633881 93.894 -18.8577
99.348625 93.868 -18.8899
100.068542 93.841 -18.9214
100.793686 93.814 -18.9519
101.524078 93.786 -18.9805
102.259766 93.758 -19.0069
103.000778 93.730 -19.0311
103.747162 93.701 -19.0520
104.498962 93.672 -19.0682
105.256203 93.642 -19.0810
106.018929 93.613 -19.0910
106.787186 93.585 -19.0990
107.561012 93.556 -19.1057
108.340446 93.527 -19.1110
109.125526 93.499 -19.1152
109.916290 93.470 -19.1180
110.712791 93.440 -19.1200
111.515060 93.410 -19.1190
112.323143 93.380 -19.1128
113.137085 93.349 -19.1020
113.956924 93.319 -19.0862
114.782700 93.289 -19.0671
115.614464 93.260 -19.0462
116.452255 93.231 -19.0240
117.296112 93.202 -19.0018
118.146095 93.173 -18.9790
119.002228 93.144 -18.9562
119.864563 93.115 -18.9321
120.733154 93.085 -18.9063
121.608040 93.055 -18.8771
122.489258 93.025 -18.8426
123.376869 92.994 -18.8031
124.270905 92.963 -18.7575
125.171425 92.933 -18.7081
126.078468 92.904 -18.6566
126.992081 92.875 -18.6031
127.912323 92.846 -18.5482
128.839233 92.818 -18.4921
129.772842 92.790 -18.4354
130.713242 92.761 -18.3771
131.660431 92.733 -18.3165
132.614502 92.704 -18.2532
133.575485 92.675 -18.1864
134.543427 92.647 -18.1171
135.518387 92.619 -18.0468
136.500412 92.592 -17.9741
137.489548 92.564 -17.8985
138.485855 92.536 -17.8202
139.489380 92.508 -17.7392
140.500168 92.481 -17.6562
141.518295 92.454 -17.5721
142.543793 92.428 -17.4862
143.576721 92.401 -17.3982
144.617142 92.374 -17.3072
145.665100 92.347 -17.2117
146.720642 92.321 -17.1133
147.783844 92.296 -17.0125
148.854752 92.271 -16.9113
149.933411 92.247 -16.8119
151.019897 92.224 -16.7132
152.114243 92.200 -16.6153
153.216522 92.175 -16.5173
154.326797 92.151 -16.4181
155.445114 92.128 -16.3192
156.571533 92.105 -16.2226
157.706116 92.081 -16.1262
158.848923 92.056 -16.0293
160.000000 92.031 -15.9302
161.159424 92.006 -15.8267
162.327255 91.980 -15.7202
163.503540 91.955 -15.6114
164.688354 91.930 -15.5002
165.881760 91.904 -15.3876
167.083801 91.878 -15.2713
168.294571 91.851 -15.1495
169.514099 91.824 -15.0223
170.742462 91.798 -14.8892
171.979736 91.771 -14.7504
173.225967 91.744 -14.6059
174.481232 91.717 -14.4554
175.745605 91.690 -14.2990
177.019119 91.664 -14.1354
178.301880 91.638 -13.9626
179.593933 91.612 -13.7825
180.895340 91.588 -13.5953
182.206177 91.566 -13.4035
183.526520 91.545 -13.2099
184.856430 91.524 -13.0134
186.195984 91.504 -12.8129
187.545227 91.484 -12.6105
188.904266 91.467 -12.4079
190.273132 91.450 -12.2055
191.651932 91.434 -12.0050
193.040726 91.418 -11.8046
194.439575 91.402 -11.6027
195.848572 91.386 -11.3996
197.267761 91.371 -11.1953
198.697250 91.356 -10.9885
200.137085 91.341 -10.7784
201.587372 91.325 -10.5635
203.048157 91.309 -10.3422
204.519531 91.294 -10.1137
206.001556 91.279 -9.8759
207.494324 91.266 -9.6306
208.997925 91.254 -9.3787
210.512405 91.244 -9.1216
212.037857 91.235 -8.8616
213.574371 91.228 -8.5976
215.122025 91.222 -8.3289
216.680893 91.217 -8.0577
218.251053 91.215 -7.7861
219.832581 91.215 -7.5138
221.425583 91.215 -7.2411
223.030121 91.217 -6.9687
224.646286 91.222 -6.6966
226.274170 91.229 -6.4267
227.913849 91.237 -6.1610
229.565399 91.246 -5.8997
231.228928 91.258 -5.6428
232.904510 91.271 -5.3927
234.592224 91.286 -5.1517
236.292191 91.302 -4.9196
238.004456 91.319 -4.6973
239.729126 91.337 -4.4836
241.466309 91.354 -4.2778
243.216080 91.372 -4.0785
244.978516 91.390 -3.8844
246.753738 91.408 -3.6945
248.541809 91.426 -3.5081
250.342850 91.444 -3.3245
252.156937 91.463 -3.1426
253.984161 91.483 -2.9635
255.824646 91.504 -2.7874
257.678467 91.526 -2.6154
259.545685 91.548 -2.4495
261.426483 91.571 -2.2874
263.320862 91.594 -2.1268
265.229004 91.618 -1.9704
267.150970 91.644 -1.8200
269.086853 91.672 -1.6764
271.036774 91.699 -1.5414
273.000824 91.727 -1.4144
274.979095 91.756 -1.2945
276.971710 91.786 -1.1833
278.978760 91.816 -1.0827
281.000336 91.846 -0.9912
283.036591 91.875 -0.9089
285.087585 91.904 -0.8332
287.153442 91.933 -0.7615
289.234283 91.962 -0.6942
291.330200 91.990 -0.6312
293.441284 92.019 -0.5722
295.567688 92.048 -0.5163
297.709503 92.078 -0.4651
299.866821 92.108 -0.4191
302.039795 92.139 -0.3801
304.228485 92.171 -0.3504
306.433044 92.203 -0.3290
308.653595 92.234 -0.3161
310.890228 92.264 -0.3100
313.143066 92.294 -0.3092
315.412231 92.325 -0.3140
317.697845 92.355 -0.3248
320.000000 92.385 -0.3399
322.318848 92.414 -0.3576
324.654510 92.444 -0.3789
327.007080 92.475 -0.4032
329.376709 92.506 -0.4339
331.763519 92.538 -0.4746
334.167603 92.571 -0.5248
336.589142 92.603 -0.5850
339.028198 92.636 -0.6558
341.484924 92.669 -0.7381
343.959473 92.701 -0.8317
346.451935 92.731 -0.9377
348.962463 92.761 -1.0527
351.491211 92.789 -1.1731
354.038239 92.817 -1.3006
356.603760 92.844 -1.4359
359.187866 92.871 -1.5776
361.790680 92.896 -1.7248
364.412354 92.920 -1.8766
367.053040 92.943 -2.0305
369.712860 92.966 -2.1895
372.391968 92.988 -2.3557
375.090454 93.010 -2.5285
377.808533 93.031 -2.7088
380.546265 93.050 -2.8944
383.303864 93.068 -3.0836
386.081451 93.085 -3.2764
388.879150 93.101 -3.4722
391.697144 93.116 -3.6714
394.535522 93.130 -3.8748
397.394501 93.143 -4.0814
400.274170 93.155 -4.2908
403.174744 93.165 -4.5013
406.096313 93.174 -4.7110
409.039062 93.182 -4.9204
412.003113 93.190 -5.1293
414.988647 93.197 -5.3373
417.995850 93.203 -5.5435
421.024811 93.209 -5.7493
424.075714 93.215 -5.9553
427.148743 93.222 -6.1643
430.244049 93.229 -6.3789
433.361786 93.236 -6.6003
436.502106 93.243 -6.8306
439.665161 93.250 -7.0702
442.851166 93.256 -7.3208
446.060242 93.260 -7.5812
449.292572 93.263 -7.8521
452.548340 93.264 -8.1301
455.827698 93.262 -8.4131
459.130798 93.257 -8.6981
462.457855 93.251 -8.9807
465.809021 93.243 -9.2631
469.184448 93.234 -9.5465
472.584381 93.224 -9.8301
476.008911 93.212 -10.1138
479.458252 93.198 -10.3971
482.932617 93.184 -10.6786
486.432159 93.168 -10.9611
489.957031 93.152 -11.2473
493.507477 93.134 -11.5361
497.083618 93.114 -11.8280
500.685699 93.091 -12.1200
504.313873 93.067 -12.4092
507.968323 93.040 -12.6961
511.649292 93.012 -12.9805
515.356934 92.981 -13.2611
519.091370 92.948 -13.5367
522.852966 92.914 -13.8071
526.641724 92.878 -14.0722
530.458008 92.841 -14.3312
534.301941 92.802 -14.5832
538.173706 92.761 -14.8282
542.073547 92.718 -15.0663
546.001648 92.674 -15.2962
549.958191 92.629 -15.5173
553.943420 92.582 -15.7283
557.957520 92.533 -15.9277
562.000671 92.483 -16.1164
566.073181 92.433 -16.2942
570.175171 92.383 -16.4625
574.306885 92.332 -16.6218
578.468567 92.281 -16.7735
582.660400 92.230 -16.9184
586.882568 92.178 -17.0585
591.135376 92.127 -17.1962
595.419006 92.075 -17.3305
599.733643 92.021 -17.4614
604.079590 91.966 -17.5886
608.456970 91.911 -17.7113
612.866089 91.855 -17.8306
617.307190 91.798 -17.9479
621.780457 91.738 -18.0606
626.286133 91.676 -18.1665
630.824463 91.613 -18.2657
635.395691 91.549 -18.3580
640.000000 91.484 -18.4427
644.637695 91.417 -18.5198
649.309021 91.347 -18.5878
654.014160 91.275 -18.6458
658.753418 91.201 -18.6919
663.527039 91.126 -18.7235
668.335205 91.048 -18.7410
673.178284 90.969 -18.7437
678.056396 90.888 -18.7311
682.969849 90.806 -18.7030
687.918945 90.721 -18.6572
692.903870 90.635 -18.5911
697.924927 90.547 -18.5053
702.982422 90.459 -18.3997
708.076477 90.369 -18.2745
713.207520 90.279 -18.1313
718.375732 90.186 -17.9666
723.581360 90.092 -17.7781
728.824707 89.995 -17.5638
734.106079 89.898 -17.3217
739.425720 89.799 -17.0500
744.783936 89.699 -16.7478
750.180908 89.598 -16.4113
755.617065 89.496 -16.0367
761.092529 89.394 -15.6236
766.607727 89.294 -15.1697
772.162903 89.194 -14.6768
777.758301 89.096 -14.1463
783.394287 88.999 -13.5771
789.071045 88.905 -12.9679
794.789001 88.813 -12.3204
800.548340 88.725 -11.6354
806.349487 88.641 -10.9136
812.192627 88.561 -10.1557
818.078125 88.485 -9.3619
824.006226 88.414 -8.5322
829.977295 88.347 -7.6691
835.991699 88.286 -6.7741
842.049622 88.232 -5.8515
848.151428 88.186 -4.9052
854.297485 88.146 -3.9376
860.488098 88.112 -2.9520
866.723572 88.084 -1.9487
873.004211 88.063 -0.9296
879.330322 88.049 0.1063
885.702332 88.040 1.1587
892.120483 88.038 2.2291
898.585144 88.042 3.3201
905.096680 88.055 4.4279
911.655396 88.078 5.5514
918.261597 88.111 6.6848
924.915710 88.153 7.8244
931.618042 88.207 8.9629
938.368896 88.273 10.0942
945.168762 88.350 11.2108
952.017822 88.437 12.3048
958.916504 88.535 13.3720
965.865234 88.642 14.4055
972.864319 88.759 15.4064
979.914062 88.882 16.3734
987.014954 89.014 17.3056
994.167236 89.156 18.2050
1001.371399 89.307 19.0600
1008.627747 89.472 19.8630
1015.936646 89.646 20.6040
1023.298584 89.829 21.2730
1030.713867 90.019 21.8622
1038.182739 90.217 22.3642
1045.705933 90.419 22.7695
1053.283447 90.625 23.0644
1060.916016 90.831 23.2534
1068.603882 91.031 23.3326
1076.347412 91.225 23.3143
1084.147095 91.412 23.2048
1092.003296 91.588 23.0187
1099.916382 91.753 22.7677
1107.886841 91.906 22.4674
1115.915039 92.049 22.1348
1124.001343 92.182 21.7774
1132.146362 92.306 21.4061
1140.350342 92.423 21.0265
1148.613770 92.531 20.6469
1156.937134 92.634 20.2686
1165.320801 92.732 19.8969
1173.765137 92.827 19.5276
1182.270752 92.919 19.1589
1190.838013 93.008 18.7895
1199.467285 93.094 18.4173
1208.159180 93.178 18.0425
1216.913940 93.258 17.6648
1225.732178 93.336 17.2844
1234.614380 93.411 16.9008
1243.560913 93.484 16.5155
1252.572266 93.553 16.1294
1261.648926 93.620 15.7436
1270.791382 93.685 15.3596
1280.000000 93.748 14.9765
1289.275391 93.809 14.5939
1298.618042 93.869 14.2116
1308.028320 93.927 13.8303
1317.506836 93.984 13.4476
1327.054077 94.041 13.0625
1336.670410 94.097 12.6725
1346.356567 94.151 12.2760
1356.112793 94.205 11.8705
1365.939697 94.258 11.4529
1375.837891 94.309 11.0238
1385.807739 94.357 10.5818
1395.849854 94.402 10.1298
1405.964844 94.442 9.6693
1416.152954 94.479 9.2037
1426.415039 94.512 8.7353
1436.751465 94.540 8.2698
1447.162720 94.563 7.8120
1457.649414 94.581 7.3668
1468.212158 94.595 6.9401
1478.851440 94.607 6.5325
1489.567871 94.617 6.1469
1500.361816 94.625 5.7824
1511.234131 94.633 5.4404
1522.185059 94.640 5.1174
1533.215454 94.648 4.8108
1544.325806 94.657 4.5193
1555.516602 94.665 4.2416
1566.788574 94.674 3.9751
1578.142090 94.685 3.7177
1589.578003 94.698 3.4661
1601.096680 94.711 3.2154
1612.698975 94.725 2.9680
1624.385254 94.738 2.7254
1636.156250 94.752 2.4851
1648.012451 94.767 2.2445
1659.954590 94.783 2.0049
1671.983398 94.797 1.7661
1684.099243 94.810 1.5290
1696.302856 94.824 1.2946
1708.594971 94.839 1.0620
1720.976196 94.853 0.8297
1733.447144 94.867 0.6000
1746.008423 94.879 0.3752
1758.660645 94.892 0.1539
1771.404663 94.906 -0.0641
1784.240967 94.920 -0.2801
1797.170288 94.934 -0.4961
1810.193359 94.947 -0.7102
1823.310791 94.960 -0.9202
1836.523193 94.974 -1.1292
1849.831421 94.988 -1.3396
1863.236084 95.002 -1.5501
1876.737793 95.015 -1.7597
1890.337524 95.027 -1.9691
1904.035645 95.040 -2.1779
1917.833008 95.053 -2.3882
1931.730469 95.065 -2.6036
1945.728638 95.075 -2.8191
1959.828125 95.083 -3.0319
1974.029907 95.088 -3.2391
1988.334473 95.092 -3.4380
2002.742798 95.093 -3.6253
2017.255493 95.091 -3.7979
2031.873291 95.088 -3.9524
2046.597168 95.083 -4.0846
2061.427734 95.078 -4.1936
2076.365479 95.072 -4.2773
2091.411865 95.067 -4.3358
2106.566895 95.062 -4.3685
2121.832031 95.058 -4.3760
2137.207764 95.055 -4.3595
2152.694824 95.053 -4.3172
2168.294189 95.052 -4.2494
2184.006592 95.052 -4.1515
2199.832764 95.053 -4.0209
2215.773682 95.055 -3.8518
2231.830078 95.058 -3.6387
2248.002686 95.065 -3.3782
2264.292725 95.076 -3.0651
2280.700684 95.094 -2.6987
2297.227539 95.120 -2.2754
2313.874268 95.156 -1.7991
2330.641602 95.205 -1.2676
2347.530273 95.270 -0.6955
2364.541504 95.354 -0.0890
2381.676025 95.460 0.5292
2398.934570 95.591 1.1418
2416.318359 95.744 1.7255
2433.827881 95.922 2.2600
2451.464355 96.123 2.7183
2469.228760 96.347 3.0731
2487.121826 96.590 3.3053
2505.144531 96.847 3.3892
2523.297852 97.116 3.3167
2541.582764 97.391 3.0709
2560.000000 97.670 2.6522
2578.550781 97.946 2.0525
2597.236084 98.217 1.2819
2616.056641 98.477 0.3428
2635.013672 98.726 -0.7491
2654.108154 98.959 -1.9824
2673.340820 99.176 -3.3398
2692.713135 99.375 -4.8064
2712.225586 99.554 -6.3635
2731.879395 99.713 -7.9933
2751.675781 99.851 -9.6781
2771.615479 99.970 -11.3992
2791.699707 100.069 -13.1423
2811.929688 100.149 -14.8907
2832.305908 100.211 -16.6329
2852.830078 100.256 -18.3548
2873.502930 100.286 -20.0467
2894.325439 100.301 -21.6957
2915.298828 100.304 -23.2978
2936.424316 100.297 -24.8446
2957.702881 100.282 -26.3366
2979.135742 100.261 -27.7702
3000.723633 100.235 -29.1491
3022.468262 100.208 -30.4717
3044.370117 100.180 -31.7492
3066.430908 100.155 -32.9870
3088.651611 100.132 -34.2016
3111.033203 100.114 -35.4064
3133.577148 100.100 -36.6152
3156.284180 100.089 -37.8431
3179.156006 100.079 -39.0999
3202.193359 100.070 -40.3990
3225.397949 100.059 -41.7445
3248.770508 100.042 -43.1480
3272.312500 100.017 -44.6004
3296.024902 99.980 -46.1007
3319.909180 99.930 -47.6348
3343.966797 99.864 -49.1954
3368.198486 99.780 -50.7616
3392.605713 99.676 -52.3187
3417.189941 99.553 -53.8411
3441.952393 99.408 -55.3043
3466.894287 99.244 -56.6890
3492.016846 99.062 -57.9728
3517.321289 98.865 -59.1409
3542.809326 98.653 -60.1750
3568.481934 98.430 -61.0633
3594.340576 98.198 -61.7890
3620.386719 97.961 -62.3487
3646.621582 97.724 -62.7316
3673.046387 97.491 -62.9424
3699.662842 97.266 -62.9790
3726.472168 97.053 -62.8520
3753.475586 96.856 -62.5641
3780.675049 96.680 -62.1362
3808.071289 96.531 -61.5779
3835.666016 96.412 -60.9253
3863.460938 96.331 -60.2033
3891.457275 96.287 -59.4556
3919.656250 96.283 -58.7208
3948.059814 96.317 -58.0390
3976.668945 96.387 -57.4521
4005.485596 96.488 -56.9919
4034.510986 96.618 -56.6992
4063.746582 96.768 -56.5891
4093.194336 96.931 -56.6916
4122.855469 97.100 -57.0010
4152.730957 97.268 -57.5261
4182.823730 97.431 -58.2521
4213.133789 97.584 -59.1753
4243.664062 97.722 -60.2714
4274.415527 97.840 -61.5237
4305.389648 97.938 -62.9050
4336.588379 98.012 -64.3907
4368.013184 98.063 -65.9564
4399.665527 98.089 -67.5777
4431.547363 98.090 -69.2289
4463.660156 98.066 -70.8824
4496.005371 98.018 -72.5189
4528.585449 97.950 -74.1138
4561.401367 97.862 -75.6548
4594.455078 97.757 -77.1233
4627.748535 97.637 -78.5144
4661.283203 97.505 -79.8152
4695.060547 97.366 -81.0313
4729.083008 97.221 -82.1619
4763.352051 97.071 -83.2132
4797.869141 96.918 -84.1894
4832.636719 96.763 -85.0956
4867.655762 96.607 -85.9382
4902.928711 96.450 -86.7173
4938.457520 96.291 -87.4373
4974.243652 96.131 -88.0930
5010.289062 95.968 -88.6834
5046.595703 95.804 -89.2006
5083.165527 95.639 -89.6380
5120.000000 95.475 -89.9915
5157.101562 95.313 -90.2527
5194.472168 95.158 -90.4274
5232.113281 95.011 -90.5144
5270.027344 94.875 -90.5261
5308.216309 94.752 -90.4674
5346.681641 94.646 -90.3596
5385.426270 94.561 -90.2172
5424.451172 94.495 -90.0657
5463.758789 94.450 -89.9288
5503.351562 94.423 -89.8264
5543.230957 94.414 -89.7819
5583.399414 94.420 -89.8077
5623.859375 94.437 -89.9228
5664.611816 94.462 -90.1307
5705.660156 94.491 -90.4439
5747.005859 94.522 -90.8546
5788.650879 94.549 -91.3647
5830.597656 94.570 -91.9577
5872.848633 94.582 -92.6225
5915.405762 94.585 -93.3451
5958.271484 94.578 -94.1126
6001.447266 94.561 -94.9108
6044.936523 94.532 -95.7263
6088.740234 94.491 -96.5439
6132.861816 94.440 -97.3475
6177.303223 94.378 -98.1272
6222.066406 94.309 -98.8710
6267.154297 94.231 -99.5696
6312.568359 94.146 -100.2114
6358.312012 94.057 -100.7913
6404.386719 93.967 -101.2998
6450.795898 93.877 -101.7389
6497.541016 93.789 -102.1057
6544.625000 93.706 -102.4047
6592.049805 93.631 -102.6357
6639.818359 93.565 -102.8092
6687.933594 93.511 -102.9323
6736.396973 93.470 -103.0147
6785.211426 93.443 -103.0649
6834.379883 93.432 -103.0939
6883.904785 93.438 -103.1100
6933.788574 93.463 -103.1299
6984.033691 93.509 -103.1659
7034.642578 93.578 -103.2385
7085.618652 93.668 -103.3635
7136.963867 93.781 -103.5677
7188.681152 93.920 -103.8728
7240.773438 94.080 -104.3104
7293.243164 94.263 -104.9100
7346.092773 94.464 -105.6995
7399.325684 94.678 -106.7096
7452.944336 94.901 -107.9611
7506.951172 95.127 -109.4822
7561.350098 95.350 -111.2810
7616.142578 95.561 -113.3776
7671.332031 95.754 -115.7639
7726.921875 95.922 -118.4464
7782.914551 96.056 -121.4011
7839.312500 96.152 -124.6230
7896.119629 96.200 -128.0653
7953.337891 96.193 -131.7010
8010.971191 96.128 -135.4649
8069.021973 95.999 -139.3091
8127.493164 95.804 -143.1528
8186.388672 95.537 -146.9310
8245.710938 95.199 -150.5475
8305.461914 94.786 -153.9097
8365.647461 94.308 -156.9420
8426.267578 93.766 -159.5504
8487.328125 93.172 -161.6960
8548.831055 92.531 -163.3086
8610.779297 91.860 -164.3887
8673.176758 91.170 -164.8975
8736.026367 90.481 -164.8835
8799.331055 89.812 -164.3592
8863.094727 89.176 -163.3942
8927.320312 88.590 -162.0436
8992.010742 88.060 -160.3637
9057.170898 87.594 -158.4144
9122.802734 87.195 -156.2390
9188.910156 86.867 -153.8855
9255.497070 86.613 -151.3987
9322.566406 86.435 -148.8195
9390.121094 86.338 -146.2088
9458.166016 86.328 -143.6149
9526.704102 86.403 -141.1168
9595.738281 86.568 -138.7809
9665.273438 86.814 -136.6932
9735.311523 87.136 -134.9391
9805.857422 87.518 -133.5881
9876.915039 87.945 -132.7332
9948.487305 88.396 -132.3904
10020.578125 88.846 -132.6194
10093.191406 89.286 -133.3805
10166.331055 89.696 -134.6747
10240.000000 90.070 -136.4385
10314.203125 90.397 -138.6346
10388.944336 90.673 -141.1851
10464.226562 90.892 -144.0227
10540.054688 91.055 -147.0773
10616.432617 91.159 -150.2754
10693.363281 91.208 -153.5613
10770.852539 91.203 -156.8688
10848.902344 91.149 -160.1593
10927.517578 91.049 -163.3800
11006.703125 90.907 -166.5094
11086.461914 90.727 -169.5092
11166.798828 90.515 -172.3775
11247.718750 90.279 -175.0942
11329.223633 90.023 -177.6750
11411.320312 89.753 179.8782
11494.011719 89.472 177.5434
11577.301758 89.182 175.3040
11661.195312 88.885 173.1418
11745.697266 88.582 171.0349
11830.811523 88.271 168.9771
11916.542969 87.947 166.9495
12002.894531 87.608 164.9689
12089.873047 87.249 163.0356
12177.480469 86.869 161.1793
12265.723633 86.464 159.4171
12354.606445 86.033 157.7874
12444.132812 85.574 156.3188
12534.308594 85.087 155.0582
12625.136719 84.571 154.0513
12716.624023 84.033 153.3300
12808.773438 83.477 152.9410
12901.591797 82.913 152.8853
12995.082031 82.347 153.1872
13089.250000 81.791 153.8240
13184.099609 81.254 154.8002
13279.636719 80.750 156.0569
13375.867188 80.295 157.5627
13472.793945 79.892 159.2391
13570.422852 79.553 161.0179
13668.759766 79.273 162.8362
13767.809570 79.050 164.6173
13867.577148 78.876 166.3333
13968.067383 78.744 167.9190
14069.285156 78.638 169.4108
14171.237305 78.537 170.7957
14273.927734 78.442 172.1577
14377.362305 78.343 173.5593
14481.546875 78.255 175.0549
14586.486328 78.183 176.7330
14692.185547 78.157 178.5540
14798.651367 78.202 -179.4424
14905.888672 78.338 -177.4077
15013.902344 78.599 -175.4177
15122.700195 78.967 -173.6630
15232.285156 79.449 -172.3109
15342.664062 80.004 -171.5089
15453.843750 80.606 -171.4465
15565.829102 81.216 -172.1668
15678.625000 81.792 -173.8104
15792.239258 82.312 -176.2686
15906.675781 82.742 -179.5459
16021.942383 83.074 176.5605
16138.043945 83.293 172.1880
16254.986328 83.403 167.5326
16372.777344 83.399 162.7873
16491.421875 83.292 158.0976
16610.923828 83.085 153.6500
16731.294922 82.795 149.5129
16852.535156 82.434 145.8244
16974.656250 82.025 142.5624
17097.662109 81.587 139.7867
17221.558594 81.144 137.3896
17346.353516 80.719 135.3285
17472.052734 80.322 133.4640
17598.662109 79.973 131.6790
17726.189453 79.661 129.8609
17854.640625 79.392 127.8721
17984.021484 79.142 125.6709
18114.341797 78.900 123.1374
18245.605469 78.635 120.3703
18377.820312 78.314 117.3656
18510.994141 77.927 114.3156
18645.132812 77.453 111.3445
18780.242188 76.889 108.6565
18916.332031 76.220 106.4651
19053.408203 75.468 104.8661
19191.476562 74.640 104.0564
19330.546875 73.772 103.9457
19470.623047 72.893 104.5545
19611.714844 72.036 105.7418
19753.830078 71.235 107.4277
19896.974609 70.518 109.4480
