* Measurement data measured by REW V5.20.13
* Source: C:\Users\kurin\Desktop\Targets and Curves\Resolve\Img\Files\lcD-4_SPL.txt
* Format: Comma/Tab/Space delimited data
* Dated: Aug 14, 2023 5:43:39 PM
* REW Settings:
*  C-weighting compensation: Off
*  Target level: 75.0 dB
* Note: ; Measurement imported from C:\Users\kurin\Desktop\Targets and Curves\Resolve\Img\Files\lcD-4_SPL.txt Format: Comma/Tab/Space delimited data 623 values loaded, 5 Hz to 39,792 Hz log spaced 
* Measurement: lcD-4_SPL
* Smoothing: 1/48 octave
* Frequency Step: 1/96 octave
* Start Frequency: 5.000 Hz
*
* Freq(Hz) SPL(dB) Phase(degrees)
5.000000 82.658 21.7720
5.036232 82.665 21.7662
5.072727 82.673 21.7600
5.109486 82.682 21.7529
5.146511 82.693 21.7450
5.183805 82.705 21.7358
5.221369 82.719 21.7260
5.259205 82.733 21.7162
5.297316 82.748 21.7060
5.335702 82.764 21.6951
5.374367 82.780 21.6840
5.413311 82.796 21.6735
5.452538 82.812 21.6630
5.492050 82.828 21.6521
5.531847 82.845 21.6410
5.571934 82.861 21.6300
5.612310 82.877 21.6190
5.652979 82.893 21.6081
5.693943 82.909 21.5970
5.735204 82.925 21.5855
5.776763 82.941 21.5740
5.818624 82.957 21.5631
5.860788 82.973 21.5520
5.903258 82.989 21.5401
5.946035 83.006 21.5280
5.989123 83.022 21.5165
6.032523 83.038 21.5050
6.076237 83.054 21.4931
6.120268 83.070 21.4810
6.164618 83.086 21.4690
6.209289 83.102 21.4570
6.254284 83.118 21.4451
6.299605 83.134 21.4330
6.345255 83.150 21.4206
6.391235 83.167 21.4080
6.437549 83.183 21.3955
6.484198 83.199 21.3830
6.531185 83.215 21.3706
6.578513 83.231 21.3580
6.626183 83.247 21.3451
6.674199 83.263 21.3320
6.722563 83.279 21.3191
6.771278 83.295 21.3060
6.820345 83.311 21.2926
6.869768 83.328 21.2790
6.919549 83.344 21.2655
6.969691 83.360 21.2520
7.020196 83.376 21.2386
7.071068 83.392 21.2250
7.122308 83.408 21.2111
7.173919 83.424 21.1970
7.225904 83.440 21.1830
7.278266 83.456 21.1690
7.331007 83.472 21.1551
7.384131 83.489 21.1410
7.437639 83.505 21.1266
7.491535 83.521 21.1120
7.545822 83.537 21.0971
7.600502 83.553 21.0820
7.655579 83.569 21.0670
7.711054 83.585 21.0520
7.766932 83.601 21.0370
7.823214 83.617 21.0220
7.879904 83.633 21.0071
7.937005 83.649 20.9920
7.994520 83.665 20.9761
8.052452 83.682 20.9600
8.110803 83.698 20.9445
8.169578 83.714 20.9290
8.228777 83.730 20.9131
8.288406 83.746 20.8970
8.348468 83.762 20.8806
8.408964 83.778 20.8640
8.469899 83.794 20.8475
8.531276 83.810 20.8310
8.593097 83.826 20.8146
8.655366 83.843 20.7980
8.718086 83.859 20.7806
8.781260 83.875 20.7630
8.844893 83.891 20.7460
8.908987 83.907 20.7290
8.973545 83.923 20.7116
9.038571 83.939 20.6940
9.104069 83.955 20.6761
9.170040 83.971 20.6580
9.236490 83.987 20.6401
9.303422 84.004 20.6220
9.370838 84.020 20.6036
9.438744 84.036 20.5850
9.507140 84.052 20.5666
9.576033 84.068 20.5480
9.645425 84.084 20.5291
9.715320 84.100 20.5100
9.785721 84.116 20.4906
9.856632 84.132 20.4710
9.928058 84.148 20.4515
10.000000 84.165 20.4320
10.072464 84.181 20.4126
10.145453 84.197 20.3930
10.218971 84.213 20.3726
10.293022 84.229 20.3520
10.367610 84.245 20.3315
10.442738 84.261 20.3110
10.518411 84.277 20.2906
10.594631 84.293 20.2700
10.671404 84.309 20.2486
10.748734 84.326 20.2270
10.826623 84.342 20.2055
10.905077 84.358 20.1840
10.984100 84.374 20.1626
11.063695 84.390 20.1410
11.143867 84.406 20.1186
11.224621 84.422 20.0960
11.305959 84.438 20.0735
11.387886 84.454 20.0510
11.470407 84.470 20.0286
11.553527 84.487 20.0060
11.637249 84.503 19.9826
11.721577 84.519 19.9590
11.806517 84.535 19.9356
11.892071 84.551 19.9120
11.978246 84.567 19.8881
12.065045 84.583 19.8640
12.152473 84.599 19.8396
12.240536 84.615 19.8150
12.329235 84.631 19.7901
12.418578 84.648 19.7650
12.508568 84.664 19.7396
12.599211 84.680 19.7140
12.690510 84.696 19.6886
12.782471 84.712 19.6630
12.875097 84.728 19.6371
12.968395 84.744 19.6110
13.062370 84.760 19.5846
13.157025 84.776 19.5580
13.252366 84.792 19.5312
13.348398 84.809 19.5040
13.445127 84.825 19.4762
13.542556 84.841 19.4480
13.640691 84.857 19.4201
13.739536 84.873 19.3920
13.839099 84.889 19.3636
13.939383 84.905 19.3350
14.040393 84.921 19.3061
14.142136 84.937 19.2770
14.244616 84.953 19.2476
14.347837 84.970 19.2180
14.451808 84.986 19.1881
14.556532 85.002 19.1580
14.662014 85.018 19.1277
14.768262 85.034 19.0970
14.875278 85.050 19.0657
14.983070 85.066 19.0340
15.091644 85.082 19.0022
15.201005 85.098 18.9700
15.311157 85.114 18.9377
15.422109 85.130 18.9050
15.533863 85.146 18.8717
15.646428 85.163 18.8380
15.759809 85.179 18.8041
15.874010 85.195 18.7700
15.989040 85.211 18.7357
16.104904 85.227 18.7010
16.221605 85.243 18.6658
16.339155 85.259 18.6300
16.457554 85.275 18.5937
16.576813 85.291 18.5570
16.696936 85.307 18.5202
16.817928 85.324 18.4830
16.939798 85.340 18.4453
17.062551 85.356 18.4070
17.186193 85.372 18.3684
17.310732 85.388 18.3290
17.436172 85.404 18.2888
17.562521 85.420 18.2480
17.689787 85.436 18.2069
17.817974 85.452 18.1650
17.947090 85.468 18.1225
18.077143 85.485 18.0790
18.208138 85.501 18.0345
18.340080 85.517 17.9890
18.472980 85.533 17.9432
18.606844 85.549 17.8960
18.741676 85.565 17.8470
18.877487 85.581 17.7961
19.014280 85.597 17.7433
19.152065 85.613 17.6881
19.290850 85.629 17.6296
19.430639 85.645 17.5680
19.571442 85.660 17.5029
19.713264 85.675 17.4351
19.856115 85.688 17.3641
20.000000 85.700 17.2931
20.144928 85.710 17.2239
20.290907 85.719 17.1591
20.437943 85.727 17.1007
20.586044 85.734 17.0510
20.735220 85.740 17.0131
20.885475 85.745 16.9860
21.036821 85.751 16.9710
21.189262 85.759 16.9650
21.342808 85.768 16.9664
21.497467 85.779 16.9730
21.653246 85.792 16.9830
21.810154 85.806 16.9930
21.968201 85.822 16.9992
22.127390 85.839 17.0010
22.287735 85.856 16.9961
22.449242 85.874 16.9860
22.611917 85.892 16.9705
22.775772 85.909 16.9530
22.940815 85.925 16.9360
23.107054 85.940 16.9220
23.274498 85.955 16.9148
23.443153 85.971 16.9130
23.613033 85.988 16.9162
23.784142 86.006 16.9260
23.956491 86.023 16.9459
24.130091 86.043 16.9690
24.304947 86.069 16.9917
24.481071 86.099 17.0080
24.658470 86.129 17.0104
24.837156 86.161 16.9990
25.017136 86.196 16.9725
25.198421 86.232 16.9271
25.381020 86.269 16.8575
25.564941 86.305 16.7671
25.750195 86.338 16.6555
25.936790 86.370 16.5292
26.124741 86.399 16.3944
26.314051 86.427 16.2512
26.504732 86.453 16.1005
26.696796 86.478 15.9452
26.890253 86.500 15.7884
27.085112 86.520 15.6302
27.281382 86.540 15.4722
27.479073 86.559 15.3122
27.678198 86.577 15.1475
27.878765 86.593 14.9812
28.080786 86.607 14.8150
28.284271 86.620 14.6512
28.489231 86.632 14.4925
28.695675 86.642 14.3392
28.903616 86.651 14.1932
29.113064 86.660 14.0532
29.324028 86.669 13.9204
29.536524 86.680 13.7892
29.750557 86.693 13.6550
29.966141 86.706 13.5152
30.183289 86.719 13.3648
30.402010 86.731 13.2062
30.622314 86.741 13.0388
30.844217 86.750 12.8662
31.067726 86.756 12.6902
31.292856 86.759 12.5153
31.519617 86.760 12.3452
31.748020 86.758 12.1842
31.978081 86.754 12.0383
32.209808 86.749 11.9062
32.443211 86.744 11.7898
32.678310 86.740 11.6851
32.915108 86.738 11.5899
33.153625 86.736 11.5011
33.393871 86.735 11.4149
33.635857 86.735 11.3311
33.879597 86.735 11.2486
34.125103 86.736 11.1661
34.372387 86.738 11.0822
34.621464 86.740 10.9971
34.872345 86.741 10.9102
35.125042 86.742 10.8231
35.379574 86.742 10.7374
35.635948 86.742 10.6531
35.894180 86.742 10.5705
36.154285 86.742 10.4901
36.416275 86.741 10.4117
36.680161 86.740 10.3371
36.945961 86.738 10.2684
37.213688 86.736 10.2041
37.483353 86.735 10.1436
37.754974 86.735 10.0861
38.028561 86.734 10.0302
38.304131 86.734 9.9771
38.581699 86.734 9.9276
38.861279 86.734 9.8811
39.142883 86.734 9.8372
39.426529 86.735 9.7961
39.712231 86.736 9.7581
40.000000 86.739 9.7211
40.289856 86.743 9.6837
40.581814 86.749 9.6431
40.875885 86.756 9.5958
41.172089 86.764 9.5411
41.470440 86.771 9.4767
41.770950 86.778 9.4031
42.073643 86.785 9.3198
42.378525 86.791 9.2281
42.685616 86.795 9.1274
42.994934 86.797 9.0231
43.306492 86.796 8.9191
43.620308 86.792 8.8201
43.936401 86.786 8.7329
44.254780 86.779 8.6561
44.575470 86.772 8.5905
44.898483 86.765 8.5361
45.223835 86.757 8.4936
45.551544 86.750 8.4610
45.881630 86.744 8.4380
46.214108 86.740 8.4210
46.548996 86.738 8.4068
46.886307 86.736 8.3940
47.226067 86.735 8.3803
47.568283 86.734 8.3660
47.912983 86.734 8.3508
48.260181 86.734 8.3350
48.609894 86.734 8.3183
48.962143 86.734 8.3020
49.316940 86.734 8.2872
49.674313 86.734 8.2740
50.034271 86.734 8.2627
50.396843 86.734 8.2540
50.762039 86.734 8.2487
51.129883 86.734 8.2470
51.500389 86.735 8.2494
51.873581 86.736 8.2560
52.249481 86.737 8.2679
52.628101 86.740 8.2830
53.009464 86.744 8.3006
53.393593 86.750 8.3180
53.780506 86.757 8.3319
54.170223 86.766 8.3430
54.562763 86.775 8.3518
54.958145 86.785 8.3560
55.356396 86.797 8.3542
55.757530 86.811 8.3440
56.161572 86.825 8.3219
56.568542 86.839 8.2901
56.978462 86.852 8.2504
57.391350 86.866 8.2011
57.807232 86.881 8.1415
58.226128 86.896 8.0701
58.648056 86.909 7.9840
59.073048 86.920 7.8872
59.501114 86.929 7.7821
59.932281 86.937 7.6702
60.366577 86.943 7.5521
60.804020 86.947 7.4322
61.244629 86.946 7.3136
61.688435 86.943 7.2012
62.135452 86.938 7.1016
62.585712 86.931 7.0131
63.039234 86.924 6.9365
63.496040 86.917 6.8711
63.956161 86.910 6.8175
64.419617 86.903 6.7731
64.886421 86.897 6.7369
65.356621 86.892 6.7051
65.830215 86.889 6.6738
66.307251 86.886 6.6421
66.787743 86.883 6.6064
67.271713 86.880 6.5701
67.759193 86.876 6.5337
68.250206 86.870 6.5011
68.744774 86.863 6.4762
69.242928 86.856 6.4590
69.744690 86.849 6.4506
70.250084 86.841 6.4520
70.759148 86.833 6.4652
71.271896 86.826 6.4889
71.788361 86.821 6.5237
72.308571 86.818 6.5659
72.832550 86.817 6.6133
73.360321 86.818 6.6629
73.891922 86.821 6.7120
74.427376 86.826 6.7579
74.966705 86.834 6.7967
75.509949 86.843 6.8289
76.057121 86.852 6.8541
76.608261 86.862 6.8710
77.163399 86.874 6.8792
77.722557 86.886 6.8760
78.285767 86.899 6.8571
78.853058 86.911 6.8271
79.424461 86.921 6.7890
80.000000 86.930 6.7441
80.579712 86.938 6.6944
81.163628 86.946 6.6401
81.751770 86.952 6.5812
82.344177 86.957 6.5211
82.940880 86.960 6.4633
83.541901 86.961 6.4081
84.147285 86.962 6.3572
84.757050 86.963 6.3101
85.371231 86.963 6.2668
85.989868 86.963 6.2271
86.612984 86.963 6.1907
87.240616 86.963 6.1571
87.872803 86.963 6.1257
88.509560 86.963 6.0961
89.150940 86.963 6.0674
89.796967 86.963 6.0401
90.447670 86.963 6.0144
91.103088 86.963 5.9901
91.763260 86.963 5.9665
92.428215 86.963 5.9440
93.097992 86.963 5.9226
93.772614 86.963 5.9020
94.452133 86.963 5.8821
95.136566 86.963 5.8630
95.825966 86.963 5.8452
96.520363 86.963 5.8280
97.219788 86.963 5.8112
97.924286 86.963 5.7950
98.633881 86.963 5.7802
99.348625 86.963 5.7660
100.068542 86.963 5.7522
100.793686 86.963 5.7390
101.524078 86.963 5.7267
102.259766 86.963 5.7150
103.000778 86.963 5.7041
103.747162 86.963 5.6940
104.498962 86.963 5.6847
105.256203 86.963 5.6760
106.018929 86.963 5.6677
106.787186 86.963 5.6600
107.561012 86.963 5.6531
108.340446 86.963 5.6470
109.125526 86.963 5.6416
109.916290 86.963 5.6370
110.712791 86.963 5.6336
111.515060 86.963 5.6310
112.323143 86.963 5.6291
113.137085 86.963 5.6280
113.956924 86.963 5.6275
114.782700 86.963 5.6280
115.614464 86.963 5.6299
116.452255 86.963 5.6330
117.296112 86.963 5.6374
118.146095 86.963 5.6430
119.002228 86.963 5.6497
119.864563 86.963 5.6580
120.733154 86.963 5.6682
121.608040 86.963 5.6810
122.489258 86.963 5.6968
123.376869 86.963 5.7159
124.270905 86.963 5.7388
125.171425 86.964 5.7649
126.078468 86.965 5.7951
126.992081 86.968 5.8269
127.912323 86.972 5.8596
128.839233 86.978 5.8899
129.772842 86.985 5.9141
130.713242 86.992 5.9330
131.660431 86.999 5.9462
132.614502 87.007 5.9540
133.575485 87.014 5.9556
134.543427 87.021 5.9530
135.518387 87.027 5.9465
136.500412 87.032 5.9400
137.489548 87.036 5.9374
138.485855 87.039 5.9400
139.489380 87.042 5.9513
140.500168 87.046 5.9680
141.518295 87.052 5.9893
142.543793 87.060 6.0100
143.576721 87.071 6.0253
144.617142 87.084 6.0320
145.665100 87.098 6.0254
146.720642 87.113 6.0051
147.783844 87.128 5.9689
148.854752 87.142 5.9172
149.933411 87.155 5.8478
151.019897 87.167 5.7652
152.114243 87.175 5.6719
153.216522 87.180 5.5723
154.326797 87.183 5.4704
155.445114 87.183 5.3692
156.571533 87.180 5.2724
157.706116 87.175 5.1822
158.848923 87.168 5.1025
160.000000 87.159 5.0322
161.159424 87.150 4.9708
162.327255 87.140 4.9201
163.503540 87.128 4.8809
164.688354 87.115 4.8550
165.881760 87.102 4.8457
167.083801 87.090 4.8490
168.294571 87.080 4.8627
169.514099 87.071 4.8849
170.742462 87.063 4.9128
171.979736 87.055 4.9469
173.225967 87.048 4.9883
174.481232 87.043 5.0329
175.745605 87.040 5.0773
177.019119 87.038 5.1209
178.301880 87.037 5.1621
179.593933 87.037 5.2009
180.895340 87.037 5.2365
182.206177 87.037 5.2699
183.526520 87.037 5.3017
184.856430 87.037 5.3319
186.195984 87.037 5.3605
187.545227 87.038 5.3879
188.904266 87.039 5.4146
190.273132 87.039 5.4409
191.651932 87.039 5.4677
193.040726 87.039 5.4949
194.439575 87.039 5.5231
195.848572 87.039 5.5519
197.267761 87.039 5.5810
198.697250 87.039 5.6109
200.137085 87.039 5.6424
201.587372 87.039 5.6749
203.048157 87.039 5.7082
204.519531 87.039 5.7429
206.001556 87.039 5.7795
207.494324 87.039 5.8179
208.997925 87.039 5.8581
210.512405 87.039 5.9009
212.037857 87.039 5.9471
213.574371 87.039 5.9969
215.122025 87.040 6.0510
216.680893 87.041 6.1088
218.251053 87.042 6.1708
219.832581 87.045 6.2348
221.425583 87.049 6.2998
223.030121 87.055 6.3628
224.646286 87.062 6.4205
226.274170 87.070 6.4739
227.913849 87.077 6.5229
229.565399 87.084 6.5679
231.228928 87.092 6.6086
232.904510 87.101 6.6459
234.592224 87.108 6.6803
236.292191 87.115 6.7129
238.004456 87.122 6.7458
239.729126 87.130 6.7769
241.466309 87.138 6.8048
243.216080 87.146 6.8299
244.978516 87.154 6.8522
246.753738 87.161 6.8719
248.541809 87.168 6.8894
250.342850 87.175 6.9050
252.156937 87.181 6.9181
253.984161 87.187 6.9320
255.824646 87.191 6.9498
257.678467 87.195 6.9709
259.545685 87.200 6.9972
261.426483 87.206 7.0249
263.320862 87.212 7.0511
265.229004 87.219 7.0749
267.150970 87.226 7.0950
269.086853 87.234 7.1110
271.036774 87.241 7.1217
273.000824 87.248 7.1280
274.979095 87.255 7.1290
276.971710 87.260 7.1280
278.978760 87.263 7.1275
281.000336 87.265 7.1290
283.036591 87.266 7.1350
285.087585 87.267 7.1450
287.153442 87.268 7.1592
289.234283 87.268 7.1779
291.330200 87.267 7.2016
293.441284 87.266 7.2299
295.567688 87.266 7.2627
297.709503 87.265 7.3009
299.866821 87.263 7.3453
302.039795 87.261 7.3968
304.228485 87.259 7.4574
306.433044 87.258 7.5248
308.653595 87.258 7.5967
310.890228 87.258 7.6748
313.143066 87.258 7.7604
315.412231 87.258 7.8527
317.697845 87.260 7.9516
320.000000 87.263 8.0567
322.318848 87.266 8.1676
324.654510 87.271 8.2836
327.007080 87.277 8.4038
329.376709 87.285 8.5276
331.763519 87.294 8.6547
334.167603 87.305 8.7836
336.589142 87.317 8.9130
339.028198 87.331 9.0416
341.484924 87.347 9.1678
343.959473 87.365 9.2907
346.451935 87.384 9.4081
348.962463 87.404 9.5217
351.491211 87.424 9.6329
354.038239 87.445 9.7407
356.603760 87.469 9.8453
359.187866 87.494 9.9447
361.790680 87.520 10.0364
364.412354 87.546 10.1228
367.053040 87.573 10.2062
369.712860 87.601 10.2848
372.391968 87.632 10.3589
375.090454 87.665 10.4238
377.808533 87.699 10.4749
380.546265 87.735 10.5119
383.303864 87.772 10.5344
386.081451 87.810 10.5390
388.879150 87.849 10.5220
391.697144 87.888 10.4841
394.535522 87.925 10.4238
397.394501 87.961 10.3443
400.274170 87.995 10.2469
403.174744 88.026 10.1354
406.096313 88.054 10.0121
409.039062 88.078 9.8824
412.003113 88.099 9.7520
414.988647 88.117 9.6224
417.995850 88.133 9.4967
421.024811 88.147 9.3764
424.075714 88.159 9.2647
427.148743 88.171 9.1593
430.244049 88.182 9.0591
433.361786 88.193 8.9633
436.502106 88.203 8.8704
439.665161 88.212 8.7813
442.851166 88.221 8.6962
446.060242 88.229 8.6152
449.292572 88.236 8.5387
452.548340 88.243 8.4662
455.827698 88.249 8.3963
459.130798 88.255 8.3322
462.457855 88.259 8.2774
465.809021 88.264 8.2301
469.184448 88.270 8.1908
472.584381 88.276 8.1561
476.008911 88.283 8.1229
479.458252 88.290 8.0911
482.932617 88.297 8.0596
486.432159 88.305 8.0291
489.957031 88.313 7.9997
493.507477 88.320 7.9721
497.083618 88.326 7.9454
500.685699 88.332 7.9241
504.313873 88.337 7.9128
507.968323 88.342 7.9100
511.649292 88.349 7.9161
515.356934 88.357 7.9289
519.091370 88.366 7.9471
522.852966 88.376 7.9689
526.641724 88.388 7.9932
530.458008 88.402 8.0169
534.301941 88.418 8.0369
538.173706 88.435 8.0530
542.073547 88.453 8.0631
546.001648 88.471 8.0690
549.958191 88.489 8.0714
553.943420 88.508 8.0710
557.957520 88.527 8.0688
562.000671 88.546 8.0650
566.073181 88.566 8.0607
570.175171 88.587 8.0550
574.306885 88.609 8.0487
578.468567 88.633 8.0380
582.660400 88.659 8.0211
586.882568 88.687 7.9931
591.135376 88.716 7.9472
595.419006 88.744 7.8882
599.733643 88.770 7.8186
604.079590 88.796 7.7383
608.456970 88.823 7.6478
612.866089 88.850 7.5483
617.307190 88.873 7.4388
621.780457 88.893 7.3264
626.286133 88.911 7.2182
630.824463 88.929 7.1133
635.395691 88.947 7.0131
640.000000 88.965 6.9173
644.637695 88.981 6.8258
649.309021 88.998 6.7393
654.014160 89.016 6.6598
658.753418 89.036 6.5833
663.527039 89.058 6.5073
668.335205 89.081 6.4293
673.178284 89.106 6.3480
678.056396 89.133 6.2573
682.969849 89.164 6.1522
687.918945 89.197 6.0275
692.903870 89.231 5.8753
697.924927 89.264 5.6987
702.982422 89.296 5.4973
708.076477 89.326 5.2729
713.207520 89.353 5.0261
718.375732 89.378 4.7590
723.581360 89.399 4.4702
728.824707 89.415 4.1701
734.106079 89.424 3.8670
739.425720 89.427 3.5661
744.783936 89.427 3.2736
750.180908 89.423 2.9940
755.617065 89.413 2.7308
761.092529 89.398 2.4928
766.607727 89.380 2.2910
772.162903 89.361 2.1225
777.758301 89.344 1.9911
783.394287 89.329 1.8883
789.071045 89.318 1.8102
794.789001 89.312 1.7472
800.548340 89.311 1.6914
806.349487 89.315 1.6332
812.192627 89.324 1.5607
818.078125 89.336 1.4724
824.006226 89.348 1.3619
829.977295 89.361 1.2325
835.991699 89.374 1.0835
842.049622 89.385 0.9206
848.151428 89.393 0.7478
854.297485 89.399 0.5697
860.488098 89.404 0.3933
866.723572 89.408 0.2157
873.004211 89.414 0.0379
879.330322 89.420 -0.1453
885.702332 89.427 -0.3383
892.120483 89.435 -0.5432
898.585144 89.442 -0.7627
905.096680 89.449 -1.0001
911.655396 89.456 -1.2589
918.261597 89.462 -1.5409
924.915710 89.465 -1.8499
931.618042 89.464 -2.1827
938.368896 89.458 -2.5399
945.168762 89.445 -2.9136
952.017822 89.425 -3.2991
958.916504 89.396 -3.6875
965.865234 89.359 -4.0717
972.864319 89.312 -4.4407
979.914062 89.256 -4.7861
987.014954 89.190 -5.0929
994.167236 89.114 -5.3465
1001.371399 89.029 -5.5365
1008.627747 88.939 -5.6489
1015.936646 88.844 -5.6800
1023.298584 88.748 -5.6202
1030.713867 88.653 -5.4726
1038.182739 88.563 -5.2327
1045.705933 88.480 -4.9155
1053.283447 88.409 -4.5303
1060.916016 88.348 -4.0900
1068.603882 88.299 -3.6061
1076.347412 88.262 -3.0931
1084.147095 88.241 -2.5647
1092.003296 88.232 -2.0348
1099.916382 88.236 -1.5204
1107.886841 88.250 -1.0260
1115.915039 88.273 -0.5612
1124.001343 88.303 -0.1275
1132.146362 88.340 0.2705
1140.350342 88.382 0.6327
1148.613770 88.428 0.9575
1156.937134 88.478 1.2449
1165.320801 88.531 1.4926
1173.765137 88.585 1.7051
1182.270752 88.638 1.8854
1190.838013 88.693 2.0354
1199.467285 88.749 2.1588
1208.159180 88.805 2.2547
1216.913940 88.861 2.3210
1225.732178 88.917 2.3649
1234.614380 88.969 2.3937
1243.560913 89.021 2.4050
1252.572266 89.076 2.3992
1261.648926 89.132 2.3741
1270.791382 89.185 2.3245
1280.000000 89.237 2.2593
1289.275391 89.287 2.1881
1298.618042 89.339 2.1034
1308.028320 89.393 2.0019
1317.506836 89.449 1.8796
1327.054077 89.503 1.7312
1336.670410 89.557 1.5577
1346.356567 89.611 1.3596
1356.112793 89.664 1.1329
1365.939697 89.715 0.8711
1375.837891 89.762 0.5823
1385.807739 89.803 0.2696
1395.849854 89.838 -0.0587
1405.964844 89.868 -0.3953
1416.152954 89.893 -0.7338
1426.415039 89.911 -1.0675
1436.751465 89.925 -1.3888
1447.162720 89.934 -1.6871
1457.649414 89.940 -1.9649
1468.212158 89.947 -2.2190
1478.851440 89.955 -2.4561
1489.567871 89.964 -2.6811
1500.361816 89.974 -2.8972
1511.234131 89.986 -3.1066
1522.185059 90.000 -3.3170
1533.215454 90.018 -3.5355
1544.325806 90.037 -3.7669
1555.516602 90.057 -4.0196
1566.788574 90.077 -4.2908
1578.142090 90.094 -4.5807
1589.578003 90.110 -4.8897
1601.096680 90.125 -5.2185
1612.698975 90.137 -5.5665
1624.385254 90.145 -5.9361
1636.156250 90.147 -6.3193
1648.012451 90.143 -6.7115
1659.954590 90.132 -7.1055
1671.983398 90.115 -7.4959
1684.099243 90.091 -7.8735
1696.302856 90.059 -8.2284
1708.594971 90.020 -8.5566
1720.976196 89.978 -8.8519
1733.447144 89.931 -9.1110
1746.008423 89.878 -9.3291
1758.660645 89.822 -9.5034
1771.404663 89.764 -9.6285
1784.240967 89.705 -9.7078
1797.170288 89.646 -9.7445
1810.193359 89.586 -9.7341
1823.310791 89.524 -9.6765
1836.523193 89.460 -9.5616
1849.831421 89.395 -9.3829
1863.236084 89.329 -9.1293
1876.737793 89.264 -8.7897
1890.337524 89.202 -8.3571
1904.035645 89.146 -7.8181
1917.833008 89.101 -7.1817
1931.730469 89.074 -6.4440
1945.728638 89.067 -5.6306
1959.828125 89.087 -4.7530
1974.029907 89.135 -3.8498
1988.334473 89.217 -2.9512
2002.742798 89.328 -2.0943
2017.255493 89.470 -1.3176
2031.873291 89.636 -0.6474
2046.597168 89.825 -0.1200
2061.427734 90.029 0.2557
2076.365479 90.242 0.4562
2091.411865 90.460 0.4892
2106.566895 90.677 0.3521
2121.832031 90.892 0.0536
2137.207764 91.102 -0.4024
2152.694824 91.303 -1.0043
2168.294189 91.493 -1.7421
2184.006592 91.671 -2.6078
2199.832764 91.837 -3.5937
2215.773682 91.986 -4.6893
2231.830078 92.117 -5.8889
2248.002686 92.226 -7.1695
2264.292725 92.310 -8.5157
2280.700684 92.370 -9.8990
2297.227539 92.402 -11.2980
2313.874268 92.408 -12.6765
2330.641602 92.384 -14.0016
2347.530273 92.336 -15.2419
2364.541504 92.266 -16.3585
2381.676025 92.180 -17.3399
2398.934570 92.084 -18.1598
2416.318359 91.982 -18.8234
2433.827881 91.882 -19.3182
2451.464355 91.790 -19.6708
2469.228760 91.716 -19.8896
2487.121826 91.660 -20.0166
2505.144531 91.630 -20.0846
2523.297852 91.622 -20.1308
2541.582764 91.640 -20.1963
2560.000000 91.677 -20.3024
2578.550781 91.729 -20.4824
2597.236084 91.794 -20.7416
2616.056641 91.865 -21.0971
2635.013672 91.942 -21.5459
2654.108154 92.019 -22.0927
2673.340820 92.097 -22.7310
2692.713135 92.170 -23.4575
2712.225586 92.240 -24.2670
2731.879395 92.304 -25.1524
2751.675781 92.363 -26.1164
2771.615479 92.416 -27.1597
2791.699707 92.461 -28.2819
2811.929688 92.494 -29.4878
2832.305908 92.513 -30.7609
2852.830078 92.513 -32.0946
2873.502930 92.494 -33.4630
2894.325439 92.452 -34.8466
2915.298828 92.389 -36.2198
2936.424316 92.305 -37.5569
2957.702881 92.200 -38.8386
2979.135742 92.078 -40.0382
3000.723633 91.942 -41.1523
3022.468262 91.796 -42.1645
3044.370117 91.644 -43.0869
3066.430908 91.489 -43.9239
3088.651611 91.332 -44.6847
3111.033203 91.173 -45.3809
3133.577148 91.012 -46.0102
3156.284180 90.848 -46.5788
3179.156006 90.680 -47.0728
3202.193359 90.506 -47.4856
3225.397949 90.328 -47.8018
3248.770508 90.147 -48.0026
3272.312500 89.969 -48.0909
3296.024902 89.797 -48.0563
3319.909180 89.637 -47.9198
3343.966797 89.492 -47.6877
3368.198486 89.368 -47.3945
3392.605713 89.269 -47.0640
3417.189941 89.193 -46.7355
3441.952393 89.143 -46.4486
3466.894287 89.113 -46.2258
3492.016846 89.098 -46.1005
3517.321289 89.094 -46.0798
3542.809326 89.095 -46.1861
3568.481934 89.096 -46.4077
3594.340576 89.089 -46.7492
3620.386719 89.072 -47.1847
3646.621582 89.039 -47.7003
3673.046387 88.989 -48.2642
3699.662842 88.918 -48.8508
3726.472168 88.827 -49.4274
3753.475586 88.716 -49.9586
3780.675049 88.589 -50.4271
3808.071289 88.448 -50.8047
3835.666016 88.298 -51.0889
3863.460938 88.141 -51.2638
3891.457275 87.982 -51.3419
3919.656250 87.828 -51.3241
3948.059814 87.679 -51.2296
3976.668945 87.537 -51.0759
4005.485596 87.400 -50.8691
4034.510986 87.267 -50.6221
4063.746582 87.139 -50.3325
4093.194336 87.013 -50.0056
4122.855469 86.889 -49.6310
4152.730957 86.762 -49.2033
4182.823730 86.638 -48.7115
4213.133789 86.515 -48.1420
4243.664062 86.398 -47.4962
4274.415527 86.288 -46.7706
4305.389648 86.186 -45.9681
4336.588379 86.095 -45.0888
4368.013184 86.016 -44.1387
4399.665527 85.953 -43.1193
4431.547363 85.908 -42.0444
4463.660156 85.884 -40.9238
4496.005371 85.880 -39.7709
4528.585449 85.898 -38.5960
4561.401367 85.940 -37.4176
4594.455078 86.008 -36.2491
4627.748535 86.103 -35.1154
4661.283203 86.226 -34.0383
4695.060547 86.373 -33.0416
4729.083008 86.545 -32.1511
4763.352051 86.736 -31.3833
4797.869141 86.945 -30.7618
4832.636719 87.166 -30.2910
4867.655762 87.395 -29.9853
4902.928711 87.630 -29.8383
4938.457520 87.864 -29.8514
4974.243652 88.098 -30.0159
5010.289062 88.330 -30.3258
5046.595703 88.558 -30.7744
5083.165527 88.781 -31.3540
5120.000000 88.999 -32.0612
5157.101562 89.211 -32.8878
5194.472168 89.416 -33.8400
5232.113281 89.616 -34.9207
5270.027344 89.807 -36.1316
5308.216309 89.986 -37.4797
5346.681641 90.149 -38.9525
5385.426270 90.293 -40.5441
5424.451172 90.417 -42.2415
5463.758789 90.521 -44.0367
5503.351562 90.601 -45.9077
5543.230957 90.652 -47.8398
5583.399414 90.676 -49.8024
5623.859375 90.672 -51.7653
5664.611816 90.643 -53.7125
5705.660156 90.591 -55.6225
5747.005859 90.516 -57.4826
5788.650879 90.419 -59.2751
5830.597656 90.304 -60.9914
5872.848633 90.173 -62.6163
5915.405762 90.029 -64.1523
5958.271484 89.873 -65.5976
6001.447266 89.707 -66.9493
6044.936523 89.530 -68.2044
6088.740234 89.346 -69.3614
6132.861816 89.157 -70.4189
6177.303223 88.963 -71.3745
6222.066406 88.764 -72.2259
6267.154297 88.563 -72.9705
6312.568359 88.362 -73.6020
6358.312012 88.163 -74.1296
6404.386719 87.971 -74.5563
6450.795898 87.787 -74.8955
6497.541016 87.613 -75.1557
6544.625000 87.451 -75.3551
6592.049805 87.305 -75.5089
6639.818359 87.173 -75.6354
6687.933594 87.054 -75.7540
6736.396973 86.949 -75.8773
6785.211426 86.856 -76.0217
6834.379883 86.773 -76.1950
6883.904785 86.699 -76.4109
6933.788574 86.631 -76.6686
6984.033691 86.566 -76.9727
7034.642578 86.504 -77.3201
7085.618652 86.444 -77.7102
7136.963867 86.385 -78.1397
7188.681152 86.325 -78.6075
7240.773438 86.263 -79.1074
7293.243164 86.201 -79.6311
7346.092773 86.139 -80.1841
7399.325684 86.081 -80.7634
7452.944336 86.027 -81.3867
7506.951172 85.978 -82.0640
7561.350098 85.933 -82.8159
7616.142578 85.893 -83.6586
7671.332031 85.855 -84.6157
7726.921875 85.819 -85.7129
7782.914551 85.776 -86.9612
7839.312500 85.723 -88.3853
7896.119629 85.650 -89.9702
7953.337891 85.552 -91.7204
8010.971191 85.423 -93.6008
8069.021973 85.256 -95.5928
8127.493164 85.046 -97.6510
8186.388672 84.788 -99.7395
8245.710938 84.481 -101.8102
8305.461914 84.122 -103.8198
8365.647461 83.710 -105.7183
8426.267578 83.245 -107.4633
8487.328125 82.724 -108.9877
8548.831055 82.148 -110.2460
8610.779297 81.515 -111.1305
8673.176758 80.818 -111.5588
8736.026367 80.065 -111.4076
8799.331055 79.255 -110.5482
8863.094727 78.404 -108.9128
8927.320312 77.516 -106.3843
8992.010742 76.625 -102.9833
9057.170898 75.744 -98.6474
9122.802734 74.930 -93.5102
9188.910156 74.227 -87.6077
9255.497070 73.681 -81.1729
9322.566406 73.358 -74.3726
9390.121094 73.249 -67.4446
9458.166016 73.381 -60.6273
9526.704102 73.711 -54.0875
9595.738281 74.215 -48.0432
9665.273438 74.852 -42.5761
9735.311523 75.581 -37.8365
9805.857422 76.375 -33.8356
9876.915039 77.197 -30.6467
9948.487305 78.031 -28.2330
10020.578125 78.854 -26.6030
10093.191406 79.654 -25.6921
10166.331055 80.411 -25.4593
10240.000000 81.123 -25.8405
10314.203125 81.785 -26.7794
10388.944336 82.393 -28.2101
10464.226562 82.942 -30.0731
10540.054688 83.429 -32.2909
10616.432617 83.850 -34.7904
10693.363281 84.208 -37.5014
10770.852539 84.505 -40.3470
10848.902344 84.743 -43.2770
10927.517578 84.924 -46.2287
11006.703125 85.053 -49.1642
11086.461914 85.133 -52.0362
11166.798828 85.167 -54.8099
11247.718750 85.158 -57.4410
11329.223633 85.114 -59.9107
11411.320312 85.044 -62.1813
11494.011719 84.955 -64.2672
11577.301758 84.857 -66.1591
11661.195312 84.756 -67.8908
11745.697266 84.659 -69.4761
11830.811523 84.571 -70.9661
11916.542969 84.502 -72.3964
12002.894531 84.448 -73.8279
12089.873047 84.414 -75.3212
12177.480469 84.389 -76.9146
12265.723633 84.368 -78.6625
12354.606445 84.341 -80.5771
12444.132812 84.303 -82.6965
12534.308594 84.240 -84.9971
12625.136719 84.141 -87.4855
12716.624023 83.999 -90.1079
12808.773438 83.806 -92.8420
12901.591797 83.553 -95.5984
12995.082031 83.228 -98.3181
13089.250000 82.833 -100.8867
13184.099609 82.365 -103.2137
13279.636719 81.822 -105.1681
13375.867188 81.199 -106.6358
13472.793945 80.504 -107.4743
13570.422852 79.733 -107.5198
13668.759766 78.917 -106.7204
13767.809570 78.069 -104.9432
13867.577148 77.233 -102.2681
13968.067383 76.437 -98.6675
14069.285156 75.736 -94.3354
14171.237305 75.184 -89.3686
14273.927734 74.814 -84.0348
14377.362305 74.689 -78.5572
14481.546875 74.770 -73.1692
14586.486328 75.057 -68.1342
14692.185547 75.497 -63.5847
14798.651367 76.052 -59.7393
14905.888672 76.678 -56.6070
15013.902344 77.323 -54.2959
15122.700195 77.975 -52.7239
15232.285156 78.606 -51.8738
15342.664062 79.212 -51.6546
15453.843750 79.782 -51.9921
15565.829102 80.315 -52.8193
15678.625000 80.810 -54.0557
15792.239258 81.267 -55.6663
15906.675781 81.685 -57.6002
16021.942383 82.062 -59.8262
16138.043945 82.393 -62.3062
16254.986328 82.678 -65.0107
16372.777344 82.919 -67.9083
16491.421875 83.112 -70.9666
16610.923828 83.255 -74.1557
16731.294922 83.348 -77.4367
16852.535156 83.390 -80.7703
16974.656250 83.383 -84.1276
17097.662109 83.331 -87.4726
17221.558594 83.233 -90.7860
17346.353516 83.091 -94.0453
17472.052734 82.905 -97.2250
17598.662109 82.675 -100.3027
17726.189453 82.403 -103.2473
17854.640625 82.089 -106.0317
17984.021484 81.735 -108.6222
18114.341797 81.341 -110.9875
18245.605469 80.911 -113.0938
18377.820312 80.444 -114.9066
18510.994141 79.947 -116.3974
18645.132812 79.422 -117.5267
18780.242188 78.881 -118.2919
18916.332031 78.333 -118.6714
19053.408203 77.787 -118.6840
19191.476562 77.251 -118.3245
19330.546875 76.738 -117.6425
19470.623047 76.262 -116.6622
19611.714844 75.829 -115.4564
19753.830078 75.449 -114.0875
19896.974609 75.120 -112.6122
