* Measurement data measured by REW V5.20.13
* Source: C:\Users\kurin\Desktop\Targets and Curves\Resolve\Img\Files\Sundara 2021_SPL.txt
* Format: Comma/Tab/Space delimited data
* Dated: Aug 15, 2023 12:41:14 AM
* REW Settings:
*  C-weighting compensation: Off
*  Target level: 75.0 dB
* Note: ; Measurement imported from C:\Users\kurin\Desktop\Targets and Curves\Resolve\Img\Files\Sundara 2021_SPL.txt Format: Comma/Tab/Space delimited data 623 values loaded, 5 Hz to 39,792 Hz log spaced 
* Measurement: Sundara 2021_SPL
* Smoothing: 1/48 octave
* Frequency Step: 1/96 octave
* Start Frequency: 5.000 Hz
*
* Freq(Hz) SPL(dB) Phase(degrees)
5.000000 83.355 17.2920
5.036232 83.360 17.2905
5.072727 83.366 17.2890
5.109486 83.373 17.2875
5.146511 83.381 17.2860
5.183805 83.391 17.2845
5.221369 83.401 17.2830
5.259205 83.411 17.2814
5.297316 83.422 17.2800
5.335702 83.434 17.2789
5.374367 83.447 17.2780
5.413311 83.459 17.2770
5.452538 83.471 17.2760
5.492050 83.483 17.2750
5.531847 83.495 17.2740
5.571934 83.507 17.2730
5.612310 83.519 17.2720
5.652979 83.531 17.2710
5.693943 83.544 17.2700
5.735204 83.556 17.2690
5.776763 83.568 17.2680
5.818624 83.580 17.2670
5.860788 83.592 17.2660
5.903258 83.604 17.2649
5.946035 83.616 17.2640
5.989123 83.628 17.2635
6.032523 83.640 17.2630
6.076237 83.652 17.2621
6.120268 83.665 17.2610
6.164618 83.677 17.2600
6.209289 83.689 17.2590
6.254284 83.701 17.2580
6.299605 83.713 17.2570
6.345255 83.725 17.2560
6.391235 83.737 17.2550
6.437549 83.749 17.2540
6.484198 83.762 17.2530
6.531185 83.774 17.2520
6.578513 83.786 17.2510
6.626183 83.798 17.2499
6.674199 83.810 17.2490
6.722563 83.822 17.2485
6.771278 83.834 17.2480
6.820345 83.846 17.2471
6.869768 83.859 17.2460
6.919549 83.871 17.2450
6.969691 83.883 17.2440
7.020196 83.895 17.2430
7.071068 83.907 17.2420
7.122308 83.919 17.2410
7.173919 83.931 17.2400
7.225904 83.943 17.2390
7.278266 83.956 17.2380
7.331007 83.968 17.2370
7.384131 83.980 17.2360
7.437639 83.992 17.2350
7.491535 84.004 17.2340
7.545822 84.016 17.2329
7.600502 84.028 17.2320
7.655579 84.040 17.2315
7.711054 84.052 17.2310
7.766932 84.064 17.2301
7.823214 84.077 17.2290
7.879904 84.089 17.2280
7.937005 84.101 17.2270
7.994520 84.113 17.2260
8.052452 84.125 17.2250
8.110803 84.137 17.2240
8.169578 84.149 17.2230
8.228777 84.161 17.2220
8.288406 84.174 17.2210
8.348468 84.186 17.2200
8.408964 84.198 17.2190
8.469899 84.210 17.2180
8.531276 84.222 17.2170
8.593097 84.234 17.2159
8.655366 84.246 17.2150
8.718086 84.258 17.2145
8.781260 84.271 17.2140
8.844893 84.283 17.2131
8.908987 84.295 17.2120
8.973545 84.307 17.2110
9.038571 84.319 17.2100
9.104069 84.331 17.2090
9.170040 84.343 17.2080
9.236490 84.355 17.2070
9.303422 84.367 17.2060
9.370838 84.379 17.2050
9.438744 84.392 17.2040
9.507140 84.404 17.2029
9.576033 84.416 17.2020
9.645425 84.428 17.2015
9.715320 84.440 17.2010
9.785721 84.452 17.2001
9.856632 84.464 17.1990
9.928058 84.476 17.1980
10.000000 84.489 17.1970
10.072464 84.501 17.1960
10.145453 84.513 17.1950
10.218971 84.525 17.1939
10.293022 84.537 17.1930
10.367610 84.549 17.1925
10.442738 84.561 17.1920
10.518411 84.573 17.1911
10.594631 84.586 17.1900
10.671404 84.598 17.1890
10.748734 84.610 17.1880
10.826623 84.622 17.1869
10.905077 84.634 17.1860
10.984100 84.646 17.1855
11.063695 84.658 17.1850
11.143867 84.670 17.1841
11.224621 84.683 17.1830
11.305959 84.695 17.1819
11.387886 84.707 17.1810
11.470407 84.719 17.1805
11.553527 84.731 17.1800
11.637249 84.743 17.1790
11.721577 84.755 17.1780
11.806517 84.767 17.1775
11.892071 84.779 17.1770
11.978246 84.791 17.1760
12.065045 84.804 17.1750
12.152473 84.816 17.1745
12.240536 84.828 17.1740
12.329235 84.840 17.1730
12.418578 84.852 17.1720
12.508568 84.864 17.1715
12.599211 84.876 17.1710
12.690510 84.888 17.1700
12.782471 84.901 17.1690
12.875097 84.913 17.1684
12.968395 84.925 17.1680
13.062370 84.937 17.1676
13.157025 84.949 17.1670
13.252366 84.961 17.1660
13.348398 84.973 17.1650
13.445127 84.985 17.1644
13.542556 84.998 17.1640
13.640691 85.010 17.1635
13.739536 85.022 17.1630
13.839099 85.034 17.1625
13.939383 85.046 17.1620
14.040393 85.058 17.1616
14.142136 85.070 17.1610
14.244616 85.082 17.1600
14.347837 85.094 17.1590
14.451808 85.106 17.1584
14.556532 85.119 17.1580
14.662014 85.131 17.1575
14.768262 85.143 17.1570
14.875278 85.155 17.1566
14.983070 85.167 17.1560
15.091644 85.179 17.1550
15.201005 85.191 17.1540
15.311157 85.203 17.1535
15.422109 85.216 17.1530
15.533863 85.228 17.1521
15.646428 85.240 17.1510
15.759809 85.252 17.1500
15.874010 85.264 17.1490
15.989040 85.276 17.1480
16.104904 85.288 17.1470
16.221605 85.300 17.1461
16.339155 85.313 17.1450
16.457554 85.325 17.1436
16.576813 85.337 17.1420
16.696936 85.349 17.1401
16.817928 85.361 17.1380
16.939798 85.373 17.1356
17.062551 85.385 17.1330
17.186193 85.397 17.1306
17.310732 85.410 17.1280
17.436172 85.422 17.1248
17.562521 85.434 17.1210
17.689787 85.446 17.1163
17.817974 85.458 17.1110
17.947090 85.470 17.1054
18.077143 85.482 17.0990
18.208138 85.494 17.0916
18.340080 85.506 17.0830
18.472980 85.518 17.0735
18.606844 85.531 17.0620
18.741676 85.543 17.0478
18.877487 85.555 17.0300
19.014280 85.567 17.0079
19.152065 85.579 16.9810
19.290850 85.590 16.9487
19.430639 85.600 16.9110
19.571442 85.609 16.8664
19.713264 85.616 16.8191
19.856115 85.619 16.7703
20.000000 85.620 16.7270
20.144928 85.618 16.6964
20.290907 85.614 16.6790
20.437943 85.609 16.6772
20.586044 85.602 16.6930
20.735220 85.594 16.7288
20.885475 85.586 16.7849
21.036821 85.580 16.8645
21.189262 85.575 16.9619
21.342808 85.573 17.0735
21.497467 85.574 17.1958
21.653246 85.577 17.3247
21.810154 85.582 17.4578
21.968201 85.590 17.5910
22.127390 85.599 17.7258
22.287735 85.608 17.8629
22.449242 85.619 18.0019
22.611917 85.633 18.1430
22.775772 85.648 18.2848
22.940815 85.664 18.4248
23.107054 85.680 18.5658
23.274498 85.697 18.7109
23.443153 85.716 18.8578
23.613033 85.738 19.0055
23.784142 85.761 19.1529
23.956491 85.784 19.2970
24.130091 85.809 19.4418
24.304947 85.835 19.5912
24.481071 85.863 19.7418
24.658470 85.894 19.8920
24.837156 85.927 20.0408
25.017136 85.962 20.1873
25.198421 86.000 20.3299
25.381020 86.041 20.4683
25.564941 86.085 20.5979
25.750195 86.133 20.7149
25.936790 86.184 20.8159
26.124741 86.238 20.8977
26.314051 86.294 20.9559
26.504732 86.353 20.9849
26.696796 86.413 20.9850
26.890253 86.473 20.9538
27.085112 86.532 20.8941
27.281382 86.590 20.8077
27.479073 86.647 20.6952
27.678198 86.702 20.5561
27.878765 86.754 20.3942
28.080786 86.803 20.2116
28.284271 86.848 20.0123
28.489231 86.890 19.8005
28.695675 86.929 19.5783
28.903616 86.965 19.3481
29.113064 86.997 19.1123
29.324028 87.026 18.8738
29.536524 87.052 18.6333
29.750557 87.076 18.3920
29.966141 87.097 18.1513
30.183289 87.114 17.9116
30.402010 87.129 17.6763
30.622314 87.141 17.4486
30.844217 87.150 17.2283
31.067726 87.158 17.0165
31.292856 87.165 16.8123
31.519617 87.170 16.6147
31.748020 87.173 16.4252
31.978081 87.175 16.2452
32.209808 87.175 16.0742
32.443211 87.174 15.9120
32.678310 87.171 15.7602
32.915108 87.166 15.6196
33.153625 87.160 15.4931
33.393871 87.153 15.3841
33.635857 87.145 15.2921
33.879597 87.137 15.2177
34.125103 87.129 15.1611
34.372387 87.121 15.1226
34.621464 87.115 15.1020
34.872345 87.110 15.1011
35.125042 87.108 15.1140
35.379574 87.109 15.1370
35.635948 87.114 15.1660
35.894180 87.121 15.1965
36.154285 87.131 15.2260
36.416275 87.144 15.2512
36.680161 87.160 15.2690
36.945961 87.178 15.2756
37.213688 87.197 15.2700
37.483353 87.218 15.2500
37.754974 87.239 15.2161
38.028561 87.260 15.1674
38.304131 87.280 15.1051
38.581699 87.300 15.0299
38.861279 87.320 14.9421
39.142883 87.338 14.8416
39.426529 87.354 14.7312
39.712231 87.367 14.6128
40.000000 87.378 14.4892
40.289856 87.387 14.3624
40.581814 87.393 14.2362
40.875885 87.396 14.1127
41.172089 87.395 13.9982
41.470440 87.390 13.8990
41.770950 87.384 13.8161
42.073643 87.378 13.7528
42.378525 87.371 13.7081
42.685616 87.363 13.6821
42.994934 87.356 13.6750
43.306492 87.350 13.6883
43.620308 87.345 13.7179
43.936401 87.343 13.7609
44.254780 87.343 13.8159
44.575470 87.344 13.8812
44.898483 87.347 13.9559
45.223835 87.353 14.0399
45.551544 87.362 14.1289
45.881630 87.375 14.2186
46.214108 87.391 14.3079
46.548996 87.408 14.3942
46.886307 87.428 14.4769
47.226067 87.451 14.5555
47.568283 87.476 14.6259
47.912983 87.505 14.6836
48.260181 87.535 14.7289
48.609894 87.566 14.7605
48.962143 87.598 14.7790
49.316940 87.632 14.7857
49.674313 87.667 14.7780
50.034271 87.702 14.7536
50.396843 87.738 14.7131
50.762039 87.774 14.6559
51.129883 87.809 14.5831
51.500389 87.844 14.4951
51.873581 87.878 14.3942
52.249481 87.910 14.2831
52.628101 87.942 14.1612
53.009464 87.974 14.0289
53.393593 88.004 13.8862
53.780506 88.032 13.7323
54.170223 88.059 13.5703
54.562763 88.084 13.4039
54.958145 88.108 13.2313
55.356396 88.132 13.0509
55.757530 88.154 12.8653
56.161572 88.172 12.6762
56.568542 88.189 12.4853
56.978462 88.206 12.2961
57.391350 88.222 12.1054
57.807232 88.237 11.9104
58.226128 88.251 11.7133
58.648056 88.262 11.5154
59.073048 88.271 11.3173
59.501114 88.281 11.1206
59.932281 88.289 10.9244
60.366577 88.295 10.7271
60.804020 88.300 10.5323
61.244629 88.303 10.3432
61.688435 88.305 10.1593
62.135452 88.306 9.9816
62.585712 88.306 9.8093
63.039234 88.306 9.6425
63.496040 88.306 9.4793
63.956161 88.306 9.3180
64.419617 88.306 9.1583
64.886421 88.306 8.9991
65.356621 88.305 8.8403
65.830215 88.303 8.6806
66.307251 88.300 8.5223
66.787743 88.295 8.3662
67.271713 88.289 8.2153
67.759193 88.282 8.0732
68.250206 88.274 7.9392
68.744774 88.266 7.8143
69.242928 88.258 7.6972
69.744690 88.250 7.5876
70.250084 88.243 7.4842
70.759148 88.237 7.3869
71.271896 88.232 7.2912
71.788361 88.229 7.1930
72.308571 88.226 7.0912
72.832550 88.223 6.9826
73.360321 88.220 6.8692
73.891922 88.215 6.7503
74.427376 88.209 6.6302
74.966705 88.201 6.5133
75.509949 88.191 6.3992
76.057121 88.182 6.2881
76.608261 88.172 6.1822
77.163399 88.159 6.0833
77.722557 88.145 5.9932
78.285767 88.132 5.9161
78.853058 88.119 5.8471
79.424461 88.108 5.7833
80.000000 88.097 5.7231
80.579712 88.087 5.6635
81.163628 88.076 5.6061
81.751770 88.065 5.5518
82.344177 88.054 5.5001
82.940880 88.043 5.4510
83.541901 88.032 5.4041
84.147285 88.021 5.3578
84.757050 88.010 5.3151
85.371231 87.997 5.2772
85.989868 87.984 5.2471
86.612984 87.971 5.2293
87.240616 87.958 5.2200
87.872803 87.947 5.2176
88.509560 87.938 5.2200
89.150940 87.929 5.2245
89.796967 87.921 5.2310
90.447670 87.915 5.2399
91.103088 87.910 5.2470
91.763260 87.906 5.2484
92.428215 87.903 5.2440
93.097992 87.900 5.2315
93.772614 87.897 5.2140
94.452133 87.892 5.1929
95.136566 87.886 5.1720
95.825966 87.879 5.1557
96.520363 87.871 5.1440
97.219788 87.863 5.1385
97.924286 87.855 5.1390
98.633881 87.847 5.1460
99.348625 87.840 5.1590
100.068542 87.834 5.1791
100.793686 87.829 5.2019
101.524078 87.826 5.2239
102.259766 87.825 5.2440
103.000778 87.824 5.2600
103.747162 87.823 5.2720
104.498962 87.823 5.2792
105.256203 87.823 5.2820
106.018929 87.823 5.2806
106.787186 87.823 5.2750
107.561012 87.823 5.2650
108.340446 87.822 5.2510
109.125526 87.821 5.2329
109.916290 87.819 5.2120
110.712791 87.817 5.1889
111.515060 87.813 5.1660
112.323143 87.807 5.1453
113.137085 87.800 5.1290
113.956924 87.793 5.1204
114.782700 87.785 5.1190
115.614464 87.777 5.1252
116.452255 87.769 5.1390
117.296112 87.762 5.1609
118.146095 87.756 5.1889
119.002228 87.751 5.2224
119.864563 87.747 5.2579
120.733154 87.745 5.2922
121.608040 87.743 5.3249
122.489258 87.742 5.3543
123.376869 87.742 5.3809
124.270905 87.742 5.4047
125.171425 87.742 5.4260
126.078468 87.742 5.4449
126.992081 87.742 5.4620
127.912323 87.742 5.4777
128.839233 87.742 5.4920
129.772842 87.742 5.5050
130.713242 87.742 5.5170
131.660431 87.742 5.5280
132.614502 87.742 5.5380
133.575485 87.742 5.5466
134.543427 87.742 5.5540
135.518387 87.742 5.5605
136.500412 87.742 5.5650
137.489548 87.742 5.5663
138.485855 87.742 5.5650
139.489380 87.741 5.5613
140.500168 87.740 5.5550
141.518295 87.739 5.5454
142.543793 87.736 5.5350
143.576721 87.731 5.5249
144.617142 87.725 5.5190
145.665100 87.717 5.5222
146.720642 87.709 5.5330
147.783844 87.701 5.5514
148.854752 87.694 5.5779
149.933411 87.686 5.6135
151.019897 87.679 5.6569
152.114243 87.673 5.7087
153.216522 87.668 5.7648
154.326797 87.665 5.8216
155.445114 87.663 5.8779
156.571533 87.662 5.9309
157.706116 87.661 5.9819
158.848923 87.661 6.0309
160.000000 87.661 6.0779
161.159424 87.661 6.1221
162.327255 87.661 6.1649
163.503540 87.661 6.2072
164.688354 87.661 6.2489
165.881760 87.661 6.2905
167.083801 87.661 6.3319
168.294571 87.661 6.3729
169.514099 87.661 6.4139
170.742462 87.661 6.4552
171.979736 87.661 6.4969
173.225967 87.661 6.5391
174.481232 87.661 6.5819
175.745605 87.661 6.6251
177.019119 87.661 6.6689
178.301880 87.661 6.7134
179.593933 87.661 6.7589
180.895340 87.661 6.8053
182.206177 87.661 6.8529
183.526520 87.661 6.9016
184.856430 87.661 6.9519
186.195984 87.661 7.0042
187.545227 87.661 7.0589
188.904266 87.661 7.1163
190.273132 87.661 7.1768
191.651932 87.662 7.2413
193.040726 87.664 7.3088
194.439575 87.666 7.3799
195.848572 87.669 7.4518
197.267761 87.674 7.5226
198.697250 87.680 7.5898
200.137085 87.687 7.6501
201.587372 87.695 7.7039
203.048157 87.703 7.7504
204.519531 87.711 7.7899
206.001556 87.719 7.8216
207.494324 87.726 7.8469
208.997925 87.732 7.8657
210.512405 87.736 7.8820
212.037857 87.738 7.8995
213.574371 87.740 7.9190
215.122025 87.741 7.9426
216.680893 87.742 7.9699
218.251053 87.742 8.0014
219.832581 87.742 8.0369
221.425583 87.742 8.0766
223.030121 87.742 8.1199
224.646286 87.742 8.1663
226.274170 87.742 8.2159
227.913849 87.742 8.2685
229.565399 87.742 8.3249
231.228928 87.742 8.3857
232.904510 87.742 8.4508
234.592224 87.743 8.5201
236.292191 87.744 8.5938
238.004456 87.745 8.6730
239.729126 87.748 8.7548
241.466309 87.753 8.8378
243.216080 87.759 8.9188
244.978516 87.767 8.9939
246.753738 87.775 9.0638
248.541809 87.783 9.1280
250.342850 87.790 9.1868
252.156937 87.798 9.2399
253.984161 87.805 9.2889
255.824646 87.811 9.3341
257.678467 87.816 9.3799
259.545685 87.819 9.4305
261.426483 87.822 9.4869
263.320862 87.824 9.5518
265.229004 87.827 9.6238
267.150970 87.831 9.7035
269.086853 87.836 9.7878
271.036774 87.843 9.8745
273.000824 87.851 9.9617
274.979095 87.860 10.0471
276.971710 87.870 10.1298
278.978760 87.882 10.2090
281.000336 87.894 10.2828
283.036591 87.907 10.3479
285.087585 87.920 10.4068
287.153442 87.932 10.4600
289.234283 87.944 10.5099
291.330200 87.955 10.5595
293.441284 87.967 10.6079
295.567688 87.979 10.6556
297.709503 87.991 10.7009
299.866821 88.003 10.7415
302.039795 88.016 10.7799
304.228485 88.028 10.8188
306.433044 88.040 10.8549
308.653595 88.053 10.8862
310.890228 88.067 10.9109
313.143066 88.081 10.9256
315.412231 88.094 10.9340
317.697845 88.104 10.9383
320.000000 88.113 10.9400
322.318848 88.122 10.9406
324.654510 88.130 10.9420
327.007080 88.136 10.9459
329.376709 88.140 10.9550
331.763519 88.143 10.9724
334.167603 88.146 10.9989
336.589142 88.148 11.0374
339.028198 88.151 11.0849
341.484924 88.157 11.1405
343.959473 88.164 11.1998
346.451935 88.173 11.2587
348.962463 88.184 11.3148
351.491211 88.196 11.3659
354.038239 88.209 11.4089
356.603760 88.224 11.4402
359.187866 88.239 11.4600
361.790680 88.253 11.4657
364.412354 88.266 11.4620
367.053040 88.276 11.4522
369.712860 88.285 11.4380
372.391968 88.293 11.4212
375.090454 88.299 11.4050
377.808533 88.302 11.3933
380.546265 88.304 11.3870
383.303864 88.305 11.3884
386.081451 88.306 11.3970
388.879150 88.306 11.4131
391.697144 88.306 11.4369
394.535522 88.306 11.4690
397.394501 88.306 11.5089
400.274170 88.307 11.5562
403.174744 88.308 11.6108
406.096313 88.310 11.6736
409.039062 88.313 11.7418
412.003113 88.319 11.8142
414.988647 88.326 11.8868
417.995850 88.335 11.9557
421.024811 88.346 12.0188
424.075714 88.359 12.0740
427.148743 88.373 12.1179
430.244049 88.389 12.1462
433.361786 88.404 12.1600
436.502106 88.418 12.1575
439.665161 88.430 12.1421
442.851166 88.441 12.1161
446.060242 88.450 12.0811
449.292572 88.457 12.0390
452.548340 88.462 11.9912
455.827698 88.464 11.9388
459.130798 88.464 11.8842
462.457855 88.461 11.8287
465.809021 88.455 11.7762
469.184448 88.445 11.7308
472.584381 88.433 11.6931
476.008911 88.419 11.6631
479.458252 88.402 11.6460
482.932617 88.380 11.6458
486.432159 88.355 11.6669
489.957031 88.329 11.7159
493.507477 88.302 11.7907
497.083618 88.275 11.8909
500.685699 88.247 12.0185
504.313873 88.219 12.1762
507.968323 88.191 12.3624
511.649292 88.166 12.5781
515.356934 88.144 12.8182
519.091370 88.125 13.0780
522.852966 88.109 13.3570
526.641724 88.096 13.6539
530.458008 88.086 13.9660
534.301941 88.080 14.2910
538.173706 88.077 14.6259
542.073547 88.080 14.9669
546.001648 88.086 15.3128
549.958191 88.094 15.6607
553.943420 88.106 16.0109
557.957520 88.122 16.3641
562.000671 88.142 16.7168
566.073181 88.166 17.0670
570.175171 88.194 17.4109
574.306885 88.226 17.7446
578.468567 88.262 18.0669
582.660400 88.300 18.3765
586.882568 88.342 18.6700
591.135376 88.387 18.9433
595.419006 88.434 19.1972
599.733643 88.482 19.4307
604.079590 88.531 19.6443
608.456970 88.581 19.8375
612.866089 88.632 20.0114
617.307190 88.681 20.1652
621.780457 88.730 20.3046
626.286133 88.777 20.4346
630.824463 88.823 20.5566
635.395691 88.869 20.6749
640.000000 88.916 20.7856
644.637695 88.964 20.8852
649.309021 89.011 20.9777
654.014160 89.056 21.0662
658.753418 89.101 21.1497
663.527039 89.149 21.2295
668.335205 89.197 21.3018
673.178284 89.244 21.3620
678.056396 89.292 21.4138
682.969849 89.339 21.4601
687.918945 89.386 21.4989
692.903870 89.434 21.5291
697.924927 89.482 21.5509
702.982422 89.528 21.5634
708.076477 89.574 21.5690
713.207520 89.619 21.5706
718.375732 89.665 21.5660
723.581360 89.710 21.5529
728.824707 89.755 21.5341
734.106079 89.797 21.5112
739.425720 89.839 21.4861
744.783936 89.881 21.4612
750.180908 89.922 21.4361
755.617065 89.962 21.4113
761.092529 90.002 21.3871
766.607727 90.042 21.3641
772.162903 90.083 21.3421
777.758301 90.124 21.3212
783.394287 90.165 21.3011
789.071045 90.207 21.2818
794.789001 90.251 21.2621
800.548340 90.295 21.2417
806.349487 90.341 21.2181
812.192627 90.389 21.1888
818.078125 90.438 21.1531
824.006226 90.488 21.1102
829.977295 90.539 21.0582
835.991699 90.592 20.9957
842.049622 90.646 20.9203
848.151428 90.701 20.8286
854.297485 90.758 20.7224
860.488098 90.814 20.6030
866.723572 90.870 20.4695
873.004211 90.927 20.3230
879.330322 90.985 20.1596
885.702332 91.045 19.9761
892.120483 91.105 19.7718
898.585144 91.164 19.5461
905.096680 91.223 19.2960
911.655396 91.283 19.0192
918.261597 91.344 18.7122
924.915710 91.403 18.3701
931.618042 91.460 17.9944
938.368896 91.513 17.5841
945.168762 91.562 17.1427
952.017822 91.606 16.6727
958.916504 91.645 16.1769
965.865234 91.677 15.6575
972.864319 91.703 15.1200
979.914062 91.722 14.5696
987.014954 91.734 14.0101
994.167236 91.738 13.4456
1001.371399 91.735 12.8810
1008.627747 91.724 12.3211
1015.936646 91.705 11.7713
1023.298584 91.678 11.2358
1030.713867 91.643 10.7226
1038.182739 91.600 10.2390
1045.705933 91.549 9.7918
1053.283447 91.492 9.3892
1060.916016 91.428 9.0344
1068.603882 91.360 8.7325
1076.347412 91.288 8.4859
1084.147095 91.214 8.2989
1092.003296 91.139 8.1703
1099.916382 91.064 8.1013
1107.886841 90.990 8.0889
1115.915039 90.919 8.1320
1124.001343 90.850 8.2276
1132.146362 90.786 8.3742
1140.350342 90.726 8.5652
1148.613770 90.674 8.7959
1156.937134 90.628 9.0588
1165.320801 90.590 9.3468
1173.765137 90.560 9.6536
1182.270752 90.537 9.9731
1190.838013 90.521 10.2977
1199.467285 90.513 10.6192
1208.159180 90.512 10.9328
1216.913940 90.517 11.2305
1225.732178 90.526 11.5130
1234.614380 90.538 11.7785
1243.560913 90.553 12.0271
1252.572266 90.571 12.2579
1261.648926 90.591 12.4722
1270.791382 90.612 12.6691
1280.000000 90.634 12.8533
1289.275391 90.656 13.0289
1298.618042 90.678 13.1963
1308.028320 90.702 13.3571
1317.506836 90.727 13.5114
1327.054077 90.753 13.6593
1336.670410 90.780 13.8015
1346.356567 90.809 13.9391
1356.112793 90.839 14.0695
1365.939697 90.871 14.1913
1375.837891 90.905 14.3016
1385.807739 90.941 14.3974
1395.849854 90.979 14.4777
1405.964844 91.017 14.5404
1416.152954 91.056 14.5859
1426.415039 91.094 14.6139
1436.751465 91.133 14.6240
1447.162720 91.171 14.6146
1457.649414 91.209 14.5881
1468.212158 91.244 14.5451
1478.851440 91.276 14.4892
1489.567871 91.306 14.4238
1500.361816 91.333 14.3503
1511.234131 91.358 14.2695
1522.185059 91.380 14.1864
1533.215454 91.398 14.1049
1544.325806 91.412 14.0293
1555.516602 91.424 13.9648
1566.788574 91.433 13.9132
1578.142090 91.440 13.8771
1589.578003 91.446 13.8600
1601.096680 91.449 13.8658
1612.698975 91.452 13.8958
1624.385254 91.455 13.9537
1636.156250 91.460 14.0366
1648.012451 91.467 14.1445
1659.954590 91.477 14.2725
1671.983398 91.491 14.4170
1684.099243 91.510 14.5733
1696.302856 91.533 14.7371
1708.594971 91.560 14.9033
1720.976196 91.593 15.0670
1733.447144 91.630 15.2233
1746.008423 91.670 15.3661
1758.660645 91.714 15.4945
1771.404663 91.759 15.6057
1784.240967 91.807 15.7006
1797.170288 91.855 15.7787
1810.193359 91.905 15.8418
1823.310791 91.955 15.8913
1836.523193 92.005 15.9289
1849.831421 92.055 15.9564
1863.236084 92.106 15.9739
1876.737793 92.157 15.9817
1890.337524 92.209 15.9810
1904.035645 92.260 15.9735
1917.833008 92.312 15.9581
1931.730469 92.366 15.9352
1945.728638 92.421 15.9022
1959.828125 92.476 15.8557
1974.029907 92.532 15.7973
1988.334473 92.587 15.7278
2002.742798 92.644 15.6464
2017.255493 92.701 15.5535
2031.873291 92.760 15.4455
2046.597168 92.818 15.3184
2061.427734 92.877 15.1727
2076.365479 92.934 15.0070
2091.411865 92.990 14.8228
2106.566895 93.044 14.6206
2121.832031 93.096 14.4019
2137.207764 93.145 14.1672
2152.694824 93.192 13.9210
2168.294189 93.233 13.6668
2184.006592 93.271 13.4092
2199.832764 93.305 13.1527
2215.773682 93.336 12.9000
2231.830078 93.363 12.6534
2248.002686 93.386 12.4189
2264.292725 93.405 12.2026
2280.700684 93.421 12.0068
2297.227539 93.435 11.8349
2313.874268 93.448 11.6905
2330.641602 93.459 11.5771
2347.530273 93.469 11.4983
2364.541504 93.479 11.4601
2381.676025 93.492 11.4589
2398.934570 93.510 11.4940
2416.318359 93.532 11.5616
2433.827881 93.559 11.6609
2451.464355 93.593 11.7825
2469.228760 93.637 11.9201
2487.121826 93.691 12.0634
2505.144531 93.753 12.2024
2523.297852 93.825 12.3295
2541.582764 93.905 12.4368
2560.000000 93.994 12.5147
2578.550781 94.090 12.5518
2597.236084 94.194 12.5451
2616.056641 94.301 12.4889
2635.013672 94.413 12.3806
2654.108154 94.528 12.2159
2673.340820 94.644 11.9941
2692.713135 94.761 11.7119
2712.225586 94.877 11.3727
2731.879395 94.992 10.9786
2751.675781 95.103 10.5302
2771.615479 95.213 10.0277
2791.699707 95.318 9.4746
2811.929688 95.416 8.8717
2832.305908 95.509 8.2271
2852.830078 95.593 7.5461
2873.502930 95.670 6.8381
2894.325439 95.737 6.1109
2915.298828 95.796 5.3754
2936.424316 95.845 4.6424
2957.702881 95.887 3.9191
2979.135742 95.922 3.2148
3000.723633 95.952 2.5339
3022.468262 95.976 1.8843
3044.370117 95.998 1.2648
3066.430908 96.020 0.6792
3088.651611 96.044 0.1195
3111.033203 96.070 -0.4179
3133.577148 96.099 -0.9425
3156.284180 96.132 -1.4620
3179.156006 96.169 -1.9855
3202.193359 96.210 -2.5233
3225.397949 96.254 -3.0803
3248.770508 96.299 -3.6645
3272.312500 96.344 -4.2772
3296.024902 96.389 -4.9232
3319.909180 96.432 -5.5998
3343.966797 96.471 -6.3082
3368.198486 96.505 -7.0405
3392.605713 96.533 -7.7909
3417.189941 96.556 -8.5535
3441.952393 96.574 -9.3211
3466.894287 96.587 -10.0915
3492.016846 96.595 -10.8618
3517.321289 96.597 -11.6265
3542.809326 96.594 -12.3810
3568.481934 96.586 -13.1206
3594.340576 96.573 -13.8400
3620.386719 96.557 -14.5358
3646.621582 96.538 -15.2036
3673.046387 96.516 -15.8410
3699.662842 96.493 -16.4436
3726.472168 96.469 -17.0134
3753.475586 96.448 -17.5495
3780.675049 96.429 -18.0568
3808.071289 96.414 -18.5372
3835.666016 96.405 -18.9998
3863.460938 96.402 -19.4505
3891.457275 96.406 -19.9008
3919.656250 96.416 -20.3616
3948.059814 96.433 -20.8407
3976.668945 96.455 -21.3478
4005.485596 96.482 -21.8883
4034.510986 96.512 -22.4697
4063.746582 96.545 -23.0959
4093.194336 96.579 -23.7730
4122.855469 96.613 -24.5013
4152.730957 96.645 -25.2847
4182.823730 96.674 -26.1189
4213.133789 96.698 -27.0019
4243.664062 96.717 -27.9305
4274.415527 96.730 -28.9028
4305.389648 96.735 -29.9130
4336.588379 96.731 -30.9578
4368.013184 96.718 -32.0279
4399.665527 96.695 -33.1144
4431.547363 96.661 -34.2116
4463.660156 96.619 -35.3125
4496.005371 96.566 -36.4115
4528.585449 96.503 -37.5043
4561.401367 96.428 -38.5809
4594.455078 96.343 -39.6324
4627.748535 96.248 -40.6521
4661.283203 96.144 -41.6331
4695.060547 96.031 -42.5676
4729.083008 95.908 -43.4484
4763.352051 95.778 -44.2673
4797.869141 95.640 -45.0148
4832.636719 95.498 -45.6868
4867.655762 95.351 -46.2754
4902.928711 95.203 -46.7827
4938.457520 95.056 -47.2062
4974.243652 94.912 -47.5525
5010.289062 94.772 -47.8244
5046.595703 94.640 -48.0321
5083.165527 94.516 -48.1829
5120.000000 94.402 -48.2886
5157.101562 94.297 -48.3597
5194.472168 94.202 -48.4078
5232.113281 94.118 -48.4449
5270.027344 94.043 -48.4798
5308.216309 93.977 -48.5235
5346.681641 93.919 -48.5817
5385.426270 93.868 -48.6635
5424.451172 93.822 -48.7694
5463.758789 93.779 -48.9052
5503.351562 93.738 -49.0642
5543.230957 93.696 -49.2432
5583.399414 93.654 -49.4370
5623.859375 93.612 -49.6412
5664.611816 93.570 -49.8500
5705.660156 93.526 -50.0578
5747.005859 93.482 -50.2590
5788.650879 93.439 -50.4439
5830.597656 93.398 -50.6181
5872.848633 93.363 -50.7817
5915.405762 93.333 -50.9412
5958.271484 93.308 -51.1010
6001.447266 93.288 -51.2681
6044.936523 93.276 -51.4470
6088.740234 93.270 -51.6489
6132.861816 93.272 -51.8843
6177.303223 93.280 -52.1595
6222.066406 93.292 -52.4833
6267.154297 93.308 -52.8590
6312.568359 93.327 -53.2916
6358.312012 93.347 -53.7844
6404.386719 93.367 -54.3442
6450.795898 93.384 -54.9647
6497.541016 93.395 -55.6431
6544.625000 93.402 -56.3742
6592.049805 93.405 -57.1529
6639.818359 93.401 -57.9757
6687.933594 93.390 -58.8403
6736.396973 93.370 -59.7373
6785.211426 93.342 -60.6579
6834.379883 93.305 -61.5971
6883.904785 93.262 -62.5478
6933.788574 93.212 -63.5080
6984.033691 93.154 -64.4752
7034.642578 93.089 -65.4441
7085.618652 93.017 -66.4083
7136.963867 92.939 -67.3692
7188.681152 92.858 -68.3256
7240.773438 92.771 -69.2792
7293.243164 92.680 -70.2310
7346.092773 92.583 -71.1812
7399.325684 92.483 -72.1291
7452.944336 92.380 -73.0782
7506.951172 92.272 -74.0309
7561.350098 92.161 -74.9900
7616.142578 92.044 -75.9587
7671.332031 91.924 -76.9379
7726.921875 91.798 -77.9286
7782.914551 91.667 -78.9338
7839.312500 91.530 -79.9580
7896.119629 91.386 -80.9995
7953.337891 91.232 -82.0593
8010.971191 91.068 -83.1323
8069.021973 90.893 -84.2161
8127.493164 90.706 -85.3032
8186.388672 90.505 -86.3890
8245.710938 90.289 -87.4624
8305.461914 90.057 -88.5147
8365.647461 89.809 -89.5337
8426.267578 89.544 -90.5091
8487.328125 89.262 -91.4253
8548.831055 88.960 -92.2683
8610.779297 88.641 -93.0233
8673.176758 88.305 -93.6764
8736.026367 87.953 -94.2114
8799.331055 87.583 -94.6135
8863.094727 87.198 -94.8641
8927.320312 86.798 -94.9440
8992.010742 86.386 -94.8410
9057.170898 85.966 -94.5401
9122.802734 85.539 -94.0303
9188.910156 85.108 -93.2968
9255.497070 84.676 -92.3358
9322.566406 84.251 -91.1373
9390.121094 83.834 -89.7052
9458.166016 83.430 -88.0356
9526.704102 83.047 -86.1426
9595.738281 82.690 -84.0276
9665.273438 82.367 -81.7246
9735.311523 82.084 -79.2549
9805.857422 81.844 -76.6593
9876.915039 81.653 -73.9706
9948.487305 81.512 -71.2349
10020.578125 81.425 -68.4944
10093.191406 81.388 -65.7934
10166.331055 81.402 -63.1809
10240.000000 81.459 -60.6858
10314.203125 81.554 -58.3490
10388.944336 81.679 -56.1839
10464.226562 81.829 -54.2189
10540.054688 81.997 -52.4489
10616.432617 82.175 -50.8833
10693.363281 82.360 -49.5076
10770.852539 82.545 -48.3173
10848.902344 82.728 -47.2901
10927.517578 82.905 -46.4096
11006.703125 83.077 -45.6538
11086.461914 83.241 -45.0006
11166.798828 83.400 -44.4349
11247.718750 83.553 -43.9360
11329.223633 83.703 -43.4991
11411.320312 83.853 -43.1109
11494.011719 84.004 -42.7767
11577.301758 84.157 -42.4931
11661.195312 84.314 -42.2730
11745.697266 84.478 -42.1219
11830.811523 84.646 -42.0581
11916.542969 84.820 -42.0995
12002.894531 84.995 -42.2538
12089.873047 85.169 -42.5340
12177.480469 85.338 -42.9413
12265.723633 85.501 -43.4832
12354.606445 85.654 -44.1540
12444.132812 85.794 -44.9571
12534.308594 85.917 -45.8728
12625.136719 86.020 -46.8902
12716.624023 86.101 -47.9860
12808.773438 86.159 -49.1411
12901.591797 86.194 -50.3322
12995.082031 86.205 -51.5359
13089.250000 86.193 -52.7330
13184.099609 86.160 -53.9015
13279.636719 86.107 -55.0273
13375.867188 86.036 -56.0915
13472.793945 85.949 -57.0876
13570.422852 85.849 -58.0022
13668.759766 85.740 -58.8373
13767.809570 85.622 -59.5890
13867.577148 85.499 -60.2613
13968.067383 85.372 -60.8533
14069.285156 85.243 -61.3762
14171.237305 85.115 -61.8393
14273.927734 84.986 -62.2480
14377.362305 84.856 -62.6099
14481.546875 84.725 -62.9275
14586.486328 84.594 -63.2062
14692.185547 84.462 -63.4437
14798.651367 84.326 -63.6447
14905.888672 84.186 -63.7933
15013.902344 84.039 -63.8813
15122.700195 83.888 -63.8902
15232.285156 83.733 -63.8019
15342.664062 83.578 -63.6075
15453.843750 83.424 -63.2895
15565.829102 83.278 -62.8557
15678.625000 83.146 -62.2981
15792.239258 83.034 -61.6477
15906.675781 82.949 -60.9169
16021.942383 82.894 -60.1541
16138.043945 82.875 -59.3960
16254.986328 82.888 -58.6918
16372.777344 82.935 -58.0915
16491.421875 83.009 -57.6301
16610.923828 83.103 -57.3549
16731.294922 83.210 -57.2788
16852.535156 83.323 -57.4351
16974.656250 83.432 -57.8101
17097.662109 83.527 -58.4117
17221.558594 83.603 -59.2076
17346.353516 83.653 -60.1813
17472.052734 83.675 -61.2919
17598.662109 83.663 -62.5073
17726.189453 83.616 -63.7845
17854.640625 83.533 -65.0834
17984.021484 83.414 -66.3630
18114.341797 83.257 -67.5812
18245.605469 83.067 -68.7010
18377.820312 82.844 -69.6807
18510.994141 82.594 -70.4928
18645.132812 82.318 -71.1014
18780.242188 82.024 -71.4905
18916.332031 81.716 -71.6316
19053.408203 81.402 -71.5283
19191.476562 81.088 -71.1631
19330.546875 80.786 -70.5708
19470.623047 80.507 -69.7646
19611.714844 80.253 -68.7929
19753.830078 80.032 -67.6939
19896.974609 79.843 -66.5123
