* Measurement data measured by REW V5.20.13
* Source: C:\Users\kurin\Desktop\Targets and Curves\Resolve\Img\Files\Susvara_SPL.txt
* Format: Comma/Tab/Space delimited data
* Dated: Aug 15, 2023 12:42:40 AM
* REW Settings:
*  C-weighting compensation: Off
*  Target level: 75.0 dB
* Note: ; Measurement imported from C:\Users\kurin\Desktop\Targets and Curves\Resolve\Img\Files\Susvara_SPL.txt Format: Comma/Tab/Space delimited data 623 values loaded, 5 Hz to 39,792 Hz log spaced 
* Measurement: Susvara_SPL
* Smoothing: 1/48 octave
* Frequency Step: 1/96 octave
* Start Frequency: 5.000 Hz
*
* Freq(Hz) SPL(dB) Phase(degrees)
5.000000 78.462 12.9580
5.036232 78.466 12.9551
5.072727 78.471 12.9520
5.109486 78.477 12.9482
5.146511 78.483 12.9440
5.183805 78.490 12.9392
5.221369 78.498 12.9340
5.259205 78.506 12.9286
5.297316 78.515 12.9230
5.335702 78.524 12.9175
5.374367 78.534 12.9120
5.413311 78.543 12.9066
5.452538 78.553 12.9010
5.492050 78.562 12.8950
5.531847 78.572 12.8890
5.571934 78.581 12.8835
5.612310 78.591 12.8780
5.652979 78.601 12.8720
5.693943 78.610 12.8660
5.735204 78.619 12.8605
5.776763 78.629 12.8550
5.818624 78.639 12.8491
5.860788 78.649 12.8430
5.903258 78.659 12.8370
5.946035 78.668 12.8310
5.989123 78.677 12.8250
6.032523 78.687 12.8190
6.076237 78.696 12.8131
6.120268 78.706 12.8070
6.164618 78.715 12.8006
6.209289 78.725 12.7940
6.254284 78.734 12.7874
6.299605 78.744 12.7810
6.345255 78.754 12.7750
6.391235 78.763 12.7690
6.437549 78.772 12.7626
6.484198 78.782 12.7560
6.531185 78.791 12.7490
6.578513 78.801 12.7420
6.626183 78.811 12.7354
6.674199 78.820 12.7290
6.722563 78.829 12.7226
6.771278 78.839 12.7160
6.820345 78.848 12.7091
6.869768 78.858 12.7020
6.919549 78.868 12.6950
6.969691 78.877 12.6880
7.020196 78.886 12.6811
7.071068 78.896 12.6740
7.122308 78.906 12.6665
7.173919 78.915 12.6590
7.225904 78.924 12.6520
7.278266 78.934 12.6450
7.331007 78.943 12.6376
7.384131 78.953 12.6300
7.437639 78.963 12.6225
7.491535 78.972 12.6150
7.545822 78.981 12.6075
7.600502 78.991 12.6000
7.655579 79.000 12.5926
7.711054 79.010 12.5850
7.766932 79.020 12.5771
7.823214 79.029 12.5690
7.879904 79.038 12.5610
7.937005 79.048 12.5530
7.994520 79.057 12.5450
8.052452 79.067 12.5370
8.110803 79.076 12.5291
8.169578 79.086 12.5210
8.228777 79.095 12.5126
8.288406 79.105 12.5040
8.348468 79.115 12.4955
8.408964 79.124 12.4870
8.469899 79.133 12.4785
8.531276 79.143 12.4700
8.593097 79.152 12.4615
8.655366 79.162 12.4530
8.718086 79.172 12.4446
8.781260 79.181 12.4360
8.844893 79.190 12.4271
8.908987 79.200 12.4180
8.973545 79.209 12.4091
9.038571 79.219 12.4000
9.104069 79.228 12.3905
9.170040 79.238 12.3810
9.236490 79.247 12.3720
9.303422 79.257 12.3630
9.370838 79.267 12.3536
9.438744 79.276 12.3440
9.507140 79.285 12.3346
9.576033 79.295 12.3250
9.645425 79.304 12.3151
9.715320 79.314 12.3050
9.785721 79.323 12.2950
9.856632 79.333 12.2850
9.928058 79.342 12.2750
10.000000 79.352 12.2650
10.072464 79.361 12.2551
10.145453 79.371 12.2450
10.218971 79.380 12.2346
10.293022 79.390 12.2240
10.367610 79.399 12.2135
10.442738 79.409 12.2030
10.518411 79.418 12.1926
10.594631 79.428 12.1820
10.671404 79.438 12.1711
10.748734 79.447 12.1600
10.826623 79.456 12.1490
10.905077 79.466 12.1380
10.984100 79.475 12.1271
11.063695 79.485 12.1160
11.143867 79.494 12.1046
11.224621 79.504 12.0930
11.305959 79.513 12.0815
11.387886 79.523 12.0700
11.470407 79.533 12.0586
11.553527 79.543 12.0470
11.637249 79.553 12.0351
11.721577 79.562 12.0230
11.806517 79.571 12.0111
11.892071 79.581 11.9990
11.978246 79.590 11.9865
12.065045 79.600 11.9740
12.152473 79.609 11.9621
12.240536 79.619 11.9500
12.329235 79.628 11.9371
12.418578 79.638 11.9240
12.508568 79.647 11.9115
12.599211 79.657 11.8990
12.690510 79.666 11.8861
12.782471 79.676 11.8730
12.875097 79.685 11.8596
12.968395 79.695 11.8460
13.062370 79.704 11.8325
13.157025 79.714 11.8190
13.252366 79.723 11.8056
13.348398 79.733 11.7920
13.445127 79.742 11.7781
13.542556 79.752 11.7640
13.640691 79.761 11.7500
13.739536 79.771 11.7360
13.839099 79.780 11.7221
13.939383 79.790 11.7080
14.040393 79.799 11.6936
14.142136 79.809 11.6790
14.244616 79.818 11.6641
14.347837 79.828 11.6490
14.451808 79.838 11.6340
14.556532 79.847 11.6190
14.662014 79.856 11.6041
14.768262 79.866 11.5890
14.875278 79.875 11.5736
14.983070 79.885 11.5580
15.091644 79.894 11.5421
15.201005 79.904 11.5260
15.311157 79.913 11.5101
15.422109 79.923 11.4940
15.533863 79.932 11.4776
15.646428 79.942 11.4610
15.759809 79.951 11.4446
15.874010 79.961 11.4280
15.989040 79.970 11.4111
16.104904 79.980 11.3940
16.221605 79.989 11.3771
16.339155 79.999 11.3600
16.457554 80.008 11.3426
16.576813 80.018 11.3250
16.696936 80.027 11.3076
16.817928 80.037 11.2900
16.939798 80.046 11.2721
17.062551 80.056 11.2540
17.186193 80.065 11.2360
17.310732 80.075 11.2180
17.436172 80.084 11.2001
17.562521 80.094 11.1820
17.689787 80.103 11.1636
17.817974 80.113 11.1450
17.947090 80.122 11.1261
18.077143 80.132 11.1070
18.208138 80.141 11.0880
18.340080 80.151 11.0690
18.472980 80.160 11.0501
18.606844 80.170 11.0310
18.741676 80.179 11.0117
18.877487 80.189 10.9920
19.014280 80.198 10.9716
19.152065 80.208 10.9510
19.290850 80.218 10.9305
19.430639 80.227 10.9100
19.571442 80.236 10.8895
19.713264 80.244 10.8700
19.856115 80.253 10.8522
20.000000 80.261 10.8380
20.144928 80.268 10.8299
20.290907 80.276 10.8270
20.437943 80.284 10.8301
20.586044 80.294 10.8370
20.735220 80.305 10.8468
20.885475 80.318 10.8570
21.036821 80.333 10.8664
21.189262 80.350 10.8700
21.342808 80.369 10.8631
21.497467 80.390 10.8430
21.653246 80.411 10.8041
21.810154 80.432 10.7501
21.968201 80.451 10.6829
22.127390 80.468 10.6031
22.287735 80.485 10.5102
22.449242 80.499 10.4091
22.611917 80.509 10.3022
22.775772 80.515 10.1971
22.940815 80.518 10.1025
23.107054 80.520 10.0181
23.274498 80.521 9.9467
23.443153 80.521 9.8881
23.613033 80.520 9.8419
23.784142 80.519 9.8110
23.956491 80.518 9.8003
24.130091 80.518 9.8030
24.304947 80.523 9.8159
24.481071 80.530 9.8340
24.658470 80.539 9.8524
24.837156 80.551 9.8680
25.017136 80.566 9.8783
25.198421 80.584 9.8770
25.381020 80.604 9.8565
25.564941 80.625 9.8180
25.750195 80.645 9.7588
25.936790 80.664 9.6831
26.124741 80.681 9.5938
26.314051 80.696 9.4931
26.504732 80.709 9.3823
26.696796 80.719 9.2671
26.890253 80.726 9.1533
27.085112 80.730 9.0431
27.281382 80.733 8.9414
27.479073 80.734 8.8471
27.678198 80.735 8.7616
27.878765 80.735 8.6831
28.080786 80.736 8.6111
28.284271 80.737 8.5431
28.489231 80.738 8.4769
28.695675 80.740 8.4111
28.903616 80.742 8.3436
29.113064 80.743 8.2741
29.324028 80.743 8.1988
29.536524 80.741 8.1261
29.750557 80.735 8.0614
29.966141 80.726 8.0090
30.183289 80.717 7.9760
30.402010 80.708 7.9600
30.622314 80.699 7.9604
30.844217 80.691 7.9800
31.067726 80.683 8.0231
31.292856 80.677 8.0839
31.519617 80.677 8.1629
31.748020 80.683 8.2459
31.978081 80.694 8.3193
32.209808 80.709 8.3809
32.443211 80.726 8.4241
32.678310 80.745 8.4490
32.915108 80.766 8.4534
33.153625 80.787 8.4370
33.393871 80.807 8.3965
33.635857 80.826 8.3391
33.879597 80.841 8.2694
34.125103 80.853 8.1921
34.372387 80.864 8.1125
34.621464 80.872 8.0341
34.872345 80.877 7.9624
35.125042 80.882 7.8971
35.379574 80.887 7.8415
35.635948 80.893 7.7901
35.894180 80.901 7.7384
36.154285 80.909 7.6861
36.416275 80.916 7.6313
36.680161 80.923 7.5731
36.945961 80.932 7.5103
37.213688 80.940 7.4421
37.483353 80.947 7.3654
37.754974 80.953 7.2851
38.028561 80.957 7.2043
38.304131 80.959 7.1251
38.581699 80.961 7.0511
38.861279 80.962 6.9811
39.142883 80.962 6.9150
39.426529 80.962 6.8531
39.712231 80.962 6.7959
40.000000 80.962 6.7421
40.289856 80.962 6.6905
40.581814 80.962 6.6411
40.875885 80.962 6.5933
41.172089 80.962 6.5471
41.470440 80.962 6.5025
41.770950 80.962 6.4591
42.073643 80.962 6.4164
42.378525 80.962 6.3741
42.685616 80.962 6.3317
42.994934 80.962 6.2891
43.306492 80.961 6.2456
43.620308 80.960 6.2021
43.936401 80.959 6.1583
44.254780 80.956 6.1171
44.575470 80.952 6.0797
44.898483 80.946 6.0500
45.223835 80.940 6.0325
45.551544 80.933 6.0260
45.881630 80.927 6.0320
46.214108 80.923 6.0480
46.548996 80.920 6.0726
46.886307 80.919 6.1029
47.226067 80.920 6.1369
47.568283 80.923 6.1709
47.912983 80.928 6.2010
48.260181 80.935 6.2260
48.609894 80.942 6.2442
48.962143 80.951 6.2540
49.316940 80.961 6.2527
49.674313 80.972 6.2420
50.034271 80.980 6.2220
50.396843 80.988 6.1950
50.762039 80.995 6.1629
51.129883 81.002 6.1281
51.500389 81.007 6.0928
51.873581 81.011 6.0591
52.249481 81.014 6.0297
52.628101 81.017 6.0040
53.009464 81.019 5.9817
53.393593 81.022 5.9640
53.780506 81.024 5.9536
54.170223 81.028 5.9470
54.562763 81.034 5.9436
54.958145 81.041 5.9370
55.356396 81.051 5.9202
55.757530 81.061 5.8950
56.161572 81.070 5.8602
56.568542 81.078 5.8181
56.978462 81.086 5.7705
57.391350 81.094 5.7181
57.807232 81.100 5.6610
58.226128 81.105 5.6021
58.648056 81.108 5.5443
59.073048 81.111 5.4881
59.501114 81.114 5.4357
59.932281 81.117 5.3841
60.366577 81.120 5.3320
60.804020 81.124 5.2771
61.244629 81.128 5.2157
61.688435 81.131 5.1501
62.135452 81.133 5.0809
62.585712 81.133 5.0091
63.039234 81.133 4.9356
63.496040 81.131 4.8611
63.956161 81.128 4.7851
64.419617 81.122 4.7131
64.886421 81.113 4.6498
65.356621 81.102 4.5981
65.830215 81.091 4.5630
66.307251 81.079 4.5430
66.787743 81.066 4.5376
67.271713 81.054 4.5490
67.759193 81.042 4.5804
68.250206 81.032 4.6279
68.744774 81.026 4.6916
69.242928 81.023 4.7629
69.744690 81.024 4.8340
70.250084 81.029 4.9019
70.759148 81.036 4.9616
71.271896 81.045 5.0109
71.788361 81.057 5.0461
72.308571 81.070 5.0660
72.832550 81.084 5.0672
73.360321 81.097 5.0530
73.891922 81.109 5.0249
74.427376 81.119 4.9851
74.966705 81.128 4.9347
75.509949 81.135 4.8781
76.057121 81.139 4.8193
76.608261 81.141 4.7611
77.163399 81.142 4.7076
77.722557 81.141 4.6591
78.285767 81.140 4.6164
78.853058 81.137 4.5821
79.424461 81.133 4.5590
80.000000 81.128 4.5470
80.579712 81.125 4.5492
81.163628 81.124 4.5590
81.751770 81.126 4.5721
82.344177 81.130 4.5840
82.940880 81.136 4.5886
83.541901 81.143 4.5860
84.147285 81.150 4.5740
84.757050 81.157 4.5530
85.371231 81.164 4.5226
85.989868 81.171 4.4841
86.612984 81.177 4.4379
87.240616 81.181 4.3871
87.872803 81.184 4.3345
88.509560 81.186 4.2811
89.150940 81.187 4.2294
89.796967 81.187 4.1781
90.447670 81.187 4.1270
91.103088 81.186 4.0761
91.763260 81.185 4.0254
92.428215 81.183 3.9751
93.097992 81.180 3.9247
93.772614 81.176 3.8771
94.452133 81.171 3.8345
95.136566 81.164 3.7981
95.825966 81.157 3.7701
96.520363 81.149 3.7500
97.219788 81.142 3.7381
97.924286 81.135 3.7340
98.633881 81.129 3.7382
99.348625 81.123 3.7480
100.068542 81.119 3.7617
100.793686 81.116 3.7770
101.524078 81.114 3.7908
102.259766 81.113 3.8030
103.000778 81.112 3.8121
103.747162 81.112 3.8180
104.498962 81.112 3.8197
105.256203 81.112 3.8180
106.018929 81.112 3.8133
106.787186 81.111 3.8060
107.561012 81.110 3.7962
108.340446 81.107 3.7860
109.125526 81.103 3.7766
109.916290 81.098 3.7710
110.712791 81.092 3.7724
111.515060 81.085 3.7820
112.323143 81.078 3.8028
113.137085 81.072 3.8329
113.956924 81.067 3.8719
114.782700 81.062 3.9189
115.614464 81.059 3.9741
116.452255 81.057 4.0339
117.296112 81.058 4.0967
118.146095 81.062 4.1569
119.002228 81.068 4.2080
119.864563 81.075 4.2509
120.733154 81.083 4.2844
121.608040 81.091 4.3080
122.489258 81.100 4.3208
123.376869 81.109 4.3220
124.270905 81.118 4.3082
125.171425 81.125 4.2860
126.078468 81.128 4.2602
126.992081 81.130 4.2331
127.912323 81.131 4.2084
128.839233 81.131 4.1860
129.772842 81.130 4.1658
130.713242 81.127 4.1510
131.660431 81.124 4.1459
132.614502 81.120 4.1480
133.575485 81.117 4.1567
134.543427 81.115 4.1700
135.518387 81.114 4.1857
136.500412 81.113 4.2030
137.489548 81.112 4.2204
138.485855 81.112 4.2380
139.489380 81.112 4.2550
140.500168 81.112 4.2720
141.518295 81.112 4.2893
142.543793 81.112 4.3070
143.576721 81.112 4.3251
144.617142 81.112 4.3440
145.665100 81.112 4.3635
146.720642 81.112 4.3839
147.783844 81.112 4.4054
148.854752 81.112 4.4279
149.933411 81.112 4.4514
151.019897 81.112 4.4759
152.114243 81.112 4.5016
153.216522 81.112 4.5289
154.326797 81.112 4.5584
155.445114 81.112 4.5899
156.571533 81.112 4.6230
157.706116 81.112 4.6589
158.848923 81.112 4.6985
160.000000 81.112 4.7419
161.159424 81.113 4.7898
162.327255 81.114 4.8419
163.503540 81.115 4.8988
164.688354 81.118 4.9589
165.881760 81.122 5.0216
167.083801 81.128 5.0838
168.294571 81.135 5.1420
169.514099 81.144 5.1969
170.742462 81.152 5.2485
171.979736 81.162 5.2949
173.225967 81.174 5.3344
174.481232 81.186 5.3659
175.745605 81.197 5.3860
177.019119 81.208 5.4000
178.301880 81.217 5.4123
179.593933 81.226 5.4230
180.895340 81.235 5.4336
182.206177 81.244 5.4440
183.526520 81.252 5.4537
184.856430 81.260 5.4650
186.195984 81.268 5.4808
187.545227 81.277 5.4980
188.904266 81.288 5.5143
190.273132 81.299 5.5300
191.651932 81.310 5.5460
193.040726 81.322 5.5580
194.439575 81.339 5.5639
195.848572 81.357 5.5580
197.267761 81.376 5.5328
198.697250 81.394 5.4921
200.137085 81.410 5.4374
201.587372 81.426 5.3692
203.048157 81.442 5.2880
204.519531 81.456 5.1953
206.001556 81.468 5.0902
207.494324 81.477 4.9793
208.997925 81.482 4.8690
210.512405 81.486 4.7593
212.037857 81.489 4.6534
213.574371 81.492 4.5473
215.122025 81.495 4.4397
216.680893 81.498 4.3253
218.251053 81.502 4.1987
219.832581 81.504 4.0584
221.425583 81.504 3.8993
223.030121 81.500 3.7275
224.646286 81.491 3.5446
226.274170 81.476 3.3595
227.913849 81.455 3.1771
229.565399 81.427 3.0104
231.228928 81.391 2.8712
232.904510 81.349 2.7673
234.592224 81.304 2.7105
236.292191 81.256 2.7010
238.004456 81.208 2.7440
239.729126 81.161 2.8347
241.466309 81.118 2.9734
243.216080 81.079 3.1495
244.978516 81.048 3.3553
246.753738 81.022 3.5823
248.541809 81.002 3.8210
250.342850 80.988 4.0673
252.156937 80.980 4.3152
253.984161 80.977 4.5603
255.824646 80.979 4.7975
257.678467 80.985 5.0225
259.545685 80.996 5.2293
261.426483 81.010 5.4176
263.320862 81.026 5.5848
265.229004 81.043 5.7306
267.150970 81.062 5.8544
269.086853 81.082 5.9537
271.036774 81.102 6.0245
273.000824 81.121 6.0719
274.979095 81.136 6.0982
276.971710 81.148 6.1090
278.978760 81.157 6.1094
281.000336 81.162 6.1030
283.036591 81.164 6.0923
285.087585 81.161 6.0860
287.153442 81.153 6.0920
289.234283 81.141 6.1149
291.330200 81.127 6.1614
293.441284 81.111 6.2338
295.567688 81.093 6.3355
297.709503 81.074 6.4696
299.866821 81.056 6.6424
302.039795 81.040 6.8473
304.228485 81.031 7.0828
306.433044 81.026 7.3402
308.653595 81.026 7.6123
310.890228 81.032 7.8932
313.143066 81.044 8.1772
315.412231 81.063 8.4562
317.697845 81.088 8.7219
320.000000 81.117 8.9703
322.318848 81.150 9.1941
324.654510 81.185 9.3954
327.007080 81.222 9.5734
329.376709 81.260 9.7295
331.763519 81.298 9.8644
334.167603 81.337 9.9797
336.589142 81.375 10.0769
339.028198 81.413 10.1578
341.484924 81.451 10.2243
343.959473 81.488 10.2769
346.451935 81.525 10.3158
348.962463 81.561 10.3429
351.491211 81.595 10.3593
354.038239 81.629 10.3670
356.603760 81.661 10.3676
359.187866 81.693 10.3630
361.790680 81.723 10.3557
364.412354 81.752 10.3450
367.053040 81.781 10.3311
369.712860 81.810 10.3151
372.391968 81.838 10.2981
375.090454 81.865 10.2801
377.808533 81.892 10.2617
380.546265 81.920 10.2421
383.303864 81.948 10.2208
386.081451 81.976 10.1961
388.879150 82.004 10.1656
391.697144 82.033 10.1311
394.535522 82.061 10.0941
397.394501 82.089 10.0531
400.274170 82.118 10.0083
403.174744 82.148 9.9572
406.096313 82.177 9.8951
409.039062 82.206 9.8282
412.003113 82.231 9.7602
414.988647 82.256 9.6932
417.995850 82.282 9.6321
421.024811 82.309 9.5722
424.075714 82.338 9.5113
427.148743 82.368 9.4472
430.244049 82.399 9.3792
433.361786 82.433 9.3013
436.502106 82.470 9.2092
439.665161 82.508 9.0974
442.851166 82.547 8.9580
446.060242 82.586 8.7936
449.292572 82.623 8.6019
452.548340 82.658 8.3887
455.827698 82.689 8.1573
459.130798 82.717 7.9118
462.457855 82.742 7.6583
465.809021 82.765 7.3949
469.184448 82.786 7.1229
472.584381 82.806 6.8389
476.008911 82.824 6.5403
479.458252 82.839 6.2260
482.932617 82.851 5.8941
486.432159 82.859 5.5451
489.957031 82.862 5.1737
493.507477 82.856 4.7952
497.083618 82.838 4.4161
500.685699 82.810 4.0581
504.313873 82.771 3.7402
507.968323 82.722 3.4767
511.649292 82.666 3.2866
515.356934 82.606 3.1752
519.091370 82.545 3.1569
522.852966 82.487 3.2236
526.641724 82.437 3.3795
530.458008 82.398 3.6032
534.301941 82.374 3.8835
538.173706 82.367 4.1929
542.073547 82.378 4.5080
546.001648 82.407 4.8050
549.958191 82.453 5.0579
553.943420 82.513 5.2505
557.957520 82.585 5.3608
562.000671 82.666 5.3801
566.073181 82.752 5.2922
570.175171 82.841 5.0968
574.306885 82.927 4.7888
578.468567 83.011 4.3666
582.660400 83.089 3.8249
586.882568 83.158 3.1705
591.135376 83.211 2.4031
595.419006 83.247 1.5391
599.733643 83.263 0.5847
604.079590 83.253 -0.4304
608.456970 83.214 -1.4948
612.866089 83.140 -2.5475
617.307190 83.025 -3.5440
621.780457 82.875 -4.4234
626.286133 82.690 -5.1229
630.824463 82.478 -5.6038
635.395691 82.240 -5.8090
640.000000 81.991 -5.7308
644.637695 81.738 -5.3260
649.309021 81.500 -4.6438
654.014160 81.294 -3.6958
658.753418 81.125 -2.5531
663.527039 81.003 -1.2682
668.335205 80.927 0.0904
673.178284 80.908 1.4536
678.056396 80.933 2.7697
682.969849 80.996 3.9663
687.918945 81.089 5.0355
692.903870 81.200 5.9446
697.924927 81.327 6.6976
702.982422 81.462 7.2829
708.076477 81.600 7.7157
713.207520 81.736 8.0011
718.375732 81.868 8.1586
723.581360 81.992 8.2081
728.824707 82.111 8.1534
734.106079 82.225 8.0013
739.425720 82.331 7.7630
744.783936 82.422 7.4466
750.180908 82.501 7.0675
755.617065 82.570 6.6402
761.092529 82.626 6.1747
766.607727 82.668 5.6816
772.162903 82.696 5.1738
777.758301 82.711 4.6636
783.394287 82.714 4.1637
789.071045 82.703 3.6877
794.789001 82.681 3.2455
800.548340 82.650 2.8504
806.349487 82.610 2.5061
812.192627 82.563 2.2206
818.078125 82.511 1.9947
824.006226 82.456 1.8300
829.977295 82.397 1.7322
835.991699 82.335 1.7076
842.049622 82.273 1.7567
848.151428 82.216 1.8851
854.297485 82.163 2.0841
860.488098 82.118 2.3494
866.723572 82.082 2.6727
873.004211 82.056 3.0496
879.330322 82.044 3.4645
885.702332 82.048 3.9097
892.120483 82.069 4.3574
898.585144 82.111 4.7831
905.096680 82.169 5.1697
911.655396 82.239 5.4957
918.261597 82.321 5.7502
924.915710 82.416 5.9207
931.618042 82.520 5.9909
938.368896 82.630 5.9392
945.168762 82.743 5.7689
952.017822 82.850 5.4746
958.916504 82.952 5.0608
965.865234 83.047 4.5273
972.864319 83.131 3.8826
979.914062 83.198 3.1258
987.014954 83.246 2.2853
994.167236 83.269 1.3772
1001.371399 83.267 0.4374
1008.627747 83.238 -0.5081
1015.936646 83.181 -1.4133
1023.298584 83.092 -2.2343
1030.713867 82.979 -2.9389
1038.182739 82.850 -3.4776
1045.705933 82.711 -3.8597
1053.283447 82.570 -4.0679
1060.916016 82.433 -4.1320
1068.603882 82.307 -4.0618
1076.347412 82.196 -3.9008
1084.147095 82.110 -3.6842
1092.003296 82.040 -3.4478
1099.916382 81.987 -3.2377
1107.886841 81.943 -3.0577
1115.915039 81.904 -2.9343
1124.001343 81.863 -2.8453
1132.146362 81.815 -2.7871
1140.350342 81.759 -2.7293
1148.613770 81.691 -2.6457
1156.937134 81.616 -2.5187
1165.320801 81.536 -2.3193
1173.765137 81.456 -2.0543
1182.270752 81.382 -1.7141
1190.838013 81.314 -1.3187
1199.467285 81.257 -0.8788
1208.159180 81.210 -0.4129
1216.913940 81.174 0.0616
1225.732178 81.148 0.5313
1234.614380 81.131 0.9762
1243.560913 81.118 1.3995
1252.572266 81.106 1.7912
1261.648926 81.092 2.1705
1270.791382 81.074 2.5473
1280.000000 81.054 2.9394
1289.275391 81.030 3.3668
1298.618042 81.008 3.8330
1308.028320 80.990 4.3534
1317.506836 80.981 4.9115
1327.054077 80.985 5.5054
1336.670410 81.003 6.1067
1346.356567 81.039 6.6955
1356.112793 81.090 7.2441
1365.939697 81.157 7.7249
1375.837891 81.235 8.1176
1385.807739 81.321 8.3936
1395.849854 81.410 8.5496
1405.964844 81.495 8.5658
1416.152954 81.570 8.4636
1426.415039 81.626 8.2449
1436.751465 81.662 7.9492
1447.162720 81.672 7.5998
1457.649414 81.655 7.2484
1468.212158 81.605 6.9333
1478.851440 81.525 6.7176
1489.567871 81.414 6.6676
1500.361816 81.284 6.8120
1511.234131 81.144 7.2075
1522.185059 81.006 7.8357
1533.215454 80.880 8.7128
1544.325806 80.777 9.7908
1555.516602 80.711 11.0518
1566.788574 80.685 12.4211
1578.142090 80.712 13.8401
1589.578003 80.785 15.2422
1601.096680 80.902 16.5518
1612.698975 81.054 17.7364
1624.385254 81.233 18.7391
1636.156250 81.429 19.5578
1648.012451 81.634 20.1667
1659.954590 81.841 20.5798
1671.983398 82.043 20.7947
1684.099243 82.235 20.8372
1696.302856 82.411 20.7204
1708.594971 82.568 20.4793
1720.976196 82.703 20.1413
1733.447144 82.815 19.7418
1746.008423 82.903 19.3147
1758.660645 82.971 18.8927
1771.404663 83.016 18.5149
1784.240967 83.048 18.1952
1797.170288 83.071 17.9656
1810.193359 83.090 17.8105
1823.310791 83.112 17.7346
1836.523193 83.140 17.7080
1849.831421 83.178 17.7102
1863.236084 83.223 17.7180
1876.737793 83.273 17.7017
1890.337524 83.323 17.6612
1904.035645 83.370 17.5785
1917.833008 83.410 17.4774
1931.730469 83.436 17.3627
1945.728638 83.449 17.2743
1959.828125 83.445 17.2453
1974.029907 83.432 17.3015
1988.334473 83.412 17.4829
2002.742798 83.394 17.7806
2017.255493 83.387 18.2094
2031.873291 83.395 18.7377
2046.597168 83.424 19.3528
2061.427734 83.476 20.0120
2076.365479 83.558 20.6801
2091.411865 83.665 21.3224
2106.566895 83.792 21.8978
2121.832031 83.936 22.3902
2137.207764 84.095 22.7693
2152.694824 84.260 23.0372
2168.294189 84.427 23.1790
2184.006592 84.591 23.2161
2199.832764 84.747 23.1587
2215.773682 84.896 23.0257
2231.830078 85.038 22.8380
2248.002686 85.172 22.6001
2264.292725 85.302 22.3192
2280.700684 85.424 22.0074
2297.227539 85.535 21.6759
2313.874268 85.640 21.3344
2330.641602 85.738 20.9951
2347.530273 85.832 20.6614
2364.541504 85.919 20.3377
2381.676025 86.003 20.0333
2398.934570 86.082 19.7595
2416.318359 86.161 19.5150
2433.827881 86.242 19.3056
2451.464355 86.328 19.1217
2469.228760 86.420 18.9628
2487.121826 86.522 18.8077
2505.144531 86.636 18.6439
2523.297852 86.759 18.4440
2541.582764 86.894 18.1788
2560.000000 87.032 17.8407
2578.550781 87.170 17.4070
2597.236084 87.301 16.8936
2616.056641 87.422 16.2975
2635.013672 87.530 15.6518
2654.108154 87.618 14.9759
2673.340820 87.689 14.3078
2692.713135 87.742 13.6836
2712.225586 87.783 13.1294
2731.879395 87.814 12.6818
2751.675781 87.843 12.3453
2771.615479 87.877 12.1450
2791.699707 87.925 12.0542
2811.929688 87.995 12.0713
2832.305908 88.092 12.1446
2852.830078 88.226 12.2413
2873.502930 88.393 12.3029
2894.325439 88.598 12.2782
2915.298828 88.832 12.1122
2936.424316 89.094 11.7436
2957.702881 89.372 11.1392
2979.135742 89.655 10.2401
3000.723633 89.930 9.0627
3022.468262 90.179 7.5864
3044.370117 90.398 5.8655
3066.430908 90.577 3.9232
3088.651611 90.712 1.8316
3111.033203 90.796 -0.3567
3133.577148 90.830 -2.5596
3156.284180 90.810 -4.6950
3179.156006 90.745 -6.7088
3202.193359 90.644 -8.5261
3225.397949 90.514 -10.1279
3248.770508 90.360 -11.4727
3272.312500 90.193 -12.5548
3296.024902 90.020 -13.3432
3319.909180 89.857 -13.8731
3343.966797 89.717 -14.1494
3368.198486 89.607 -14.2330
3392.605713 89.537 -14.1634
3417.189941 89.509 -14.0098
3441.952393 89.531 -13.8289
3466.894287 89.600 -13.6984
3492.016846 89.717 -13.6993
3517.321289 89.866 -13.8777
3542.809326 90.036 -14.3091
3568.481934 90.212 -14.9863
3594.340576 90.382 -15.9416
3620.386719 90.536 -17.1298
3646.621582 90.660 -18.5389
3673.046387 90.752 -20.1003
3699.662842 90.803 -21.7622
3726.472168 90.817 -23.4612
3753.475586 90.792 -25.1314
3780.675049 90.734 -26.7281
3808.071289 90.645 -28.1908
3835.666016 90.534 -29.5012
3863.460938 90.407 -30.6184
3891.457275 90.273 -31.5500
3919.656250 90.139 -32.2832
3948.059814 90.013 -32.8388
3976.668945 89.899 -33.2204
4005.485596 89.805 -33.4681
4034.510986 89.744 -33.6076
4063.746582 89.712 -33.6867
4093.194336 89.714 -33.7470
4122.855469 89.748 -33.8325
4152.730957 89.817 -33.9870
4182.823730 89.915 -34.2524
4213.133789 90.040 -34.6721
4243.664062 90.184 -35.2846
4274.415527 90.348 -36.1409
4305.389648 90.514 -37.2460
4336.588379 90.667 -38.6362
4368.013184 90.799 -40.2677
4399.665527 90.899 -42.1303
4431.547363 90.960 -44.1578
4463.660156 90.974 -46.3123
4496.005371 90.939 -48.4971
4528.585449 90.844 -50.6255
4561.401367 90.702 -52.6279
4594.455078 90.520 -54.4049
4627.748535 90.312 -55.9600
4661.283203 90.091 -57.2568
4695.060547 89.863 -58.3164
4729.083008 89.636 -59.1297
4763.352051 89.424 -59.7514
4797.869141 89.248 -60.2102
4832.636719 89.102 -60.5763
4867.655762 88.987 -60.9194
4902.928711 88.899 -61.2712
4938.457520 88.834 -61.6817
4974.243652 88.786 -62.1645
5010.289062 88.750 -62.7499
5046.595703 88.720 -63.4373
5083.165527 88.689 -64.2436
5120.000000 88.652 -65.1464
5157.101562 88.601 -66.1424
5194.472168 88.533 -67.1908
5232.113281 88.443 -68.2631
5270.027344 88.333 -69.3178
5308.216309 88.199 -70.3121
5346.681641 88.049 -71.2218
5385.426270 87.885 -72.0060
5424.451172 87.716 -72.6730
5463.758789 87.549 -73.2089
5503.351562 87.390 -73.6411
5543.230957 87.244 -73.9838
5583.399414 87.113 -74.2637
5623.859375 86.997 -74.5027
5664.611816 86.898 -74.7299
5705.660156 86.820 -74.9767
5747.005859 86.754 -75.2584
5788.650879 86.698 -75.6004
5830.597656 86.648 -76.0028
5872.848633 86.603 -76.4740
5915.405762 86.559 -77.0140
5958.271484 86.516 -77.6313
6001.447266 86.467 -78.3094
6044.936523 86.407 -79.0410
6088.740234 86.336 -79.8061
6132.861816 86.257 -80.5843
6177.303223 86.167 -81.3691
6222.066406 86.070 -82.1530
6267.154297 85.962 -82.9192
6312.568359 85.840 -83.6511
6358.312012 85.712 -84.3407
6404.386719 85.580 -84.9717
6450.795898 85.446 -85.5521
6497.541016 85.310 -86.0849
6544.625000 85.174 -86.5687
6592.049805 85.035 -87.0015
6639.818359 84.899 -87.3881
6687.933594 84.768 -87.7320
6736.396973 84.641 -88.0355
6785.211426 84.514 -88.3041
6834.379883 84.392 -88.5329
6883.904785 84.274 -88.7163
6933.788574 84.164 -88.8623
6984.033691 84.063 -88.9751
7034.642578 83.971 -89.0606
7085.618652 83.889 -89.1206
7136.963867 83.821 -89.1727
7188.681152 83.773 -89.2235
7240.773438 83.743 -89.3084
7293.243164 83.735 -89.4562
7346.092773 83.744 -89.6945
7399.325684 83.770 -90.0538
7452.944336 83.808 -90.5541
7506.951172 83.854 -91.2234
7561.350098 83.903 -92.0682
7616.142578 83.947 -93.1057
7671.332031 83.984 -94.3312
7726.921875 84.007 -95.7501
7782.914551 84.012 -97.3493
7839.312500 83.992 -99.1272
7896.119629 83.942 -101.0555
7953.337891 83.857 -103.1153
8010.971191 83.734 -105.2764
8069.021973 83.572 -107.5174
8127.493164 83.365 -109.7920
8186.388672 83.108 -112.0749
8245.710938 82.795 -114.2807
8305.461914 82.419 -116.3488
8365.647461 81.982 -118.1781
8426.267578 81.482 -119.6675
8487.328125 80.929 -120.7555
8548.831055 80.331 -121.3546
8610.779297 79.694 -121.4420
8673.176758 79.023 -120.9741
8736.026367 78.335 -119.9263
8799.331055 77.638 -118.2414
8863.094727 76.967 -115.9735
8927.320312 76.356 -113.1173
8992.010742 75.821 -109.7956
9057.170898 75.385 -106.0923
9122.802734 75.057 -102.1205
9188.910156 74.855 -97.9773
9255.497070 74.779 -93.7955
9322.566406 74.846 -89.7021
9390.121094 75.030 -85.8128
9458.166016 75.319 -82.2623
9526.704102 75.693 -79.1214
9595.738281 76.133 -76.5001
9665.273438 76.613 -74.4135
9735.311523 77.107 -72.9357
9805.857422 77.596 -71.9987
9876.915039 78.057 -71.5824
9948.487305 78.491 -71.6157
10020.578125 78.892 -72.0407
10093.191406 79.258 -72.7961
10166.331055 79.581 -73.8242
10240.000000 79.865 -75.0561
10314.203125 80.108 -76.4141
10388.944336 80.319 -77.8669
10464.226562 80.505 -79.3564
10540.054688 80.672 -80.8858
10616.432617 80.826 -82.4303
10693.363281 80.970 -84.0174
10770.852539 81.113 -85.6541
10848.902344 81.252 -87.3803
10927.517578 81.390 -89.2357
11006.703125 81.515 -91.2298
11086.461914 81.621 -93.3910
11166.798828 81.704 -95.7018
11247.718750 81.759 -98.1656
11329.223633 81.780 -100.7474
11411.320312 81.761 -103.4345
11494.011719 81.698 -106.1622
11577.301758 81.583 -108.8794
11661.195312 81.424 -111.5325
11745.697266 81.224 -114.0541
11830.811523 80.989 -116.4345
11916.542969 80.728 -118.6397
12002.894531 80.445 -120.6762
12089.873047 80.143 -122.5269
12177.480469 79.833 -124.2287
12265.723633 79.527 -125.8057
12354.606445 79.219 -127.2803
12444.132812 78.904 -128.6848
12534.308594 78.584 -130.0140
12625.136719 78.259 -131.2682
12716.624023 77.930 -132.4618
12808.773438 77.599 -133.6157
12901.591797 77.257 -134.7120
12995.082031 76.890 -135.7428
13089.250000 76.508 -136.6984
13184.099609 76.116 -137.5606
13279.636719 75.713 -138.3461
13375.867188 75.301 -139.0706
13472.793945 74.873 -139.7195
13570.422852 74.425 -140.3018
13668.759766 73.951 -140.7627
13767.809570 73.449 -141.0893
13867.577148 72.908 -141.1635
13968.067383 72.311 -140.8909
14069.285156 71.674 -140.1844
14171.237305 71.007 -138.9462
14273.927734 70.310 -137.1134
14377.362305 69.575 -134.6045
14481.546875 68.837 -131.3796
14586.486328 68.106 -127.3363
14692.185547 67.444 -122.5816
14798.651367 66.905 -117.1173
14905.888672 66.527 -111.1607
15013.902344 66.359 -104.8459
15122.700195 66.410 -98.4283
15232.285156 66.724 -92.1339
15342.664062 67.245 -86.1886
15453.843750 67.951 -80.8425
15565.829102 68.782 -76.2505
15678.625000 69.688 -72.6441
15792.239258 70.619 -70.0393
15906.675781 71.513 -68.5709
16021.942383 72.363 -68.1119
16138.043945 73.138 -68.6324
16254.986328 73.838 -69.9701
16372.777344 74.450 -72.0025
16491.421875 74.978 -74.5795
16610.923828 75.419 -77.5407
16731.294922 75.780 -80.7925
16852.535156 76.068 -84.2000
16974.656250 76.287 -87.7264
17097.662109 76.441 -91.2997
17221.558594 76.532 -94.8912
17346.353516 76.562 -98.4608
17472.052734 76.532 -101.9709
17598.662109 76.443 -105.3909
17726.189453 76.294 -108.6605
17854.640625 76.084 -111.7320
17984.021484 75.819 -114.5373
18114.341797 75.498 -117.0078
18245.605469 75.133 -119.0973
18377.820312 74.728 -120.7265
18510.994141 74.306 -121.9263
18645.132812 73.888 -122.6749
18780.242188 73.483 -123.0529
18916.332031 73.107 -123.1057
19053.408203 72.771 -122.9186
19191.476562 72.490 -122.5611
19330.546875 72.262 -122.1254
19470.623047 72.096 -121.7153
19611.714844 71.972 -121.3667
19753.830078 71.875 -121.1574
19896.974609 71.796 -121.0652
