* Measurement data measured by REW V5.20.13
* Source: C:\Users\kurin\Desktop\Targets and Curves\Resolve\Img\Files\HD800s_SPL.txt
* Format: Comma/Tab/Space delimited data
* Dated: Aug 14, 2023 4:51:41 PM
* REW Settings:
*  C-weighting compensation: Off
*  Target level: 75.0 dB
* Note: ; Measurement imported from C:\Users\kurin\Desktop\Targets and Curves\Resolve\Img\Files\HD800s_SPL.txt Format: Comma/Tab/Space delimited data 623 values loaded, 5 Hz to 39,792 Hz log spaced 
* Measurement: HD800s_SPL
* Smoothing: 1/48 octave
* Frequency Step: 1/96 octave
* Start Frequency: 5.000 Hz
*
* Freq(Hz) SPL(dB) Phase(degrees)
5.000000 79.725 65.0310
5.036232 79.747 65.0146
5.072727 79.770 64.9970
5.109486 79.797 64.9764
5.146511 79.829 64.9530
5.183805 79.867 64.9254
5.221369 79.908 64.8960
5.259205 79.950 64.8669
5.297316 79.994 64.8370
5.335702 80.042 64.8053
5.374367 80.091 64.7730
5.413311 80.139 64.7409
5.452538 80.187 64.7090
5.492050 80.235 64.6776
5.531847 80.283 64.6460
5.571934 80.331 64.6136
5.612310 80.379 64.5810
5.652979 80.427 64.5486
5.693943 80.475 64.5160
5.735204 80.523 64.4826
5.776763 80.571 64.4490
5.818624 80.619 64.4156
5.860788 80.667 64.3820
5.903258 80.715 64.3481
5.946035 80.763 64.3140
5.989123 80.811 64.2801
6.032523 80.859 64.2460
6.076237 80.907 64.2112
6.120268 80.955 64.1760
6.164618 81.003 64.1406
6.209289 81.051 64.1050
6.254284 81.099 64.0691
6.299605 81.147 64.0330
6.345255 81.195 63.9971
6.391235 81.244 63.9610
6.437549 81.292 63.9242
6.484198 81.340 63.8870
6.531185 81.388 63.8496
6.578513 81.436 63.8120
6.626183 81.484 63.7741
6.674199 81.532 63.7360
6.722563 81.580 63.6976
6.771278 81.628 63.6590
6.820345 81.676 63.6201
6.869768 81.724 63.5810
6.919549 81.772 63.5416
6.969691 81.820 63.5020
7.020196 81.868 63.4621
7.071068 81.916 63.4220
7.122308 81.964 63.3817
7.173919 82.012 63.3410
7.225904 82.060 63.2997
7.278266 82.108 63.2580
7.331007 82.156 63.2161
7.384131 82.204 63.1740
7.437639 82.252 63.1316
7.491535 82.300 63.0890
7.545822 82.348 63.0461
7.600502 82.397 63.0030
7.655579 82.445 62.9597
7.711054 82.493 62.9160
7.766932 82.541 62.8717
7.823214 82.589 62.8270
7.879904 82.637 62.7822
7.937005 82.685 62.7370
7.994520 82.733 62.6912
8.052452 82.781 62.6450
8.110803 82.829 62.5986
8.169578 82.877 62.5520
8.228777 82.925 62.5052
8.288406 82.973 62.4580
8.348468 83.021 62.4102
8.408964 83.069 62.3620
8.469899 83.117 62.3136
8.531276 83.165 62.2650
8.593097 83.213 62.2162
8.655366 83.261 62.1670
8.718086 83.309 62.1172
8.781260 83.357 62.0670
8.844893 83.405 62.0167
8.908987 83.453 61.9660
8.973545 83.501 61.9148
9.038571 83.550 61.8630
9.104069 83.598 61.8107
9.170040 83.646 61.7580
9.236490 83.694 61.7052
9.303422 83.742 61.6520
9.370838 83.790 61.5982
9.438744 83.838 61.5440
9.507140 83.886 61.4897
9.576033 83.934 61.4350
9.645425 83.982 61.3798
9.715320 84.030 61.3240
9.785721 84.078 61.2678
9.856632 84.126 61.2110
9.928058 84.174 61.1537
10.000000 84.222 61.0960
10.072464 84.270 61.0382
10.145453 84.318 60.9801
10.218971 84.366 60.9213
10.293022 84.414 60.8620
10.367610 84.462 60.8023
10.442738 84.510 60.7420
10.518411 84.558 60.6812
10.594631 84.606 60.6200
10.671404 84.655 60.5588
10.748734 84.703 60.4970
10.826623 84.751 60.4343
10.905077 84.799 60.3711
10.984100 84.847 60.3078
11.063695 84.895 60.2440
11.143867 84.943 60.1793
11.224621 84.991 60.1140
11.305959 85.039 60.0482
11.387886 85.087 59.9820
11.470407 85.135 59.9158
11.553527 85.183 59.8490
11.637249 85.231 59.7813
11.721577 85.279 59.7131
11.806517 85.327 59.6443
11.892071 85.375 59.5751
11.978246 85.423 59.5054
12.065045 85.471 59.4350
12.152473 85.519 59.3638
12.240536 85.567 59.2920
12.329235 85.615 59.2203
12.418578 85.663 59.1481
12.508568 85.711 59.0749
12.599211 85.760 59.0010
12.690510 85.808 58.9264
12.782471 85.856 58.8511
12.875097 85.904 58.7753
12.968395 85.952 58.6991
13.062370 86.000 58.6224
13.157025 86.048 58.5450
13.252366 86.096 58.4669
13.348398 86.144 58.3881
13.445127 86.192 58.3089
13.542556 86.240 58.2291
13.640691 86.288 58.1484
13.739536 86.336 58.0670
13.839099 86.384 57.9854
13.939383 86.432 57.9031
14.040393 86.480 57.8194
14.142136 86.528 57.7350
14.244616 86.576 57.6503
14.347837 86.624 57.5650
14.451808 86.672 57.4789
14.556532 86.720 57.3920
14.662014 86.768 57.3044
14.768262 86.816 57.2161
14.875278 86.864 57.1270
14.983070 86.913 57.0371
15.091644 86.961 56.9465
15.201005 87.009 56.8551
15.311157 87.057 56.7630
15.422109 87.105 56.6701
15.533863 87.153 56.5759
15.646428 87.201 56.4811
15.759809 87.249 56.3859
15.874010 87.297 56.2901
15.989040 87.345 56.1930
16.104904 87.393 56.0951
16.221605 87.441 55.9965
16.339155 87.489 55.8971
16.457554 87.537 55.7970
16.576813 87.585 55.6961
16.696936 87.633 55.5940
16.817928 87.681 55.4911
16.939798 87.729 55.3875
17.062551 87.777 55.2831
17.186193 87.825 55.1780
17.310732 87.873 55.0721
17.436172 87.921 54.9650
17.562521 87.969 54.8571
17.689787 88.017 54.7484
17.817974 88.066 54.6391
17.947090 88.114 54.5295
18.077143 88.162 54.4191
18.208138 88.210 54.3075
18.340080 88.258 54.1951
18.472980 88.306 54.0823
18.606844 88.354 53.9691
18.741676 88.402 53.8556
18.877487 88.450 53.7421
19.014280 88.498 53.6290
19.152065 88.546 53.5161
19.290850 88.594 53.4034
19.430639 88.643 53.2911
19.571442 88.692 53.1797
19.713264 88.741 53.0681
19.856115 88.792 52.9559
20.000000 88.843 52.8421
20.144928 88.894 52.7251
20.290907 88.946 52.6061
20.437943 88.998 52.4869
20.586044 89.050 52.3651
20.735220 89.104 52.2396
20.885475 89.160 52.1082
21.036821 89.216 51.9683
21.189262 89.273 51.8202
21.342808 89.330 51.6639
21.497467 89.388 51.4972
21.653246 89.446 51.3182
21.810154 89.504 51.1263
21.968201 89.561 50.9197
22.127390 89.618 50.7003
22.287735 89.673 50.4680
22.449242 89.726 50.2262
22.611917 89.776 49.9769
22.775772 89.824 49.7233
22.940815 89.870 49.4690
23.107054 89.914 49.2153
23.274498 89.956 48.9644
23.443153 89.996 48.7183
23.613033 90.034 48.4803
23.784142 90.071 48.2502
23.956491 90.108 48.0297
24.130091 90.145 47.8172
24.304947 90.182 47.6125
24.481071 90.220 47.4133
24.658470 90.259 47.2185
24.837156 90.300 47.0243
25.017136 90.341 46.8267
25.198421 90.383 46.6252
25.381020 90.425 46.4181
25.564941 90.468 46.2052
25.750195 90.511 45.9858
25.936790 90.553 45.7603
26.124741 90.594 45.5280
26.314051 90.635 45.2913
26.504732 90.674 45.0519
26.696796 90.712 44.8113
26.890253 90.749 44.5715
27.085112 90.786 44.3323
27.281382 90.822 44.0941
27.479073 90.858 43.8563
27.678198 90.894 43.6188
27.878765 90.930 43.3803
28.080786 90.966 43.1400
28.284271 91.001 42.8973
28.489231 91.036 42.6512
28.695675 91.070 42.4023
28.903616 91.103 42.1504
29.113064 91.136 41.8974
29.324028 91.167 41.6445
29.536524 91.197 41.3933
29.750557 91.226 41.1463
29.966141 91.255 40.9023
30.183289 91.284 40.6613
30.402010 91.313 40.4223
30.622314 91.342 40.1847
30.844217 91.372 39.9463
31.067726 91.402 39.7055
31.292856 91.433 39.4594
31.519617 91.464 39.2041
31.748020 91.494 38.9413
31.978081 91.522 38.6698
32.209808 91.548 38.3944
32.443211 91.572 38.1181
32.678310 91.593 37.8444
32.915108 91.612 37.5769
33.153625 91.629 37.3183
33.393871 91.644 37.0727
33.635857 91.659 36.8393
33.879597 91.674 36.6196
34.125103 91.690 36.4113
34.372387 91.706 36.2138
34.621464 91.724 36.0243
34.872345 91.743 35.8407
35.125042 91.763 35.6592
35.379574 91.785 35.4750
35.635948 91.809 35.2892
35.894180 91.832 35.1008
36.154285 91.856 34.9113
36.416275 91.880 34.7226
36.680161 91.904 34.5323
36.945961 91.930 34.3390
37.213688 91.958 34.1413
37.483353 91.986 33.9376
37.754974 92.014 33.7263
38.028561 92.044 33.5065
38.304131 92.074 33.2743
38.581699 92.105 33.0254
38.861279 92.136 32.7604
39.142883 92.165 32.4773
39.426529 92.191 32.1804
39.712231 92.214 31.8717
40.000000 92.234 31.5565
40.289856 92.250 31.2391
40.581814 92.263 30.9245
40.875885 92.272 30.6179
41.172089 92.278 30.3224
41.470440 92.282 30.0430
41.770950 92.285 29.7794
42.073643 92.287 29.5343
42.378525 92.290 29.3043
42.685616 92.294 29.0886
42.994934 92.300 28.8823
43.306492 92.307 28.6819
43.620308 92.316 28.4833
43.936401 92.327 28.2824
44.254780 92.339 28.0763
44.575470 92.352 27.8605
44.898483 92.366 27.6354
45.223835 92.379 27.3992
45.551544 92.391 27.1544
45.881630 92.401 26.9016
46.214108 92.410 26.6434
46.548996 92.417 26.3815
46.886307 92.422 26.1184
47.226067 92.425 25.8575
47.568283 92.427 25.5984
47.912983 92.428 25.3428
48.260181 92.428 25.0884
48.609894 92.427 24.8336
48.962143 92.425 24.5784
49.316940 92.422 24.3218
49.674313 92.417 24.0654
50.034271 92.410 23.8093
50.396843 92.400 23.5564
50.762039 92.387 23.3079
51.129883 92.372 23.0684
51.500389 92.354 22.8423
51.873581 92.333 22.6313
52.249481 92.311 22.4392
52.628101 92.288 22.2653
53.009464 92.264 22.1106
53.393593 92.240 21.9742
53.780506 92.216 21.8561
54.170223 92.193 21.7542
54.562763 92.172 21.6677
54.958145 92.152 21.5921
55.356396 92.134 21.5226
55.757530 92.116 21.4591
56.161572 92.098 21.3998
56.568542 92.080 21.3451
56.978462 92.063 21.2951
57.391350 92.047 21.2491
57.807232 92.030 21.2051
58.226128 92.013 21.1661
58.648056 91.994 21.1335
59.073048 91.974 21.1100
59.501114 91.953 21.0986
59.932281 91.932 21.0990
60.366577 91.910 21.1106
60.804020 91.887 21.1379
61.244629 91.862 21.1852
61.688435 91.837 21.2529
62.135452 91.814 21.3430
62.585712 91.791 21.4548
63.039234 91.768 21.5868
63.496040 91.746 21.7427
63.956161 91.725 21.9268
64.419617 91.707 22.1366
64.886421 91.693 22.3714
65.356621 91.682 22.6295
65.830215 91.674 22.9098
66.307251 91.671 23.2104
66.787743 91.674 23.5314
67.271713 91.683 23.8654
67.759193 91.700 24.2073
68.250206 91.724 24.5504
68.744774 91.755 24.8881
69.242928 91.793 25.2144
69.744690 91.838 25.5233
70.250084 91.890 25.8075
70.759148 91.948 26.0579
71.271896 92.011 26.2736
71.788361 92.076 26.4507
72.308571 92.144 26.5898
72.832550 92.213 26.6896
73.360321 92.283 26.7519
73.891922 92.352 26.7764
74.427376 92.421 26.7680
74.966705 92.487 26.7309
75.509949 92.551 26.6671
76.057121 92.614 26.5797
76.608261 92.675 26.4702
77.163399 92.734 26.3400
77.722557 92.790 26.1923
78.285767 92.844 26.0306
78.853058 92.895 25.8554
79.424461 92.944 25.6678
80.000000 92.991 25.4694
80.579712 93.035 25.2612
81.163628 93.077 25.0464
81.751770 93.116 24.8292
82.344177 93.153 24.6085
82.940880 93.189 24.3846
83.541901 93.223 24.1575
84.147285 93.255 23.9265
84.757050 93.286 23.6924
85.371231 93.315 23.4558
85.989868 93.342 23.2175
86.612984 93.367 22.9785
87.240616 93.390 22.7395
87.872803 93.411 22.5005
88.509560 93.430 22.2645
89.150940 93.447 22.0331
89.796967 93.461 21.8095
90.447670 93.473 21.5979
91.103088 93.484 21.3964
91.763260 93.496 21.2050
92.428215 93.509 21.0214
93.097992 93.521 20.8435
93.772614 93.533 20.6713
94.452133 93.546 20.5053
95.136566 93.559 20.3413
95.825966 93.573 20.1754
96.520363 93.588 20.0084
97.219788 93.602 19.8394
97.924286 93.615 19.6694
98.633881 93.629 19.4992
99.348625 93.642 19.3274
100.068542 93.655 19.1517
100.793686 93.667 18.9754
101.524078 93.677 18.8012
102.259766 93.686 18.6294
103.000778 93.695 18.4622
103.747162 93.705 18.2973
104.498962 93.715 18.1332
105.256203 93.724 17.9693
106.018929 93.733 17.8038
106.787186 93.742 17.6383
107.561012 93.750 17.4741
108.340446 93.757 17.3103
109.125526 93.764 17.1460
109.916290 93.770 16.9823
110.712791 93.776 16.8187
111.515060 93.780 16.6583
112.323143 93.782 16.5039
113.137085 93.784 16.3563
113.956924 93.786 16.2179
114.782700 93.788 16.0873
115.614464 93.791 15.9647
116.452255 93.794 15.8472
117.296112 93.798 15.7330
118.146095 93.804 15.6192
119.002228 93.811 15.5027
119.864563 93.818 15.3833
120.733154 93.825 15.2597
121.608040 93.831 15.1333
122.489258 93.838 15.0045
123.376869 93.844 14.8743
124.270905 93.849 14.7427
125.171425 93.854 14.6122
126.078468 93.857 14.4860
126.992081 93.861 14.3623
127.912323 93.866 14.2418
128.839233 93.872 14.1203
129.772842 93.879 13.9938
130.713242 93.886 13.8623
131.660431 93.892 13.7241
132.614502 93.898 13.5794
133.575485 93.903 13.4269
134.543427 93.907 13.2693
135.518387 93.908 13.1072
136.500412 93.907 12.9463
137.489548 93.903 12.7921
138.485855 93.897 12.6454
139.489380 93.891 12.5091
140.500168 93.884 12.3823
141.518295 93.876 12.2645
142.543793 93.867 12.1573
143.576721 93.858 12.0626
144.617142 93.848 11.9792
145.665100 93.839 11.9065
146.720642 93.831 11.8442
147.783844 93.823 11.7917
148.854752 93.815 11.7491
149.933411 93.808 11.7164
151.019897 93.803 11.6930
152.114243 93.799 11.6798
153.216522 93.797 11.6720
154.326797 93.799 11.6667
155.445114 93.803 11.6600
156.571533 93.808 11.6467
157.706116 93.815 11.6280
158.848923 93.822 11.6037
160.000000 93.830 11.5741
161.159424 93.839 11.5396
162.327255 93.848 11.5001
163.503540 93.857 11.4551
164.688354 93.867 11.4051
165.881760 93.876 11.3499
167.083801 93.886 11.2912
168.294571 93.895 11.2310
169.514099 93.905 11.1672
170.742462 93.917 11.0989
171.979736 93.929 11.0232
173.225967 93.941 10.9357
174.481232 93.952 10.8402
175.745605 93.961 10.7387
177.019119 93.970 10.6323
178.301880 93.978 10.5223
179.593933 93.985 10.4093
180.895340 93.990 10.2933
182.206177 93.994 10.1773
183.526520 93.996 10.0642
184.856430 93.998 9.9542
186.195984 93.999 9.8487
187.545227 94.000 9.7472
188.904266 94.000 9.6503
190.273132 94.000 9.5572
191.651932 94.000 9.4677
193.040726 94.000 9.3812
194.439575 94.000 9.2972
195.848572 94.000 9.2152
197.267761 94.000 9.1349
198.697250 94.000 9.0562
200.137085 94.000 8.9790
201.587372 94.000 8.9032
203.048157 94.000 8.8286
204.519531 94.000 8.7552
206.001556 94.000 8.6831
207.494324 94.000 8.6122
208.997925 94.000 8.5427
210.512405 94.000 8.4742
212.037857 94.000 8.4063
213.574371 94.000 8.3392
215.122025 94.000 8.2727
216.680893 94.000 8.2072
218.251053 94.000 8.1428
219.832581 94.000 8.0792
221.425583 94.000 8.0158
223.030121 94.000 7.9532
224.646286 94.000 7.8918
226.274170 94.000 7.8312
227.913849 94.000 7.7709
229.565399 94.000 7.7111
231.228928 94.000 7.6519
232.904510 94.000 7.5932
234.592224 94.000 7.5354
236.292191 94.000 7.4782
238.004456 94.000 7.4213
239.729126 94.000 7.3652
241.466309 94.000 7.3099
243.216080 94.000 7.2551
244.978516 94.000 7.2005
246.753738 94.000 7.1462
248.541809 94.000 7.0924
250.342850 94.000 7.0392
252.156937 94.000 6.9865
253.984161 94.000 6.9341
255.824646 94.000 6.8819
257.678467 94.000 6.8301
259.545685 94.000 6.7789
261.426483 94.000 6.7281
263.320862 94.000 6.6774
265.229004 94.000 6.6271
267.150970 94.000 6.5775
269.086853 94.000 6.5281
271.036774 94.000 6.4791
273.000824 94.000 6.4301
274.979095 94.000 6.3811
276.971710 94.000 6.3321
278.978760 94.000 6.2835
281.000336 94.000 6.2351
283.036591 94.000 6.1871
285.087585 94.000 6.1391
287.153442 94.000 6.0907
289.234283 94.000 6.0421
291.330200 94.000 5.9938
293.441284 94.000 5.9451
295.567688 94.000 5.8959
297.709503 94.000 5.8461
299.866821 94.000 5.7958
302.039795 94.000 5.7442
304.228485 94.000 5.6901
306.433044 94.000 5.6342
308.653595 93.999 5.5766
310.890228 93.998 5.5172
313.143066 93.996 5.4549
315.412231 93.994 5.3922
317.697845 93.990 5.3302
320.000000 93.985 5.2722
322.318848 93.978 5.2216
324.654510 93.971 5.1781
327.007080 93.965 5.1424
329.376709 93.958 5.1141
331.763519 93.951 5.0936
334.167603 93.944 5.0800
336.589142 93.938 5.0736
339.028198 93.934 5.0710
341.484924 93.931 5.0691
343.959473 93.930 5.0670
346.451935 93.929 5.0625
348.962463 93.929 5.0560
351.491211 93.929 5.0475
354.038239 93.929 5.0370
356.603760 93.929 5.0242
359.187866 93.929 5.0100
361.790680 93.929 4.9954
364.412354 93.929 4.9800
367.053040 93.929 4.9642
369.712860 93.929 4.9481
372.391968 93.929 4.9316
375.090454 93.929 4.9150
377.808533 93.929 4.8985
380.546265 93.929 4.8820
383.303864 93.929 4.8655
386.081451 93.929 4.8490
388.879150 93.929 4.8325
391.697144 93.929 4.8160
394.535522 93.929 4.7999
397.394501 93.929 4.7840
400.274170 93.929 4.7684
403.174744 93.929 4.7530
406.096313 93.929 4.7379
409.039062 93.929 4.7230
412.003113 93.929 4.7085
414.988647 93.929 4.6940
417.995850 93.929 4.6794
421.024811 93.929 4.6650
424.075714 93.929 4.6519
427.148743 93.929 4.6390
430.244049 93.929 4.6259
433.361786 93.929 4.6130
436.502106 93.929 4.6008
439.665161 93.929 4.5890
442.851166 93.929 4.5778
446.060242 93.929 4.5670
449.292572 93.929 4.5563
452.548340 93.929 4.5460
455.827698 93.929 4.5368
459.130798 93.929 4.5280
462.457855 93.929 4.5193
465.809021 93.929 4.5110
469.184448 93.929 4.5037
472.584381 93.929 4.4970
476.008911 93.929 4.4907
479.458252 93.929 4.4850
482.932617 93.929 4.4801
486.432159 93.929 4.4760
489.957031 93.929 4.4726
493.507477 93.929 4.4700
497.083618 93.929 4.4680
500.685699 93.929 4.4670
504.313873 93.929 4.4674
507.968323 93.929 4.4690
511.649292 93.929 4.4714
515.356934 93.929 4.4750
519.091370 93.929 4.4801
522.852966 93.929 4.4870
526.641724 93.929 4.4957
530.458008 93.929 4.5070
534.301941 93.929 4.5218
538.173706 93.929 4.5399
542.073547 93.929 4.5612
546.001648 93.930 4.5859
549.958191 93.931 4.6149
553.943420 93.934 4.6459
557.957520 93.938 4.6777
562.000671 93.944 4.7079
566.073181 93.951 4.7334
570.175171 93.958 4.7549
574.306885 93.964 4.7718
578.468567 93.971 4.7850
582.660400 93.978 4.7948
586.882568 93.986 4.8020
591.135376 93.993 4.8064
595.419006 94.000 4.8100
599.733643 94.007 4.8150
604.079590 94.014 4.8200
608.456970 94.022 4.8241
612.866089 94.030 4.8270
617.307190 94.038 4.8282
621.780457 94.046 4.8270
626.286133 94.056 4.8236
630.824463 94.067 4.8150
635.395691 94.078 4.7972
640.000000 94.088 4.7731
644.637695 94.097 4.7437
649.309021 94.106 4.7111
654.014160 94.114 4.6776
658.753418 94.121 4.6431
663.527039 94.128 4.6077
668.335205 94.134 4.5731
673.178284 94.140 4.5414
678.056396 94.145 4.5121
682.969849 94.151 4.4862
687.918945 94.157 4.4611
692.903870 94.164 4.4342
697.924927 94.172 4.4061
702.982422 94.179 4.3765
708.076477 94.186 4.3451
713.207520 94.194 4.3119
718.375732 94.202 4.2761
723.581360 94.210 4.2368
728.824707 94.218 4.1952
734.106079 94.226 4.1520
739.425720 94.233 4.1072
744.783936 94.240 4.0606
750.180908 94.248 4.0122
755.617065 94.255 3.9619
761.092529 94.263 3.9092
766.607727 94.271 3.8540
772.162903 94.279 3.7952
777.758301 94.288 3.7318
783.394287 94.297 3.6632
789.071045 94.306 3.5886
794.789001 94.314 3.5083
800.548340 94.321 3.4223
806.349487 94.328 3.3303
812.192627 94.335 3.2322
818.078125 94.342 3.1274
824.006226 94.348 3.0145
829.977295 94.352 2.8964
835.991699 94.354 2.7751
842.049622 94.354 2.6515
848.151428 94.354 2.5268
854.297485 94.352 2.4025
860.488098 94.348 2.2794
866.723572 94.342 2.1594
873.004211 94.335 2.0448
879.330322 94.328 1.9344
885.702332 94.321 1.8278
892.120483 94.313 1.7244
898.585144 94.304 1.6231
905.096680 94.295 1.5244
911.655396 94.286 1.4285
918.261597 94.276 1.3343
924.915710 94.267 1.2419
931.618042 94.257 1.1483
938.368896 94.248 1.0506
945.168762 94.238 0.9494
952.017822 94.226 0.8440
958.916504 94.212 0.7364
965.865234 94.198 0.6292
972.864319 94.183 0.5204
979.914062 94.166 0.4077
987.014954 94.147 0.2954
994.167236 94.124 0.1860
1001.371399 94.099 0.0833
1008.627747 94.072 -0.0074
1015.936646 94.043 -0.0867
1023.298584 94.013 -0.1538
1030.713867 93.981 -0.2078
1038.182739 93.948 -0.2479
1045.705933 93.913 -0.2739
1053.283447 93.879 -0.2848
1060.916016 93.844 -0.2820
1068.603882 93.809 -0.2670
1076.347412 93.774 -0.2391
1084.147095 93.739 -0.1984
1092.003296 93.704 -0.1442
1099.916382 93.669 -0.0757
1107.886841 93.634 0.0056
1115.915039 93.600 0.0997
1124.001343 93.567 0.2036
1132.146362 93.536 0.3161
1140.350342 93.507 0.4326
1148.613770 93.479 0.5480
1156.937134 93.452 0.6615
1165.320801 93.425 0.7697
1173.765137 93.397 0.8745
1182.270752 93.368 0.9761
1190.838013 93.336 1.0776
1199.467285 93.301 1.1786
1208.159180 93.262 1.2895
1216.913940 93.218 1.4182
1225.732178 93.169 1.5724
1234.614380 93.118 1.7608
1243.560913 93.063 1.9881
1252.572266 93.006 2.2613
1261.648926 92.949 2.5816
1270.791382 92.894 2.9534
1280.000000 92.841 3.3733
1289.275391 92.792 3.8415
1298.618042 92.749 4.3508
1308.028320 92.714 4.8980
1317.506836 92.686 5.4715
1327.054077 92.667 6.0603
1336.670410 92.656 6.6587
1346.356567 92.652 7.2590
1356.112793 92.655 7.8558
1365.939697 92.665 8.4417
1375.837891 92.680 9.0146
1385.807739 92.699 9.5689
1395.849854 92.722 10.1089
1405.964844 92.745 10.6362
1416.152954 92.770 11.1541
1426.415039 92.796 11.6653
1436.751465 92.824 12.1731
1447.162720 92.853 12.6805
1457.649414 92.883 13.1909
1468.212158 92.915 13.7093
1478.851440 92.950 14.2340
1489.567871 92.988 14.7657
1500.361816 93.030 15.3019
1511.234131 93.076 15.8409
1522.185059 93.126 16.3816
1533.215454 93.180 16.9234
1544.325806 93.239 17.4636
1555.516602 93.302 17.9993
1566.788574 93.371 18.5308
1578.142090 93.443 19.0587
1589.578003 93.521 19.5788
1601.096680 93.606 20.0894
1612.698975 93.698 20.5840
1624.385254 93.795 21.0569
1636.156250 93.898 21.5041
1648.012451 94.007 21.9216
1659.954590 94.122 22.3037
1671.983398 94.241 22.6446
1684.099243 94.364 22.9409
1696.302856 94.491 23.1867
1708.594971 94.618 23.3832
1720.976196 94.747 23.5286
1733.447144 94.874 23.6257
1746.008423 95.001 23.6754
1758.660645 95.124 23.6821
1771.404663 95.245 23.6488
1784.240967 95.363 23.5794
1797.170288 95.476 23.4760
1810.193359 95.586 23.3456
1823.310791 95.689 23.1941
1836.523193 95.789 23.0267
1849.831421 95.885 22.8502
1863.236084 95.978 22.6648
1876.737793 96.067 22.4724
1890.337524 96.154 22.2749
1904.035645 96.237 22.0740
1917.833008 96.318 21.8718
1931.730469 96.396 21.6706
1945.728638 96.472 21.4709
1959.828125 96.545 21.2729
1974.029907 96.616 21.0798
1988.334473 96.685 20.8943
2002.742798 96.753 20.7177
2017.255493 96.819 20.5516
2031.873291 96.885 20.3976
2046.597168 96.950 20.2579
2061.427734 97.015 20.1325
2076.365479 97.081 20.0229
2091.411865 97.150 19.9274
2106.566895 97.220 19.8461
2121.832031 97.293 19.7753
2137.207764 97.370 19.7134
2152.694824 97.452 19.6542
2168.294189 97.539 19.5937
2184.006592 97.632 19.5234
2199.832764 97.731 19.4364
2215.773682 97.835 19.3245
2231.830078 97.943 19.1774
2248.002686 98.054 18.9938
2264.292725 98.164 18.7667
2280.700684 98.274 18.5032
2297.227539 98.380 18.2050
2313.874268 98.485 17.8814
2330.641602 98.585 17.5392
2347.530273 98.682 17.1875
2364.541504 98.774 16.8373
2381.676025 98.867 16.4896
2398.934570 98.961 16.1516
2416.318359 99.058 15.8155
2433.827881 99.158 15.4788
2451.464355 99.263 15.1315
2469.228760 99.373 14.7667
2487.121826 99.489 14.3718
2505.144531 99.611 13.9342
2523.297852 99.736 13.4464
2541.582764 99.862 12.8954
2560.000000 99.987 12.2848
2578.550781 100.109 11.6131
2597.236084 100.226 10.8835
2616.056641 100.339 10.0961
2635.013672 100.445 9.2586
2654.108154 100.540 8.3746
2673.340820 100.627 7.4571
2692.713135 100.703 6.5178
2712.225586 100.769 5.5645
2731.879395 100.825 4.6057
2751.675781 100.872 3.6504
2771.615479 100.908 2.7075
2791.699707 100.936 1.7850
2811.929688 100.956 0.8923
2832.305908 100.969 0.0339
2852.830078 100.976 -0.7833
2873.502930 100.979 -1.5557
2894.325439 100.978 -2.2758
2915.298828 100.977 -2.9490
2936.424316 100.979 -3.5747
2957.702881 100.984 -4.1635
2979.135742 100.993 -4.7227
3000.723633 101.006 -5.2627
3022.468262 101.026 -5.7925
3044.370117 101.051 -6.3235
3066.430908 101.081 -6.8702
3088.651611 101.113 -7.4334
3111.033203 101.145 -8.0211
3133.577148 101.176 -8.6261
3156.284180 101.203 -9.2471
3179.156006 101.227 -9.8740
3202.193359 101.246 -10.5004
3225.397949 101.260 -11.1131
3248.770508 101.269 -11.6985
3272.312500 101.276 -12.2516
3296.024902 101.284 -12.7606
3319.909180 101.294 -13.2329
3343.966797 101.310 -13.6679
3368.198486 101.333 -14.0771
3392.605713 101.365 -14.4661
3417.189941 101.408 -14.8522
3441.952393 101.462 -15.2489
3466.894287 101.527 -15.6740
3492.016846 101.602 -16.1464
3517.321289 101.686 -16.6764
3542.809326 101.775 -17.2797
3568.481934 101.867 -17.9597
3594.340576 101.959 -18.7266
3620.386719 102.050 -19.5748
3646.621582 102.134 -20.5063
3673.046387 102.211 -21.5081
3699.662842 102.278 -22.5717
3726.472168 102.335 -23.6848
3753.475586 102.380 -24.8362
3780.675049 102.413 -26.0137
3808.071289 102.435 -27.2040
3835.666016 102.446 -28.3983
3863.460938 102.446 -29.5851
3891.457275 102.436 -30.7595
3919.656250 102.418 -31.9131
3948.059814 102.392 -33.0448
3976.668945 102.359 -34.1513
4005.485596 102.320 -35.2308
4034.510986 102.275 -36.2809
4063.746582 102.223 -37.3002
4093.194336 102.167 -38.2886
4122.855469 102.105 -39.2404
4152.730957 102.037 -40.1519
4182.823730 101.964 -41.0180
4213.133789 101.887 -41.8339
4243.664062 101.807 -42.5955
4274.415527 101.724 -43.2981
4305.389648 101.640 -43.9390
4336.588379 101.556 -44.5119
4368.013184 101.474 -45.0227
4399.665527 101.398 -45.4729
4431.547363 101.326 -45.8702
4463.660156 101.262 -46.2205
4496.005371 101.204 -46.5305
4528.585449 101.155 -46.8064
4561.401367 101.113 -47.0559
4594.455078 101.081 -47.2883
4627.748535 101.057 -47.5050
4661.283203 101.039 -47.7114
4695.060547 101.028 -47.9041
4729.083008 101.024 -48.0798
4763.352051 101.030 -48.2432
4797.869141 101.046 -48.3948
4832.636719 101.075 -48.5452
4867.655762 101.117 -48.7003
4902.928711 101.174 -48.8751
4938.457520 101.246 -49.0800
4974.243652 101.334 -49.3346
5010.289062 101.439 -49.6545
5046.595703 101.558 -50.0627
5083.165527 101.692 -50.5837
5120.000000 101.835 -51.2285
5157.101562 101.984 -52.0161
5194.472168 102.133 -52.9461
5232.113281 102.281 -54.0272
5270.027344 102.422 -55.2515
5308.216309 102.553 -56.6199
5346.681641 102.671 -58.1144
5385.426270 102.773 -59.7253
5424.451172 102.856 -61.4285
5463.758789 102.917 -63.2049
5503.351562 102.958 -65.0290
5543.230957 102.977 -66.8746
5583.399414 102.978 -68.7240
5623.859375 102.960 -70.5528
5664.611816 102.928 -72.3543
5705.660156 102.884 -74.1106
5747.005859 102.830 -75.8302
5788.650879 102.772 -77.5091
5830.597656 102.711 -79.1655
5872.848633 102.651 -80.8100
5915.405762 102.589 -82.4624
5958.271484 102.527 -84.1432
6001.447266 102.461 -85.8610
6044.936523 102.389 -87.6349
6088.740234 102.306 -89.4547
6132.861816 102.208 -91.3253
6177.303223 102.091 -93.2205
6222.066406 101.951 -95.1268
6267.154297 101.788 -97.0106
6312.568359 101.597 -98.8446
6358.312012 101.382 -100.5965
6404.386719 101.143 -102.2321
6450.795898 100.882 -103.7297
6497.541016 100.602 -105.0595
6544.625000 100.308 -106.2117
6592.049805 100.007 -107.1663
6639.818359 99.702 -107.9246
6687.933594 99.396 -108.4800
6736.396973 99.096 -108.8367
6785.211426 98.805 -108.9904
6834.379883 98.532 -108.9596
6883.904785 98.283 -108.7507
6933.788574 98.063 -108.3952
6984.033691 97.877 -107.9127
7034.642578 97.732 -107.3450
7085.618652 97.632 -106.7197
7136.963867 97.582 -106.0990
7188.681152 97.590 -105.5328
7240.773438 97.649 -105.0868
7293.243164 97.759 -104.8240
7346.092773 97.912 -104.8024
7399.325684 98.106 -105.0856
7452.944336 98.327 -105.7198
7506.951172 98.565 -106.7693
7561.350098 98.805 -108.2443
7616.142578 99.031 -110.1846
7671.332031 99.231 -112.5646
7726.921875 99.392 -115.3913
7782.914551 99.503 -118.6045
7839.312500 99.551 -122.1751
7896.119629 99.530 -126.0201
7953.337891 99.434 -130.0855
8010.971191 99.255 -134.2549
8069.021973 98.981 -138.4325
8127.493164 98.618 -142.5010
8186.388672 98.165 -146.3401
8245.710938 97.626 -149.8624
8305.461914 97.003 -152.9647
8365.647461 96.302 -155.5747
8426.267578 95.523 -157.5933
8487.328125 94.686 -158.9973
8548.831055 93.803 -159.7297
8610.779297 92.889 -159.7925
8673.176758 91.957 -159.1746
8736.026367 91.018 -157.8591
8799.331055 90.079 -155.8181
8863.094727 89.168 -153.0724
8927.320312 88.311 -149.6042
8992.010742 87.527 -145.5013
9057.170898 86.830 -140.7909
9122.802734 86.259 -135.6382
9188.910156 85.856 -130.1519
9255.497070 85.621 -124.5304
9322.566406 85.577 -118.9578
9390.121094 85.696 -113.5886
9458.166016 85.970 -108.6082
9526.704102 86.358 -104.1073
9595.738281 86.826 -100.2455
9665.273438 87.343 -96.9985
9735.311523 87.870 -94.4302
9805.857422 88.400 -92.4334
9876.915039 88.911 -90.9460
9948.487305 89.412 -89.8936
10020.578125 89.904 -89.1890
10093.191406 90.389 -88.8083
10166.331055 90.870 -88.6968
10240.000000 91.347 -88.8614
10314.203125 91.827 -89.2812
10388.944336 92.305 -89.9849
10464.226562 92.781 -90.9860
10540.054688 93.251 -92.3091
10616.432617 93.712 -93.9804
10693.363281 94.155 -96.0108
10770.852539 94.575 -98.4263
10848.902344 94.961 -101.2099
10927.517578 95.301 -104.3662
11006.703125 95.591 -107.8562
11086.461914 95.823 -111.6649
11166.798828 95.988 -115.7249
11247.718750 96.078 -120.0002
11329.223633 96.088 -124.3813
11411.320312 96.012 -128.7861
11494.011719 95.850 -133.0951
11577.301758 95.601 -137.1984
11661.195312 95.272 -140.9841
11745.697266 94.861 -144.3221
11830.811523 94.388 -147.1561
11916.542969 93.862 -149.3737
12002.894531 93.311 -151.0155
12089.873047 92.756 -152.0501
12177.480469 92.221 -152.5833
12265.723633 91.731 -152.6619
12354.606445 91.305 -152.4329
12444.132812 90.974 -152.0114
12534.308594 90.728 -151.5414
12625.136719 90.577 -151.1782
12716.624023 90.497 -151.0033
12808.773438 90.473 -151.1441
12901.591797 90.483 -151.6173
12995.082031 90.506 -152.4935
13089.250000 90.525 -153.7368
13184.099609 90.518 -155.3585
13279.636719 90.474 -157.2844
13375.867188 90.380 -159.4812
13472.793945 90.226 -161.8373
13570.422852 90.002 -164.2772
13668.759766 89.705 -166.6583
13767.809570 89.328 -168.8591
13867.577148 88.875 -170.7393
13968.067383 88.344 -172.1480
14069.285156 87.752 -172.9950
14171.237305 87.101 -173.1267
14273.927734 86.431 -172.5827
14377.362305 85.767 -171.2993
14481.546875 85.149 -169.4369
14586.486328 84.616 -167.0758
14692.185547 84.186 -164.3972
14798.651367 83.892 -161.5570
14905.888672 83.723 -158.7142
15013.902344 83.689 -156.0553
15122.700195 83.752 -153.6537
15232.285156 83.886 -151.6551
15342.664062 84.069 -150.0277
15453.843750 84.271 -148.8037
15565.829102 84.492 -147.9348
15678.625000 84.717 -147.3883
15792.239258 84.950 -147.1465
15906.675781 85.188 -147.1741
16021.942383 85.431 -147.4925
16138.043945 85.681 -148.1021
16254.986328 85.930 -149.0306
16372.777344 86.169 -150.3084
16491.421875 86.389 -151.9290
16610.923828 86.578 -153.9107
16731.294922 86.728 -156.2088
16852.535156 86.829 -158.8120
16974.656250 86.873 -161.6373
17097.662109 86.849 -164.6306
17221.558594 86.759 -167.6924
17346.353516 86.596 -170.7364
17472.052734 86.366 -173.6677
17598.662109 86.065 -176.3835
17726.189453 85.705 -178.8208
17854.640625 85.293 179.1147
17984.021484 84.844 177.4302
18114.341797 84.367 176.1765
18245.605469 83.879 175.3148
18377.820312 83.393 174.8495
18510.994141 82.927 174.7010
18645.132812 82.500 174.8188
18780.242188 82.115 175.1190
18916.332031 81.781 175.5169
19053.408203 81.491 175.9634
19191.476562 81.241 176.3864
19330.546875 81.023 176.7711
19470.623047 80.831 177.0749
19611.714844 80.655 177.3109
19753.830078 80.484 177.4714
19896.974609 80.318 177.5765
