* Measurement data measured by REW V5.20.13
* Source: C:\Users\kurin\Desktop\Targets and Curves\Resolve\Img\Files\raal sr1a_SPL.txt
* Format: Comma/Tab/Space delimited data
* Dated: Aug 15, 2023 12:19:27 AM
* REW Settings:
*  C-weighting compensation: Off
*  Target level: 75.0 dB
* Note: ; Measurement imported from C:\Users\kurin\Desktop\Targets and Curves\Resolve\Img\Files\raal sr1a_SPL.txt Format: Comma/Tab/Space delimited data 623 values loaded, 5 Hz to 39,792 Hz log spaced 
* Measurement: raal sr1a_SPL
* Smoothing: 1/48 octave
* Frequency Step: 1/96 octave
* Start Frequency: 5.000 Hz
*
* Freq(Hz) SPL(dB) Phase(degrees)
5.000000 63.072 60.7320
5.036232 63.091 60.7247
5.072727 63.112 60.7170
5.109486 63.137 60.7085
5.146511 63.165 60.6990
5.183805 63.199 60.6876
5.221369 63.236 60.6760
5.259205 63.274 60.6659
5.297316 63.314 60.6560
5.335702 63.356 60.6450
5.374367 63.400 60.6340
5.413311 63.443 60.6239
5.452538 63.486 60.6140
5.492050 63.529 60.6040
5.531847 63.573 60.5940
5.571934 63.616 60.5840
5.612310 63.659 60.5740
5.652979 63.702 60.5641
5.693943 63.745 60.5540
5.735204 63.788 60.5435
5.776763 63.831 60.5330
5.818624 63.874 60.5230
5.860788 63.918 60.5130
5.903258 63.961 60.5026
5.946035 64.004 60.4920
5.989123 64.047 60.4815
6.032523 64.090 60.4710
6.076237 64.133 60.4606
6.120268 64.176 60.4500
6.164618 64.219 60.4390
6.209289 64.263 60.4280
6.254284 64.306 60.4175
6.299605 64.349 60.4070
6.345255 64.392 60.3961
6.391235 64.435 60.3850
6.437549 64.478 60.3735
6.484198 64.521 60.3620
6.531185 64.564 60.3510
6.578513 64.608 60.3400
6.626183 64.651 60.3285
6.674199 64.694 60.3170
6.722563 64.737 60.3061
6.771278 64.780 60.2950
6.820345 64.823 60.2831
6.869768 64.866 60.2710
6.919549 64.909 60.2595
6.969691 64.953 60.2480
7.020196 64.996 60.2361
7.071068 65.039 60.2240
7.122308 65.082 60.2120
7.173919 65.125 60.2000
7.225904 65.168 60.1881
7.278266 65.212 60.1760
7.331007 65.255 60.1635
7.384131 65.298 60.1510
7.437639 65.341 60.1390
7.491535 65.384 60.1270
7.545822 65.427 60.1146
7.600502 65.470 60.1020
7.655579 65.513 60.0890
7.711054 65.557 60.0760
7.766932 65.600 60.0635
7.823214 65.643 60.0510
7.879904 65.686 60.0381
7.937005 65.729 60.0250
7.994520 65.772 60.0115
8.052452 65.815 59.9980
8.110803 65.858 59.9850
8.169578 65.902 59.9720
8.228777 65.945 59.9586
8.288406 65.988 59.9450
8.348468 66.031 59.9310
8.408964 66.074 59.9170
8.469899 66.117 59.9035
8.531276 66.160 59.8900
8.593097 66.203 59.8761
8.655366 66.247 59.8620
8.718086 66.290 59.8481
8.781260 66.333 59.8340
8.844893 66.376 59.8196
8.908987 66.419 59.8050
8.973545 66.462 59.7905
9.038571 66.505 59.7760
9.104069 66.548 59.7616
9.170040 66.592 59.7470
9.236490 66.635 59.7321
9.303422 66.678 59.7170
9.370838 66.721 59.7020
9.438744 66.764 59.6870
9.507140 66.807 59.6721
9.576033 66.851 59.6570
9.645425 66.894 59.6416
9.715320 66.937 59.6260
9.785721 66.980 59.6105
9.856632 67.023 59.5950
9.928058 67.066 59.5796
10.000000 67.109 59.5640
10.072464 67.152 59.5481
10.145453 67.196 59.5320
10.218971 67.239 59.5160
10.293022 67.282 59.5000
10.367610 67.325 59.4841
10.442738 67.368 59.4680
10.518411 67.411 59.4516
10.594631 67.454 59.4350
10.671404 67.497 59.4185
10.748734 67.541 59.4020
10.826623 67.584 59.3856
10.905077 67.627 59.3690
10.984100 67.670 59.3521
11.063695 67.713 59.3350
11.143867 67.756 59.3181
11.224621 67.799 59.3010
11.305959 67.842 59.2835
11.387886 67.886 59.2660
11.470407 67.929 59.2490
11.553527 67.972 59.2320
11.637249 68.015 59.2146
11.721577 68.058 59.1970
11.806517 68.101 59.1791
11.892071 68.144 59.1610
11.978246 68.187 59.1430
12.065045 68.231 59.1250
12.152473 68.274 59.1070
12.240536 68.317 59.0890
12.329235 68.360 59.0711
12.418578 68.403 59.0530
12.508568 68.446 59.0346
12.599211 68.490 59.0160
12.690510 68.533 58.9975
12.782471 68.576 58.9790
12.875097 68.619 58.9606
12.968395 68.662 58.9420
13.062370 68.705 58.9231
13.157025 68.748 58.9040
13.252366 68.791 58.8850
13.348398 68.835 58.8660
13.445127 68.878 58.8470
13.542556 68.921 58.8280
13.640691 68.964 58.8091
13.739536 69.007 58.7900
13.839099 69.050 58.7705
13.939383 69.093 58.7510
14.040393 69.136 58.7320
14.142136 69.180 58.7130
14.244616 69.223 58.6936
14.347837 69.266 58.6740
14.451808 69.309 58.6545
14.556532 69.352 58.6350
14.662014 69.395 58.6155
14.768262 69.438 58.5960
14.875278 69.481 58.5765
14.983070 69.525 58.5570
15.091644 69.568 58.5375
15.201005 69.611 58.5180
15.311157 69.654 58.4985
15.422109 69.697 58.4790
15.533863 69.740 58.4595
15.646428 69.784 58.4400
15.759809 69.827 58.4205
15.874010 69.870 58.4010
15.989040 69.913 58.3815
16.104904 69.956 58.3620
16.221605 69.999 58.3430
16.339155 70.042 58.3240
16.457554 70.085 58.3050
16.576813 70.129 58.2860
16.696936 70.172 58.2674
16.817928 70.215 58.2490
16.939798 70.258 58.2309
17.062551 70.301 58.2130
17.186193 70.344 58.1954
17.310732 70.387 58.1780
17.436172 70.430 58.1608
17.562521 70.474 58.1440
17.689787 70.517 58.1278
17.817974 70.560 58.1120
17.947090 70.603 58.0968
18.077143 70.646 58.0820
18.208138 70.689 58.0676
18.340080 70.732 58.0540
18.472980 70.775 58.0414
18.606844 70.819 58.0300
18.741676 70.862 58.0198
18.877487 70.905 58.0110
19.014280 70.948 58.0039
19.152065 70.991 57.9990
19.290850 71.034 57.9964
19.430639 71.077 57.9980
19.571442 71.120 58.0054
19.713264 71.164 58.0190
19.856115 71.208 58.0405
20.000000 71.254 58.0680
20.144928 71.303 58.1023
20.290907 71.355 58.1360
20.437943 71.411 58.1662
20.586044 71.472 58.1790
20.735220 71.539 58.1605
20.885475 71.607 58.1081
21.036821 71.673 58.0117
21.189262 71.736 57.8792
21.342808 71.794 57.7111
21.497467 71.845 57.5193
21.653246 71.888 57.3088
21.810154 71.921 57.1003
21.968201 71.942 56.9102
22.127390 71.954 56.7551
22.287735 71.960 56.6566
22.449242 71.962 56.6160
22.611917 71.964 56.6446
22.775772 71.968 56.7339
22.940815 71.977 56.8851
23.107054 71.994 57.0807
23.274498 72.022 57.3074
23.443153 72.060 57.5527
23.613033 72.105 57.8012
23.784142 72.158 58.0478
23.956491 72.218 58.2846
24.130091 72.286 58.5048
24.304947 72.360 58.6990
24.481071 72.439 58.8668
24.658470 72.520 59.0045
24.837156 72.605 59.1129
25.017136 72.692 59.1934
25.198421 72.783 59.2400
25.381020 72.877 59.2474
25.564941 72.972 59.2150
25.750195 73.065 59.1395
25.936790 73.156 59.0232
26.124741 73.246 58.8648
26.314051 73.332 58.6713
26.504732 73.410 58.4443
26.696796 73.481 58.1983
26.890253 73.544 57.9460
27.085112 73.601 57.6953
27.281382 73.653 57.4565
27.479073 73.700 57.2343
27.678198 73.743 57.0365
27.878765 73.783 56.8642
28.080786 73.823 56.7239
28.284271 73.865 56.6071
28.489231 73.910 56.5103
28.695675 73.957 56.4251
28.903616 74.008 56.3429
29.113064 74.061 56.2611
29.324028 74.116 56.1744
29.536524 74.172 56.0821
29.750557 74.229 55.9816
29.966141 74.287 55.8741
30.183289 74.345 55.7595
30.402010 74.403 55.6391
30.622314 74.461 55.5146
30.844217 74.520 55.3852
31.067726 74.579 55.2521
31.292856 74.639 55.1112
31.519617 74.701 54.9601
31.748020 74.764 54.7952
31.978081 74.827 54.6124
32.209808 74.890 54.4113
32.443211 74.952 54.1889
32.678310 75.011 53.9493
32.915108 75.067 53.6936
33.153625 75.119 53.4283
33.393871 75.167 53.1579
33.635857 75.210 52.8894
33.879597 75.249 52.6302
34.125103 75.285 52.3843
34.372387 75.318 52.1587
34.621464 75.351 51.9513
34.872345 75.384 51.7639
35.125042 75.419 51.5912
35.379574 75.455 51.4296
35.635948 75.493 51.2752
35.894180 75.533 51.1245
36.154285 75.574 50.9722
36.416275 75.618 50.8125
36.680161 75.663 50.6443
36.945961 75.707 50.4632
37.213688 75.751 50.2733
37.483353 75.793 50.0756
37.754974 75.833 49.8753
38.028561 75.870 49.6773
38.304131 75.906 49.4843
38.581699 75.941 49.3010
38.861279 75.976 49.1263
39.142883 76.011 48.9615
39.426529 76.047 48.8032
39.712231 76.086 48.6504
40.000000 76.126 48.4962
40.289856 76.168 48.3341
40.581814 76.212 48.1623
40.875885 76.256 47.9765
41.172089 76.300 47.7783
41.470440 76.342 47.5665
41.770950 76.383 47.3454
42.073643 76.421 47.1179
42.378525 76.457 46.8873
42.685616 76.490 46.6571
42.994934 76.522 46.4293
43.306492 76.552 46.2068
43.620308 76.581 45.9903
43.936401 76.609 45.7824
44.254780 76.636 45.5803
44.575470 76.665 45.3826
44.898483 76.693 45.1883
45.223835 76.720 44.9953
45.551544 76.746 44.8063
45.881630 76.771 44.6236
46.214108 76.796 44.4453
46.548996 76.822 44.2699
46.886307 76.848 44.0973
47.226067 76.873 43.9259
47.568283 76.897 43.7583
47.912983 76.921 43.5968
48.260181 76.945 43.4403
48.609894 76.969 43.2875
48.962143 76.993 43.1402
49.316940 77.016 42.9995
49.674313 77.039 42.8652
50.034271 77.063 42.7388
50.396843 77.088 42.6172
50.762039 77.114 42.4980
51.129883 77.141 42.3802
51.500389 77.169 42.2620
51.873581 77.197 42.1432
52.249481 77.226 42.0235
52.628101 77.256 41.9012
53.009464 77.286 41.7742
53.393593 77.316 41.6442
53.780506 77.345 41.5113
54.170223 77.373 41.3792
54.562763 77.400 41.2526
54.958145 77.428 41.1292
55.356396 77.457 41.0080
55.757530 77.486 40.8892
56.161572 77.514 40.7722
56.568542 77.543 40.6582
56.978462 77.573 40.5501
57.391350 77.605 40.4422
57.807232 77.639 40.3303
58.226128 77.674 40.2122
58.648056 77.710 40.0836
59.073048 77.746 39.9462
59.501114 77.782 39.8003
59.932281 77.817 39.6463
60.366577 77.851 39.4840
60.804020 77.885 39.3153
61.244629 77.918 39.1411
61.688435 77.949 38.9643
62.135452 77.978 38.7877
62.585712 78.006 38.6133
63.039234 78.033 38.4455
63.496040 78.060 38.2803
63.956161 78.089 38.1147
64.419617 78.117 37.9493
64.886421 78.144 37.7832
65.356621 78.170 37.6173
65.830215 78.196 37.4526
66.307251 78.222 37.2883
66.787743 78.247 37.1229
67.271713 78.271 36.9603
67.759193 78.294 36.8035
68.250206 78.316 36.6533
68.744774 78.338 36.5113
69.242928 78.360 36.3772
69.744690 78.382 36.2519
70.250084 78.406 36.1332
70.759148 78.431 36.0211
71.271896 78.458 35.9112
71.788361 78.487 35.7997
72.308571 78.517 35.6852
72.832550 78.549 35.5651
73.360321 78.581 35.4392
73.891922 78.614 35.3065
74.427376 78.647 35.1673
74.966705 78.680 35.0214
75.509949 78.713 34.8693
76.057121 78.746 34.7108
76.608261 78.779 34.5473
77.163399 78.811 34.3800
77.722557 78.843 34.2094
78.285767 78.875 34.0367
78.853058 78.907 33.8604
79.424461 78.939 33.6780
80.000000 78.971 33.4924
80.579712 79.001 33.3059
81.163628 79.031 33.1174
81.751770 79.062 32.9265
82.344177 79.094 32.7324
82.940880 79.125 32.5342
83.541901 79.156 32.3314
84.147285 79.188 32.1245
84.757050 79.220 31.9104
85.371231 79.253 31.6860
85.989868 79.285 31.4515
86.612984 79.316 31.2059
87.240616 79.346 30.9495
87.872803 79.376 30.6817
88.509560 79.405 30.4036
89.150940 79.430 30.1142
89.796967 79.453 29.8196
90.447670 79.473 29.5251
91.103088 79.490 29.2316
91.763260 79.506 28.9415
92.428215 79.520 28.6556
93.097992 79.532 28.3751
93.772614 79.542 28.1006
94.452133 79.552 27.8338
95.136566 79.561 27.5725
95.825966 79.570 27.3154
96.520363 79.578 27.0616
97.219788 79.586 26.8099
97.924286 79.593 26.5595
98.633881 79.600 26.3091
99.348625 79.606 26.0595
100.068542 79.610 25.8108
100.793686 79.613 25.5646
101.524078 79.615 25.3230
102.259766 79.617 25.0856
103.000778 79.617 24.8529
103.747162 79.616 24.6244
104.498962 79.614 24.3992
105.256203 79.611 24.1794
106.018929 79.606 23.9660
106.787186 79.600 23.7614
107.561012 79.593 23.5687
108.340446 79.585 23.3873
109.125526 79.578 23.2177
109.916290 79.570 23.0593
110.712791 79.562 22.9122
111.515060 79.555 22.7753
112.323143 79.549 22.6487
113.137085 79.544 22.5282
113.956924 79.541 22.4105
114.782700 79.539 22.2933
115.614464 79.538 22.1730
116.452255 79.537 22.0502
117.296112 79.536 21.9245
118.146095 79.535 21.7963
119.002228 79.534 21.6648
119.864563 79.531 21.5334
120.733154 79.526 21.4036
121.608040 79.520 21.2793
122.489258 79.513 21.1647
123.376869 79.505 21.0592
124.270905 79.498 20.9639
125.171425 79.490 20.8781
126.078468 79.482 20.8020
126.992081 79.474 20.7351
127.912323 79.468 20.6787
128.839233 79.464 20.6281
129.772842 79.461 20.5795
130.713242 79.459 20.5321
131.660431 79.458 20.4839
132.614502 79.457 20.4351
133.575485 79.457 20.3849
134.543427 79.457 20.3341
135.518387 79.457 20.2831
136.500412 79.457 20.2321
137.489548 79.457 20.1814
138.485855 79.457 20.1311
139.489380 79.457 20.0814
140.500168 79.457 20.0321
141.518295 79.457 19.9831
142.543793 79.457 19.9341
143.576721 79.456 19.8849
144.617142 79.455 19.8361
145.665100 79.454 19.7872
146.720642 79.451 19.7411
147.783844 79.446 19.6991
148.854752 79.440 19.6651
149.933411 79.433 19.6434
151.019897 79.425 19.6340
152.114243 79.418 19.6381
153.216522 79.410 19.6559
154.326797 79.402 19.6880
155.445114 79.394 19.7349
156.571533 79.388 19.7980
157.706116 79.384 19.8748
158.848923 79.381 19.9627
160.000000 79.379 20.0637
161.159424 79.378 20.1783
162.327255 79.379 20.3087
163.503540 79.381 20.4575
164.688354 79.387 20.6246
165.881760 79.397 20.8128
167.083801 79.412 21.0154
168.294571 79.434 21.2308
169.514099 79.463 21.4475
170.742462 79.501 21.6571
171.979736 79.548 21.8485
173.225967 79.603 22.0114
174.481232 79.666 22.1348
175.745605 79.734 22.2056
177.019119 79.807 22.2200
178.301880 79.882 22.1685
179.593933 79.956 22.0554
180.895340 80.026 21.8795
182.206177 80.093 21.6486
183.526520 80.154 21.3672
184.856430 80.209 21.0438
186.195984 80.255 20.6843
187.545227 80.293 20.3009
188.904266 80.321 19.9049
190.273132 80.341 19.5050
191.651932 80.354 19.1120
193.040726 80.359 18.7310
194.439575 80.357 18.3692
195.848572 80.350 18.0309
197.267761 80.338 17.7242
198.697250 80.324 17.4456
200.137085 80.309 17.1962
201.587372 80.294 16.9715
203.048157 80.278 16.7681
204.519531 80.262 16.5845
206.001556 80.246 16.4200
207.494324 80.231 16.2684
208.997925 80.218 16.1231
210.512405 80.206 15.9843
212.037857 80.191 15.8488
213.574371 80.176 15.7203
215.122025 80.160 15.6023
216.680893 80.144 15.4933
218.251053 80.127 15.3908
219.832581 80.109 15.3002
221.425583 80.088 15.2252
223.030121 80.066 15.1681
224.646286 80.045 15.1338
226.274170 80.025 15.1180
227.913849 80.007 15.1186
229.565399 79.990 15.1339
231.228928 79.975 15.1632
232.904510 79.962 15.2019
234.592224 79.953 15.2471
236.292191 79.946 15.2939
238.004456 79.942 15.3363
239.729126 79.940 15.3739
241.466309 79.938 15.4042
243.216080 79.937 15.4279
244.978516 79.935 15.4440
246.753738 79.933 15.4560
248.541809 79.929 15.4652
250.342850 79.923 15.4770
252.156937 79.915 15.4954
253.984161 79.905 15.5259
255.824646 79.893 15.5735
257.678467 79.879 15.6438
259.545685 79.865 15.7436
261.426483 79.851 15.8746
263.320862 79.839 16.0424
265.229004 79.831 16.2424
267.150970 79.829 16.4761
269.086853 79.834 16.7312
271.036774 79.850 17.0024
273.000824 79.876 17.2712
274.979095 79.914 17.5230
276.971710 79.963 17.7414
278.978760 80.021 17.9074
281.000336 80.085 18.0138
283.036591 80.153 18.0462
285.087585 80.223 18.0072
287.153442 80.289 17.8909
289.234283 80.351 17.7086
291.330200 80.404 17.4638
293.441284 80.449 17.1748
295.567688 80.481 16.8559
297.709503 80.503 16.5229
299.866821 80.515 16.1945
302.039795 80.518 15.8769
304.228485 80.514 15.5813
306.433044 80.503 15.3117
308.653595 80.487 15.0765
310.890228 80.468 14.8745
313.143066 80.448 14.7095
315.412231 80.427 14.5753
317.697845 80.407 14.4672
320.000000 80.387 14.3842
322.318848 80.367 14.3246
324.654510 80.347 14.2861
327.007080 80.330 14.2671
329.376709 80.315 14.2630
331.763519 80.303 14.2690
334.167603 80.292 14.2839
336.589142 80.282 14.3052
339.028198 80.274 14.3319
341.484924 80.268 14.3630
343.959473 80.264 14.3959
346.451935 80.262 14.4277
348.962463 80.260 14.4579
351.491211 80.259 14.4847
354.038239 80.258 14.5089
356.603760 80.258 14.5310
359.187866 80.258 14.5509
361.790680 80.258 14.5687
364.412354 80.258 14.5850
367.053040 80.257 14.5998
369.712860 80.256 14.6150
372.391968 80.255 14.6308
375.090454 80.252 14.6509
377.808533 80.247 14.6773
380.546265 80.241 14.7149
383.303864 80.234 14.7695
386.081451 80.228 14.8408
388.879150 80.223 14.9313
391.697144 80.221 15.0377
394.535522 80.222 15.1606
397.394501 80.227 15.2906
400.274170 80.239 15.4220
403.174744 80.256 15.5436
406.096313 80.279 15.6442
409.039062 80.306 15.7178
412.003113 80.334 15.7536
414.988647 80.363 15.7551
417.995850 80.390 15.7192
421.024811 80.413 15.6552
424.075714 80.431 15.5674
427.148743 80.444 15.4673
430.244049 80.451 15.3664
433.361786 80.453 15.2703
436.502106 80.451 15.1883
439.665161 80.447 15.1212
442.851166 80.441 15.0741
446.060242 80.435 15.0431
449.292572 80.429 15.0275
452.548340 80.424 15.0220
455.827698 80.421 15.0215
459.130798 80.419 15.0240
462.457855 80.416 15.0251
465.809021 80.413 15.0270
469.184448 80.409 15.0296
472.584381 80.404 15.0360
476.008911 80.397 15.0491
479.458252 80.390 15.0699
482.932617 80.383 15.1008
486.432159 80.375 15.1409
489.957031 80.367 15.1901
493.507477 80.360 15.2478
497.083618 80.353 15.3138
500.685699 80.346 15.3867
504.313873 80.340 15.4649
507.968323 80.335 15.5487
511.649292 80.329 15.6369
515.356934 80.322 15.7337
519.091370 80.315 15.8426
522.852966 80.309 15.9636
526.641724 80.304 16.0985
530.458008 80.301 16.2455
534.301941 80.299 16.4045
538.173706 80.300 16.5724
542.073547 80.304 16.7479
546.001648 80.311 16.9254
549.958191 80.322 17.1009
553.943420 80.337 17.2685
557.957520 80.355 17.4208
562.000671 80.375 17.5576
566.073181 80.395 17.6747
570.175171 80.415 17.7767
574.306885 80.434 17.8668
578.468567 80.453 17.9448
582.660400 80.472 18.0109
586.882568 80.490 18.0668
591.135376 80.506 18.1125
595.419006 80.520 18.1529
599.733643 80.531 18.1924
604.079590 80.541 18.2319
608.456970 80.551 18.2737
612.866089 80.559 18.3178
617.307190 80.565 18.3639
621.780457 80.570 18.4148
626.286133 80.574 18.4728
630.824463 80.576 18.5398
635.395691 80.577 18.6185
640.000000 80.578 18.7087
644.637695 80.579 18.8113
649.309021 80.580 18.9256
654.014160 80.582 19.0520
658.753418 80.585 19.1885
663.527039 80.589 19.3344
668.335205 80.595 19.4865
673.178284 80.602 19.6408
678.056396 80.611 19.7995
682.969849 80.619 19.9633
687.918945 80.629 20.1324
692.903870 80.640 20.3074
697.924927 80.653 20.4874
702.982422 80.667 20.6718
708.076477 80.682 20.8603
713.207520 80.700 21.0540
718.375732 80.720 21.2483
723.581360 80.743 21.4408
728.824707 80.770 21.6264
734.106079 80.799 21.8000
739.425720 80.831 21.9585
744.783936 80.864 22.0966
750.180908 80.898 22.2156
755.617065 80.931 22.3134
761.092529 80.962 22.3947
766.607727 80.991 22.4627
772.162903 81.018 22.5208
777.758301 81.043 22.5719
783.394287 81.065 22.6218
789.071045 81.083 22.6765
794.789001 81.099 22.7388
800.548340 81.114 22.8140
806.349487 81.129 22.8997
812.192627 81.144 22.9955
818.078125 81.159 23.0996
824.006226 81.175 23.2105
829.977295 81.192 23.3266
835.991699 81.209 23.4456
842.049622 81.227 23.5675
848.151428 81.244 23.6918
854.297485 81.262 23.8185
860.488098 81.280 23.9469
866.723572 81.299 24.0785
873.004211 81.316 24.2133
879.330322 81.333 24.3555
885.702332 81.349 24.5099
892.120483 81.366 24.6744
898.585144 81.384 24.8487
905.096680 81.404 25.0313
911.655396 81.425 25.2220
918.261597 81.449 25.4163
924.915710 81.476 25.6107
931.618042 81.505 25.8023
938.368896 81.535 25.9870
945.168762 81.566 26.1653
952.017822 81.598 26.3370
958.916504 81.630 26.5014
965.865234 81.662 26.6559
972.864319 81.694 26.8055
979.914062 81.723 26.9536
987.014954 81.752 27.1014
994.167236 81.780 27.2505
1001.371399 81.808 27.4025
1008.627747 81.833 27.5583
1015.936646 81.858 27.7213
1023.298584 81.883 27.8954
1030.713867 81.907 28.0794
1038.182739 81.931 28.2723
1045.705933 81.954 28.4771
1053.283447 81.976 28.6953
1060.916016 81.997 28.9309
1068.603882 82.018 29.1879
1076.347412 82.040 29.4678
1084.147095 82.063 29.7736
1092.003296 82.088 30.1048
1099.916382 82.116 30.4634
1107.886841 82.147 30.8453
1115.915039 82.183 31.2490
1124.001343 82.225 31.6694
1132.146362 82.273 32.1030
1140.350342 82.328 32.5433
1148.613770 82.389 32.9844
1156.937134 82.456 33.4212
1165.320801 82.529 33.8482
1173.765137 82.608 34.2612
1182.270752 82.692 34.6537
1190.838013 82.780 35.0275
1199.467285 82.869 35.3819
1208.159180 82.962 35.7177
1216.913940 83.058 36.0358
1225.732178 83.157 36.3349
1234.614380 83.257 36.6133
1243.560913 83.359 36.8741
1252.572266 83.461 37.1199
1261.648926 83.566 37.3511
1270.791382 83.671 37.5681
1280.000000 83.779 37.7722
1289.275391 83.887 37.9637
1298.618042 83.996 38.1463
1308.028320 84.105 38.3235
1317.506836 84.216 38.4963
1327.054077 84.330 38.6669
1336.670410 84.447 38.8344
1346.356567 84.566 38.9996
1356.112793 84.691 39.1584
1365.939697 84.821 39.3104
1375.837891 84.958 39.4455
1385.807739 85.102 39.5560
1395.849854 85.251 39.6348
1405.964844 85.407 39.6741
1416.152954 85.566 39.6671
1426.415039 85.730 39.6039
1436.751465 85.895 39.4856
1447.162720 86.059 39.3076
1457.649414 86.221 39.0770
1468.212158 86.380 38.7977
1478.851440 86.535 38.4753
1489.567871 86.687 38.1137
1500.361816 86.834 37.7225
1511.234131 86.975 37.3122
1522.185059 87.112 36.8850
1533.215454 87.249 36.4477
1544.325806 87.384 35.9970
1555.516602 87.518 35.5312
1566.788574 87.650 35.0521
1578.142090 87.781 34.5613
1589.578003 87.910 34.0572
1601.096680 88.040 33.5385
1612.698975 88.169 33.0052
1624.385254 88.297 32.4577
1636.156250 88.424 31.8945
1648.012451 88.553 31.3153
1659.954590 88.683 30.7173
1671.983398 88.812 30.0988
1684.099243 88.941 29.4567
1696.302856 89.072 28.7884
1708.594971 89.202 28.0902
1720.976196 89.333 27.3585
1733.447144 89.463 26.5904
1746.008423 89.593 25.7810
1758.660645 89.721 24.9326
1771.404663 89.846 24.0459
1784.240967 89.967 23.1209
1797.170288 90.085 22.1586
1810.193359 90.201 21.1561
1823.310791 90.313 20.1097
1836.523193 90.420 19.0214
1849.831421 90.520 17.8909
1863.236084 90.613 16.7213
1876.737793 90.699 15.5142
1890.337524 90.777 14.2745
1904.035645 90.844 13.0041
1917.833008 90.900 11.7141
1931.730469 90.944 10.4132
1945.728638 90.977 9.1106
1959.828125 90.999 7.8152
1974.029907 91.010 6.5364
1988.334473 91.010 5.2846
2002.742798 91.001 4.0648
2017.255493 90.984 2.8858
2031.873291 90.961 1.7464
2046.597168 90.933 0.6492
2061.427734 90.900 -0.4074
2076.365479 90.864 -1.4234
2091.411865 90.824 -2.4010
2106.566895 90.783 -3.3418
2121.832031 90.740 -4.2473
2137.207764 90.695 -5.1206
2152.694824 90.648 -5.9588
2168.294189 90.599 -6.7591
2184.006592 90.549 -7.5236
2199.832764 90.500 -8.2521
2215.773682 90.451 -8.9482
2231.830078 90.403 -9.6151
2248.002686 90.356 -10.2544
2264.292725 90.311 -10.8668
2280.700684 90.267 -11.4575
2297.227539 90.227 -12.0306
2313.874268 90.189 -12.5897
2330.641602 90.153 -13.1418
2347.530273 90.116 -13.6817
2364.541504 90.078 -14.2079
2381.676025 90.040 -14.7167
2398.934570 90.004 -15.2037
2416.318359 89.968 -15.6700
2433.827881 89.934 -16.1146
2451.464355 89.902 -16.5403
2469.228760 89.874 -16.9476
2487.121826 89.850 -17.3423
2505.144531 89.830 -17.7283
2523.297852 89.814 -18.1113
2541.582764 89.803 -18.4971
2560.000000 89.795 -18.8892
2578.550781 89.790 -19.2933
2597.236084 89.788 -19.7090
2616.056641 89.787 -20.1392
2635.013672 89.786 -20.5811
2654.108154 89.786 -21.0334
2673.340820 89.786 -21.4950
2692.713135 89.786 -21.9646
2712.225586 89.786 -22.4417
2731.879395 89.786 -22.9257
2751.675781 89.786 -23.4157
2771.615479 89.786 -23.9109
2791.699707 89.785 -24.4108
2811.929688 89.783 -24.9162
2832.305908 89.780 -25.4226
2852.830078 89.775 -25.9279
2873.502930 89.768 -26.4259
2894.325439 89.759 -26.9108
2915.298828 89.750 -27.3789
2936.424316 89.740 -27.8252
2957.702881 89.732 -28.2482
2979.135742 89.726 -28.6418
3000.723633 89.724 -29.0144
3022.468262 89.731 -29.3679
3044.370117 89.745 -29.7154
3066.430908 89.768 -30.0680
3088.651611 89.800 -30.4343
3111.033203 89.839 -30.8227
3133.577148 89.886 -31.2449
3156.284180 89.942 -31.7130
3179.156006 90.006 -32.2344
3202.193359 90.073 -32.8194
3225.397949 90.144 -33.4717
3248.770508 90.218 -34.1985
3272.312500 90.292 -35.0002
3296.024902 90.363 -35.8824
3319.909180 90.431 -36.8374
3343.966797 90.492 -37.8637
3368.198486 90.546 -38.9487
3392.605713 90.591 -40.0816
3417.189941 90.629 -41.2565
3441.952393 90.661 -42.4590
3466.894287 90.691 -43.7043
3492.016846 90.722 -44.9938
3517.321289 90.752 -46.3555
3542.809326 90.783 -47.8108
3568.481934 90.809 -49.3814
3594.340576 90.828 -51.0987
3620.386719 90.831 -52.9558
3646.621582 90.809 -54.9759
3673.046387 90.752 -57.0997
3699.662842 90.649 -59.3062
3726.472168 90.496 -61.5020
3753.475586 90.286 -63.6179
3780.675049 90.021 -65.5588
3808.071289 89.699 -67.2210
3835.666016 89.334 -68.5605
3863.460938 88.936 -69.4890
3891.457275 88.523 -70.0353
3919.656250 88.111 -70.1778
3948.059814 87.715 -69.9806
3976.668945 87.349 -69.4751
4005.485596 87.022 -68.7400
4034.510986 86.750 -67.8452
4063.746582 86.523 -66.8499
4093.194336 86.341 -65.8331
4122.855469 86.195 -64.8050
4152.730957 86.076 -63.8086
4182.823730 85.977 -62.8237
4213.133789 85.891 -61.8518
4243.664062 85.817 -60.8687
4274.415527 85.754 -59.8542
4305.389648 85.705 -58.7983
4336.588379 85.673 -57.6791
4368.013184 85.665 -56.5126
4399.665527 85.687 -55.2948
4431.547363 85.744 -54.0650
4463.660156 85.841 -52.8458
4496.005371 85.977 -51.6846
4528.585449 86.157 -50.6223
4561.401367 86.373 -49.7020
4594.455078 86.624 -48.9726
4627.748535 86.901 -48.4579
4661.283203 87.194 -48.1973
4695.060547 87.498 -48.1924
4729.083008 87.805 -48.4638
4763.352051 88.108 -48.9939
4797.869141 88.397 -49.7831
4832.636719 88.671 -50.7964
4867.655762 88.922 -52.0078
4902.928711 89.152 -53.3899
4938.457520 89.361 -54.9141
4974.243652 89.547 -56.5579
5010.289062 89.709 -58.2966
5046.595703 89.848 -60.1078
5083.165527 89.965 -61.9634
5120.000000 90.063 -63.8567
5157.101562 90.145 -65.7729
5194.472168 90.210 -67.7075
5232.113281 90.257 -69.6538
5270.027344 90.289 -71.6042
5308.216309 90.306 -73.5495
5346.681641 90.310 -75.4875
5385.426270 90.302 -77.4128
5424.451172 90.283 -79.3267
5463.758789 90.254 -81.2282
5503.351562 90.215 -83.1188
5543.230957 90.167 -84.9982
5583.399414 90.110 -86.8699
5623.859375 90.046 -88.7366
5664.611816 89.972 -90.5999
5705.660156 89.890 -92.4627
5747.005859 89.797 -94.3224
5788.650879 89.693 -96.1791
5830.597656 89.577 -98.0255
5872.848633 89.447 -99.8591
5915.405762 89.303 -101.6668
5958.271484 89.145 -103.4382
6001.447266 88.972 -105.1623
6044.936523 88.784 -106.8317
6088.740234 88.582 -108.4242
6132.861816 88.363 -109.9209
6177.303223 88.131 -111.3044
6222.066406 87.888 -112.5523
6267.154297 87.639 -113.6608
6312.568359 87.387 -114.6161
6358.312012 87.137 -115.4263
6404.386719 86.893 -116.0842
6450.795898 86.661 -116.6215
6497.541016 86.452 -117.0537
6544.625000 86.266 -117.4232
6592.049805 86.105 -117.7669
6639.818359 85.968 -118.1171
6687.933594 85.855 -118.5110
6736.396973 85.760 -118.9714
6785.211426 85.682 -119.5342
6834.379883 85.613 -120.1973
6883.904785 85.546 -120.9750
6933.788574 85.477 -121.8542
6984.033691 85.403 -122.8321
7034.642578 85.320 -123.8925
7085.618652 85.226 -125.0242
7136.963867 85.119 -126.2089
7188.681152 84.997 -127.4319
7240.773438 84.860 -128.6718
7293.243164 84.705 -129.9121
7346.092773 84.533 -131.1240
7399.325684 84.342 -132.2817
7452.944336 84.135 -133.3588
7506.951172 83.914 -134.3252
7561.350098 83.683 -135.1670
7616.142578 83.447 -135.8546
7671.332031 83.215 -136.4055
7726.921875 82.996 -136.8110
7782.914551 82.797 -137.1206
7839.312500 82.627 -137.3594
7896.119629 82.489 -137.5927
7953.337891 82.389 -137.8734
8010.971191 82.321 -138.2635
8069.021973 82.286 -138.8324
8127.493164 82.270 -139.6113
8186.388672 82.264 -140.6554
8245.710938 82.258 -141.9624
8305.461914 82.241 -143.5601
8365.647461 82.200 -145.4116
8426.267578 82.123 -147.5085
8487.328125 82.005 -149.7916
8548.831055 81.838 -152.2194
8610.779297 81.619 -154.7286
8673.176758 81.345 -157.2732
8736.026367 81.009 -159.7598
8799.331055 80.606 -162.1159
8863.094727 80.138 -164.2326
8927.320312 79.604 -166.0072
8992.010742 79.012 -167.3492
9057.170898 78.363 -168.1413
9122.802734 77.678 -168.3614
9188.910156 76.966 -167.9217
9255.497070 76.260 -166.9040
9322.566406 75.583 -165.3138
9390.121094 74.963 -163.2946
9458.166016 74.430 -160.9361
9526.704102 73.997 -158.4085
9595.738281 73.693 -155.8669
9665.273438 73.493 -153.4472
9735.311523 73.393 -151.3264
9805.857422 73.359 -149.5367
9876.915039 73.362 -148.1833
9948.487305 73.381 -147.2212
10020.578125 73.389 -146.6755
10093.191406 73.371 -146.4376
10166.331055 73.301 -146.4479
10240.000000 73.183 -146.5822
10314.203125 73.009 -146.7312
10388.944336 72.784 -146.7891
10464.226562 72.503 -146.6352
10540.054688 72.182 -146.2045
10616.432617 71.829 -145.3855
10693.363281 71.467 -144.1972
10770.852539 71.114 -142.5992
10848.902344 70.788 -140.6604
10927.517578 70.509 -138.4060
11006.703125 70.289 -135.9279
11086.461914 70.148 -133.2893
11166.798828 70.086 -130.6019
11247.718750 70.116 -127.9723
11329.223633 70.220 -125.4794
11411.320312 70.389 -123.2267
11494.011719 70.609 -121.2449
11577.301758 70.867 -119.5957
11661.195312 71.151 -118.2883
11745.697266 71.446 -117.3589
11830.811523 71.740 -116.7871
11916.542969 72.020 -116.5848
12002.894531 72.275 -116.6896
12089.873047 72.491 -117.0693
12177.480469 72.670 -117.6443
12265.723633 72.807 -118.3502
12354.606445 72.905 -119.1089
12444.132812 72.958 -119.8369
12534.308594 72.982 -120.4858
12625.136719 72.985 -120.9764
12716.624023 72.981 -121.3186
12808.773438 72.981 -121.4813
12901.591797 72.997 -121.5102
12995.082031 73.042 -121.4157
13089.250000 73.121 -121.2737
13184.099609 73.244 -121.1415
13279.636719 73.404 -121.0860
13375.867188 73.600 -121.1831
13472.793945 73.821 -121.4638
13570.422852 74.059 -121.9833
13668.759766 74.306 -122.7447
13767.809570 74.552 -123.7760
13867.577148 74.792 -125.0568
13968.067383 75.016 -126.5847
14069.285156 75.224 -128.3335
14171.237305 75.412 -130.2828
14273.927734 75.580 -132.4133
14377.362305 75.724 -134.7014
14481.546875 75.846 -137.1391
14586.486328 75.949 -139.7086
14692.185547 76.029 -142.4159
14798.651367 76.086 -145.2636
14905.888672 76.117 -148.2423
15013.902344 76.116 -151.3497
15122.700195 76.082 -154.5674
15232.285156 76.014 -157.8862
15342.664062 75.907 -161.2752
15453.843750 75.756 -164.7162
15565.829102 75.559 -168.1634
15678.625000 75.315 -171.5810
15792.239258 75.023 -174.9202
15906.675781 74.681 -178.1310
16021.942383 74.294 178.8200
16138.043945 73.868 175.9771
16254.986328 73.404 173.3575
16372.777344 72.905 170.9882
16491.421875 72.377 168.8839
16610.923828 71.826 167.0731
16731.294922 71.259 165.5421
16852.535156 70.687 164.2921
16974.656250 70.112 163.3062
17097.662109 69.539 162.5740
17221.558594 68.972 162.0773
17346.353516 68.415 161.8083
17472.052734 67.875 161.7250
17598.662109 67.363 161.7984
17726.189453 66.874 161.9817
17854.640625 66.409 162.2291
17984.021484 65.967 162.5084
18114.341797 65.553 162.7732
18245.605469 65.153 163.0207
18377.820312 64.761 163.2166
18510.994141 64.366 163.4098
18645.132812 63.960 163.6160
18780.242188 63.538 163.9022
18916.332031 63.095 164.3255
19053.408203 62.635 164.9319
19191.476562 62.155 165.7849
19330.546875 61.670 166.8893
19470.623047 61.186 168.2892
19611.714844 60.721 169.9290
19753.830078 60.292 171.7944
19896.974609 59.906 173.8035
