* Measurement data measured by REW V5.20.13
* Source: C:\Users\kurin\Desktop\Targets and Curves\Resolve\Img\Files\LCDX Pre 2021_SPL.txt
* Format: Comma/Tab/Space delimited data
* Dated: Aug 14, 2023 5:44:57 PM
* REW Settings:
*  C-weighting compensation: Off
*  Target level: 75.0 dB
* Note: ; Measurement imported from C:\Users\kurin\Desktop\Targets and Curves\Resolve\Img\Files\LCDX Pre 2021_SPL.txt Format: Comma/Tab/Space delimited data 623 values loaded, 5 Hz to 39,792 Hz log spaced 
* Measurement: LCDX Pre 2021_SPL
* Smoothing: 1/48 octave
* Frequency Step: 1/96 octave
* Start Frequency: 5.000 Hz
*
* Freq(Hz) SPL(dB) Phase(degrees)
5.000000 77.814 20.7170
5.036232 77.821 20.7122
5.072727 77.828 20.7070
5.109486 77.837 20.7009
5.146511 77.847 20.6940
5.183805 77.858 20.6858
5.221369 77.871 20.6770
5.259205 77.885 20.6686
5.297316 77.899 20.6600
5.335702 77.914 20.6506
5.374367 77.929 20.6410
5.413311 77.944 20.6315
5.452538 77.960 20.6220
5.492050 77.975 20.6125
5.531847 77.990 20.6030
5.571934 78.006 20.5935
5.612310 78.021 20.5840
5.652979 78.036 20.5745
5.693943 78.051 20.5650
5.735204 78.066 20.5556
5.776763 78.082 20.5460
5.818624 78.097 20.5361
5.860788 78.112 20.5260
5.903258 78.127 20.5160
5.946035 78.143 20.5060
5.989123 78.158 20.4961
6.032523 78.173 20.4860
6.076237 78.188 20.4756
6.120268 78.203 20.4650
6.164618 78.218 20.4545
6.209289 78.234 20.4440
6.254284 78.249 20.4335
6.299605 78.264 20.4230
6.345255 78.279 20.4126
6.391235 78.295 20.4020
6.437549 78.310 20.3911
6.484198 78.325 20.3800
6.531185 78.340 20.3690
6.578513 78.356 20.3580
6.626183 78.371 20.3471
6.674199 78.386 20.3360
6.722563 78.401 20.3246
6.771278 78.417 20.3130
6.820345 78.432 20.3016
6.869768 78.447 20.2900
6.919549 78.462 20.2780
6.969691 78.478 20.2660
7.020196 78.493 20.2545
7.071068 78.508 20.2430
7.122308 78.523 20.2311
7.173919 78.538 20.2190
7.225904 78.553 20.2066
7.278266 78.569 20.1940
7.331007 78.584 20.1815
7.384131 78.599 20.1690
7.437639 78.614 20.1566
7.491535 78.630 20.1440
7.545822 78.645 20.1311
7.600502 78.660 20.1180
7.655579 78.675 20.1050
7.711054 78.691 20.0920
7.766932 78.706 20.0791
7.823214 78.721 20.0660
7.879904 78.736 20.0526
7.937005 78.752 20.0390
7.994520 78.767 20.0256
8.052452 78.782 20.0120
8.110803 78.797 19.9981
8.169578 78.812 19.9840
8.228777 78.827 19.9701
8.288406 78.843 19.9560
8.348468 78.858 19.9416
8.408964 78.873 19.9270
8.469899 78.888 19.9126
8.531276 78.904 19.8980
8.593097 78.919 19.8831
8.655366 78.934 19.8680
8.718086 78.949 19.8530
8.781260 78.965 19.8380
8.844893 78.980 19.8231
8.908987 78.995 19.8080
8.973545 79.010 19.7926
9.038571 79.026 19.7770
9.104069 79.041 19.7611
9.170040 79.056 19.7450
9.236490 79.071 19.7291
9.303422 79.087 19.7130
9.370838 79.102 19.6966
9.438744 79.117 19.6800
9.507140 79.132 19.6636
9.576033 79.147 19.6470
9.645425 79.162 19.6301
9.715320 79.178 19.6130
9.785721 79.193 19.5961
9.856632 79.208 19.5790
9.928058 79.223 19.5616
10.000000 79.239 19.5440
10.072464 79.254 19.5261
10.145453 79.269 19.5080
10.218971 79.284 19.4901
10.293022 79.300 19.4720
10.367610 79.315 19.4536
10.442738 79.330 19.4350
10.518411 79.345 19.4166
10.594631 79.361 19.3980
10.671404 79.376 19.3786
10.748734 79.391 19.3590
10.826623 79.406 19.3401
10.905077 79.421 19.3210
10.984100 79.436 19.3011
11.063695 79.452 19.2810
11.143867 79.467 19.2611
11.224621 79.482 19.2410
11.305959 79.497 19.2201
11.387886 79.513 19.1990
11.470407 79.528 19.1786
11.553527 79.543 19.1580
11.637249 79.558 19.1367
11.721577 79.574 19.1150
11.806517 79.589 19.0931
11.892071 79.604 19.0710
11.978246 79.619 19.0491
12.065045 79.635 19.0270
12.152473 79.650 19.0047
12.240536 79.665 18.9820
12.329235 79.680 18.9586
12.418578 79.696 18.9350
12.508568 79.711 18.9116
12.599211 79.726 18.8880
12.690510 79.741 18.8641
12.782471 79.756 18.8400
12.875097 79.771 18.8156
12.968395 79.787 18.7910
13.062370 79.802 18.7662
13.157025 79.817 18.7410
13.252366 79.832 18.7151
13.348398 79.848 18.6890
13.445127 79.863 18.6632
13.542556 79.878 18.6370
13.640691 79.893 18.6102
13.739536 79.909 18.5830
13.839099 79.924 18.5556
13.939383 79.939 18.5280
14.040393 79.954 18.5002
14.142136 79.970 18.4720
14.244616 79.985 18.4432
14.347837 80.000 18.4140
14.451808 80.015 18.3846
14.556532 80.030 18.3550
14.662014 80.045 18.3252
14.768262 80.061 18.2950
14.875278 80.076 18.2643
14.983070 80.091 18.2330
15.091644 80.106 18.2013
15.201005 80.122 18.1690
15.311157 80.137 18.1362
15.422109 80.152 18.1030
15.533863 80.167 18.0698
15.646428 80.183 18.0360
15.759809 80.198 18.0013
15.874010 80.213 17.9660
15.989040 80.228 17.9302
16.104904 80.244 17.8940
16.221605 80.259 17.8579
16.339155 80.274 17.8210
16.457554 80.289 17.7829
16.576813 80.305 17.7440
16.696936 80.320 17.7048
16.817928 80.335 17.6650
16.939798 80.350 17.6244
17.062551 80.365 17.5831
17.186193 80.380 17.5410
17.310732 80.396 17.4980
17.436172 80.411 17.4540
17.562521 80.426 17.4090
17.689787 80.441 17.3630
17.817974 80.457 17.3161
17.947090 80.472 17.2681
18.077143 80.487 17.2190
18.208138 80.502 17.1687
18.340080 80.518 17.1171
18.472980 80.533 17.0638
18.606844 80.548 17.0090
18.741676 80.563 16.9530
18.877487 80.579 16.8951
19.014280 80.594 16.8346
19.152065 80.609 16.7721
19.290850 80.624 16.7079
19.430639 80.639 16.6410
19.571442 80.654 16.5708
19.713264 80.670 16.4971
19.856115 80.685 16.4203
20.000000 80.700 16.3391
20.144928 80.715 16.2530
20.290907 80.731 16.1601
20.437943 80.746 16.0582
20.586044 80.761 15.9471
20.735220 80.775 15.8255
20.885475 80.787 15.6942
21.036821 80.798 15.5510
21.189262 80.805 15.4032
21.342808 80.807 15.2547
21.497467 80.805 15.1132
21.653246 80.800 14.9893
21.810154 80.795 14.8781
21.968201 80.791 14.7812
22.127390 80.788 14.6891
22.287735 80.786 14.5953
22.449242 80.785 14.4931
22.611917 80.784 14.3736
22.775772 80.781 14.2372
22.940815 80.773 14.0744
23.107054 80.756 13.9062
23.274498 80.726 13.7383
23.443153 80.684 13.6071
23.613033 80.626 13.5412
23.784142 80.557 13.5699
23.956491 80.479 13.7330
24.130091 80.401 14.0286
24.304947 80.332 14.4791
24.481071 80.278 15.0512
24.658470 80.249 15.7381
24.837156 80.250 16.4819
25.017136 80.290 17.2423
25.198421 80.363 17.9603
25.381020 80.468 18.5710
25.564941 80.595 19.0516
25.750195 80.734 19.3548
25.936790 80.879 19.4889
26.124741 81.021 19.4370
26.314051 81.154 19.2284
26.504732 81.269 18.8724
26.696796 81.365 18.4126
26.890253 81.438 17.8860
27.085112 81.492 17.3217
27.281382 81.527 16.7573
27.479073 81.547 16.2037
27.678198 81.553 15.6839
27.878765 81.548 15.1996
28.080786 81.536 14.7621
28.284271 81.518 14.3665
28.489231 81.495 14.0132
28.695675 81.469 13.6984
28.903616 81.440 13.4182
29.113064 81.409 13.1733
29.324028 81.374 12.9620
29.536524 81.337 12.7872
29.750557 81.298 12.6506
29.966141 81.257 12.5541
30.183289 81.215 12.4994
30.402010 81.172 12.4880
30.622314 81.130 12.5230
30.844217 81.091 12.6009
31.067726 81.055 12.7221
31.292856 81.024 12.8777
31.519617 80.999 13.0622
31.748020 80.981 13.2657
31.978081 80.970 13.4781
32.209808 80.964 13.6947
32.443211 80.962 13.9059
32.678310 80.962 14.1167
32.915108 80.964 14.3264
33.153625 80.968 14.5427
33.393871 80.972 14.7718
33.635857 80.978 15.0186
33.879597 80.987 15.2926
34.125103 81.003 15.5866
34.372387 81.028 15.9027
34.621464 81.063 16.2215
34.872345 81.112 16.5317
35.125042 81.173 16.8107
35.379574 81.247 17.0378
35.635948 81.330 17.1969
35.894180 81.421 17.2643
36.154285 81.514 17.2421
36.416275 81.603 17.1187
36.680161 81.687 16.9104
36.945961 81.760 16.6220
37.213688 81.823 16.2765
37.483353 81.871 15.8921
37.754974 81.907 15.4886
38.028561 81.930 15.0892
38.304131 81.943 14.7025
38.581699 81.948 14.3442
38.861279 81.946 14.0155
39.142883 81.940 13.7256
39.426529 81.932 13.4653
39.712231 81.926 13.2323
40.000000 81.920 13.0153
40.289856 81.915 12.8029
40.581814 81.910 12.5933
40.875885 81.903 12.3798
41.172089 81.893 12.1653
41.470440 81.880 11.9476
41.770950 81.861 11.7363
42.073643 81.836 11.5362
42.378525 81.804 11.3602
42.685616 81.766 11.2207
42.994934 81.723 11.1251
43.306492 81.676 11.0851
43.620308 81.628 11.1009
43.936401 81.581 11.1786
44.254780 81.537 11.3117
44.575470 81.498 11.4995
44.898483 81.466 11.7306
45.223835 81.443 11.9978
45.551544 81.428 12.2886
45.881630 81.422 12.5906
46.214108 81.425 12.8965
46.548996 81.436 13.1973
46.886307 81.455 13.4856
47.226067 81.481 13.7517
47.568283 81.513 13.9936
47.912983 81.549 14.2063
48.260181 81.588 14.3897
48.609894 81.630 14.5419
48.962143 81.673 14.6638
49.316940 81.717 14.7545
49.674313 81.761 14.8179
50.034271 81.803 14.8566
50.396843 81.845 14.8740
50.762039 81.886 14.8738
51.129883 81.927 14.8570
51.500389 81.966 14.8254
51.873581 82.003 14.7811
52.249481 82.039 14.7274
52.628101 82.075 14.6631
53.009464 82.111 14.5888
53.393593 82.147 14.5022
53.780506 82.182 14.4010
54.170223 82.216 14.2862
54.562763 82.248 14.1569
54.958145 82.278 14.0162
55.356396 82.305 13.8657
55.757530 82.330 13.7093
56.161572 82.353 13.5505
56.568542 82.373 13.3913
56.978462 82.391 13.2346
57.391350 82.407 13.0803
57.807232 82.423 12.9298
58.226128 82.438 12.7813
58.648056 82.452 12.6332
59.073048 82.466 12.4852
59.501114 82.478 12.3362
59.932281 82.490 12.1863
60.366577 82.501 12.0345
60.804020 82.510 11.8833
61.244629 82.517 11.7331
61.688435 82.522 11.5882
62.135452 82.524 11.4529
62.585712 82.526 11.3272
63.039234 82.528 11.2132
63.496040 82.530 11.1102
63.956161 82.531 11.0188
64.419617 82.533 10.9361
64.886421 82.537 10.8604
65.356621 82.543 10.7881
65.830215 82.550 10.7157
66.307251 82.559 10.6412
66.787743 82.569 10.5623
67.271713 82.579 10.4762
67.759193 82.591 10.3788
68.250206 82.602 10.2712
68.744774 82.612 10.1516
69.242928 82.621 10.0242
69.744690 82.628 9.8916
70.250084 82.632 9.7573
70.759148 82.634 9.6248
71.271896 82.634 9.4972
71.788361 82.632 9.3792
72.308571 82.630 9.2692
72.832550 82.628 9.1684
73.360321 82.627 9.0732
73.891922 82.626 8.9805
74.427376 82.625 8.8902
74.966705 82.624 8.8010
75.509949 82.622 8.7132
76.057121 82.621 8.6265
76.608261 82.619 8.5402
77.163399 82.617 8.4517
77.722557 82.613 8.3662
78.285767 82.607 8.2870
78.853058 82.600 8.2161
79.424461 82.593 8.1570
80.000000 82.586 8.1091
80.579712 82.579 8.0741
81.163628 82.573 8.0480
81.751770 82.570 8.0283
82.344177 82.568 8.0120
82.940880 82.567 7.9953
83.541901 82.568 7.9780
84.147285 82.569 7.9597
84.757050 82.572 7.9380
85.371231 82.576 7.9106
85.989868 82.581 7.8771
86.612984 82.585 7.8350
87.240616 82.588 7.7881
87.872803 82.590 7.7385
88.509560 82.592 7.6881
89.150940 82.593 7.6394
89.796967 82.593 7.5921
90.447670 82.593 7.5467
91.103088 82.593 7.5031
91.763260 82.593 7.4618
92.428215 82.593 7.4221
93.097992 82.593 7.3835
93.772614 82.593 7.3461
94.452133 82.593 7.3101
95.136566 82.593 7.2751
95.825966 82.593 7.2406
96.520363 82.593 7.2071
97.219788 82.593 7.1746
97.924286 82.593 7.1431
98.633881 82.593 7.1121
99.348625 82.593 7.0821
100.068542 82.593 7.0531
100.793686 82.593 7.0251
101.524078 82.593 6.9977
102.259766 82.593 6.9711
103.000778 82.593 6.9451
103.747162 82.593 6.9200
104.498962 82.593 6.8961
105.256203 82.593 6.8730
106.018929 82.593 6.8505
106.787186 82.593 6.8290
107.561012 82.593 6.8090
108.340446 82.593 6.7900
109.125526 82.593 6.7716
109.916290 82.593 6.7540
110.712791 82.593 6.7374
111.515060 82.593 6.7220
112.323143 82.593 6.7083
113.137085 82.593 6.6960
113.956924 82.593 6.6852
114.782700 82.593 6.6760
115.614464 82.593 6.6683
116.452255 82.593 6.6630
117.296112 82.593 6.6610
118.146095 82.594 6.6620
119.002228 82.595 6.6663
119.864563 82.596 6.6730
120.733154 82.598 6.6819
121.608040 82.601 6.6910
122.489258 82.605 6.6990
123.376869 82.610 6.7040
124.270905 82.616 6.7036
125.171425 82.623 6.6980
126.078468 82.629 6.6863
126.992081 82.635 6.6690
127.912323 82.641 6.6462
128.839233 82.647 6.6191
129.772842 82.651 6.5882
130.713242 82.654 6.5561
131.660431 82.656 6.5251
132.614502 82.657 6.4961
133.575485 82.658 6.4708
134.543427 82.659 6.4490
135.518387 82.659 6.4312
136.500412 82.659 6.4170
137.489548 82.659 6.4064
138.485855 82.659 6.3990
139.489380 82.659 6.3943
140.500168 82.659 6.3930
141.518295 82.659 6.3955
142.543793 82.659 6.4020
143.576721 82.659 6.4128
144.617142 82.660 6.4280
145.665100 82.661 6.4479
146.720642 82.664 6.4709
147.783844 82.668 6.4965
148.854752 82.673 6.5219
149.933411 82.679 6.5443
151.019897 82.686 6.5640
152.114243 82.694 6.5807
153.216522 82.702 6.5930
154.326797 82.712 6.5996
155.445114 82.722 6.5990
156.571533 82.732 6.5886
157.706116 82.742 6.5710
158.848923 82.750 6.5477
160.000000 82.758 6.5201
161.159424 82.765 6.4901
162.327255 82.772 6.4581
163.503540 82.778 6.4241
164.688354 82.782 6.3911
165.881760 82.785 6.3614
167.083801 82.787 6.3361
168.294571 82.789 6.3170
169.514099 82.790 6.3040
170.742462 82.792 6.2981
171.979736 82.794 6.2970
173.225967 82.798 6.3001
174.481232 82.803 6.3040
175.745605 82.809 6.3050
177.019119 82.816 6.3040
178.301880 82.822 6.3007
179.593933 82.829 6.2950
180.895340 82.836 6.2868
182.206177 82.843 6.2760
183.526520 82.850 6.2625
184.856430 82.857 6.2470
186.195984 82.863 6.2304
187.545227 82.870 6.2120
188.904266 82.877 6.1921
190.273132 82.884 6.1701
191.651932 82.891 6.1456
193.040726 82.897 6.1191
194.439575 82.903 6.0905
195.848572 82.908 6.0611
197.267761 82.912 6.0310
198.697250 82.916 6.0031
200.137085 82.918 5.9804
201.587372 82.920 5.9630
203.048157 82.922 5.9530
204.519531 82.925 5.9480
206.001556 82.929 5.9476
207.494324 82.934 5.9490
208.997925 82.940 5.9495
210.512405 82.946 5.9490
212.037857 82.953 5.9464
213.574371 82.960 5.9420
215.122025 82.968 5.9363
216.680893 82.976 5.9280
218.251053 82.985 5.9161
219.832581 82.994 5.9010
221.425583 83.003 5.8825
223.030121 83.011 5.8621
224.646286 83.019 5.8417
226.274170 83.027 5.8201
227.913849 83.036 5.7970
229.565399 83.045 5.7711
231.228928 83.055 5.7403
232.904510 83.064 5.7061
234.592224 83.072 5.6690
236.292191 83.080 5.6301
238.004456 83.088 5.5909
239.729126 83.095 5.5511
241.466309 83.102 5.5115
243.216080 83.110 5.4711
244.978516 83.118 5.4296
246.753738 83.126 5.3861
248.541809 83.134 5.3393
250.342850 83.141 5.2901
252.156937 83.148 5.2393
253.984161 83.155 5.1871
255.824646 83.162 5.1341
257.678467 83.168 5.0801
259.545685 83.174 5.0245
261.426483 83.179 4.9691
263.320862 83.183 4.9163
265.229004 83.188 4.8641
267.150970 83.194 4.8123
269.086853 83.200 4.7592
271.036774 83.206 4.7029
273.000824 83.213 4.6432
274.979095 83.219 4.5794
276.971710 83.225 4.5112
278.978760 83.231 4.4376
281.000336 83.236 4.3602
283.036591 83.240 4.2797
285.087585 83.243 4.1982
287.153442 83.244 4.1180
289.234283 83.245 4.0392
291.330200 83.246 3.9629
293.441284 83.246 3.8882
295.567688 83.246 3.8148
297.709503 83.246 3.7422
299.866821 83.246 3.6706
302.039795 83.246 3.5982
304.228485 83.246 3.5234
306.433044 83.246 3.4462
308.653595 83.246 3.3664
310.890228 83.245 3.2832
313.143066 83.244 3.1957
315.412231 83.241 3.1053
317.697845 83.237 3.0119
320.000000 83.232 2.9183
322.318848 83.225 2.8272
324.654510 83.216 2.7383
327.007080 83.208 2.6515
329.376709 83.198 2.5683
331.763519 83.186 2.4902
334.167603 83.173 2.4172
336.589142 83.160 2.3506
339.028198 83.146 2.2882
341.484924 83.132 2.2274
343.959473 83.117 2.1711
346.451935 83.100 2.1213
348.962463 83.081 2.0791
351.491211 83.062 2.0468
354.038239 83.042 2.0241
356.603760 83.021 2.0104
359.187866 83.000 2.0080
361.790680 82.978 2.0193
364.412354 82.955 2.0429
367.053040 82.934 2.0795
369.712860 82.914 2.1258
372.391968 82.894 2.1783
375.090454 82.874 2.2388
377.808533 82.853 2.3079
380.546265 82.833 2.3858
383.303864 82.814 2.4725
386.081451 82.795 2.5687
388.879150 82.776 2.6742
391.697144 82.756 2.7906
394.535522 82.737 2.9202
397.394501 82.718 3.0616
400.274170 82.702 3.2144
403.174744 82.686 3.3785
406.096313 82.671 3.5532
409.039062 82.656 3.7394
412.003113 82.643 3.9381
414.988647 82.632 4.1473
417.995850 82.623 4.3648
421.024811 82.616 4.5923
424.075714 82.609 4.8301
427.148743 82.603 5.0792
430.244049 82.600 5.3407
433.361786 82.600 5.6141
436.502106 82.601 5.8999
439.665161 82.606 6.1961
442.851166 82.615 6.5025
446.060242 82.628 6.8140
449.292572 82.646 7.1261
452.548340 82.668 7.4370
455.827698 82.693 7.7445
459.130798 82.722 8.0460
462.457855 82.756 8.3399
465.809021 82.794 8.6221
469.184448 82.835 8.8877
472.584381 82.880 9.1382
476.008911 82.926 9.3742
479.458252 82.974 9.5943
482.932617 83.026 9.7988
486.432159 83.080 9.9844
489.957031 83.137 10.1480
493.507477 83.195 10.2906
497.083618 83.253 10.4123
500.685699 83.313 10.5127
504.313873 83.374 10.5905
507.968323 83.435 10.6478
511.649292 83.495 10.6853
515.356934 83.555 10.7060
519.091370 83.614 10.7136
522.852966 83.673 10.7070
526.641724 83.733 10.6867
530.458008 83.793 10.6521
534.301941 83.852 10.6031
538.173706 83.912 10.5392
542.073547 83.972 10.4599
546.001648 84.032 10.3654
549.958191 84.091 10.2553
553.943420 84.149 10.1304
557.957520 84.207 9.9914
562.000671 84.264 9.8385
566.073181 84.321 9.6720
570.175171 84.377 9.4926
574.306885 84.432 9.3015
578.468567 84.486 9.0977
582.660400 84.540 8.8808
586.882568 84.594 8.6508
591.135376 84.646 8.4074
595.419006 84.697 8.1509
599.733643 84.748 7.8826
604.079590 84.799 7.6000
608.456970 84.849 7.3007
612.866089 84.897 6.9861
617.307190 84.943 6.6571
621.780457 84.988 6.3122
626.286133 85.033 5.9499
630.824463 85.077 5.5703
635.395691 85.116 5.1714
640.000000 85.153 4.7574
644.637695 85.187 4.3315
649.309021 85.217 3.8945
654.014160 85.244 3.4468
658.753418 85.267 2.9935
663.527039 85.285 2.5388
668.335205 85.299 2.0855
673.178284 85.310 1.6384
678.056396 85.319 1.1965
682.969849 85.326 0.7602
687.918945 85.331 0.3305
692.903870 85.333 -0.0908
697.924927 85.334 -0.5056
702.982422 85.335 -0.9142
708.076477 85.336 -1.3195
713.207520 85.336 -1.7237
718.375732 85.336 -2.1295
723.581360 85.336 -2.5395
728.824707 85.335 -2.9565
734.106079 85.334 -3.3840
739.425720 85.332 -3.8234
744.783936 85.329 -4.2774
750.180908 85.323 -4.7453
755.617065 85.314 -5.2287
761.092529 85.300 -5.7232
766.607727 85.282 -6.2260
772.162903 85.258 -6.7332
777.758301 85.229 -7.2418
783.394287 85.194 -7.7453
789.071045 85.153 -8.2370
794.789001 85.106 -8.7143
800.548340 85.056 -9.1730
806.349487 85.000 -9.6115
812.192627 84.940 -10.0282
818.078125 84.875 -10.4186
824.006226 84.806 -10.7783
829.977295 84.733 -11.1059
835.991699 84.658 -11.4003
842.049622 84.579 -11.6561
848.151428 84.496 -11.8693
854.297485 84.409 -12.0345
860.488098 84.322 -12.1449
866.723572 84.235 -12.2009
873.004211 84.149 -12.1999
879.330322 84.066 -12.1433
885.702332 83.987 -12.0293
892.120483 83.913 -11.8657
898.585144 83.848 -11.6555
905.096680 83.792 -11.4110
911.655396 83.747 -11.1412
918.261597 83.712 -10.8591
924.915710 83.689 -10.5761
931.618042 83.677 -10.3049
938.368896 83.675 -10.0596
945.168762 83.682 -9.8467
952.017822 83.696 -9.6761
958.916504 83.716 -9.5524
965.865234 83.740 -9.4844
972.864319 83.767 -9.4700
979.914062 83.792 -9.5114
987.014954 83.817 -9.6036
994.167236 83.840 -9.7430
1001.371399 83.860 -9.9263
1008.627747 83.875 -10.1517
1015.936646 83.885 -10.4108
1023.298584 83.888 -10.6973
1030.713867 83.884 -11.0040
1038.182739 83.873 -11.3235
1045.705933 83.856 -11.6496
1053.283447 83.832 -11.9769
1060.916016 83.801 -12.2957
1068.603882 83.762 -12.5958
1076.347412 83.716 -12.8729
1084.147095 83.667 -13.1188
1092.003296 83.615 -13.3343
1099.916382 83.560 -13.5171
1107.886841 83.503 -13.6684
1115.915039 83.447 -13.7869
1124.001343 83.391 -13.8787
1132.146362 83.338 -13.9480
1140.350342 83.286 -13.9998
1148.613770 83.237 -14.0409
1156.937134 83.188 -14.0709
1165.320801 83.139 -14.0922
1173.765137 83.091 -14.1040
1182.270752 83.044 -14.1059
1190.838013 82.997 -14.0990
1199.467285 82.951 -14.0843
1208.159180 82.905 -14.0611
1216.913940 82.860 -14.0283
1225.732178 82.815 -13.9882
1234.614380 82.773 -13.9419
1243.560913 82.731 -13.8922
1252.572266 82.690 -13.8425
1261.648926 82.650 -13.7922
1270.791382 82.610 -13.7418
1280.000000 82.570 -13.6912
1289.275391 82.529 -13.6411
1298.618042 82.487 -13.5892
1308.028320 82.444 -13.5342
1317.506836 82.399 -13.4733
1327.054077 82.352 -13.4042
1336.670410 82.303 -13.3233
1346.356567 82.253 -13.2270
1356.112793 82.201 -13.1125
1365.939697 82.148 -12.9764
1375.837891 82.094 -12.8167
1385.807739 82.039 -12.6312
1395.849854 81.984 -12.4169
1405.964844 81.930 -12.1694
1416.152954 81.878 -11.8911
1426.415039 81.829 -11.5821
1436.751465 81.784 -11.2453
1447.162720 81.742 -10.8831
1457.649414 81.705 -10.4976
1468.212158 81.674 -10.0886
1478.851440 81.650 -9.6656
1489.567871 81.635 -9.2347
1500.361816 81.627 -8.8056
1511.234131 81.627 -8.3872
1522.185059 81.635 -7.9887
1533.215454 81.650 -7.6205
1544.325806 81.671 -7.2884
1555.516602 81.697 -7.0011
1566.788574 81.725 -6.7599
1578.142090 81.753 -6.5714
1589.578003 81.780 -6.4285
1601.096680 81.803 -6.3290
1612.698975 81.822 -6.2652
1624.385254 81.836 -6.2318
1636.156250 81.843 -6.2190
1648.012451 81.843 -6.2186
1659.954590 81.835 -6.2200
1671.983398 81.820 -6.2121
1684.099243 81.799 -6.1881
1696.302856 81.773 -6.1396
1708.594971 81.741 -6.0604
1720.976196 81.705 -5.9427
1733.447144 81.665 -5.7838
1746.008423 81.625 -5.5776
1758.660645 81.584 -5.3261
1771.404663 81.544 -5.0283
1784.240967 81.507 -4.6875
1797.170288 81.474 -4.3047
1810.193359 81.445 -3.8857
1823.310791 81.422 -3.4359
1836.523193 81.403 -2.9579
1849.831421 81.389 -2.4559
1863.236084 81.380 -1.9304
1876.737793 81.378 -1.3823
1890.337524 81.382 -0.8155
1904.035645 81.392 -0.2344
1917.833008 81.408 0.3606
1931.730469 81.431 0.9682
1945.728638 81.462 1.5863
1959.828125 81.500 2.2140
1974.029907 81.546 2.8473
1988.334473 81.601 3.4829
2002.742798 81.665 4.1174
2017.255493 81.739 4.7493
2031.873291 81.824 5.3706
2046.597168 81.920 5.9766
2061.427734 82.029 6.5555
2076.365479 82.152 7.0977
2091.411865 82.286 7.5911
2106.566895 82.433 8.0246
2121.832031 82.591 8.3857
2137.207764 82.761 8.6611
2152.694824 82.938 8.8415
2168.294189 83.122 8.9141
2184.006592 83.310 8.8764
2199.832764 83.499 8.7227
2215.773682 83.687 8.4504
2231.830078 83.874 8.0526
2248.002686 84.054 7.5374
2264.292725 84.224 6.9052
2280.700684 84.382 6.1714
2297.227539 84.528 5.3482
2313.874268 84.659 4.4458
2330.641602 84.777 3.4724
2347.530273 84.879 2.4455
2364.541504 84.961 1.3807
2381.676025 85.028 0.2930
2398.934570 85.080 -0.7984
2416.318359 85.118 -1.8901
2433.827881 85.144 -2.9742
2451.464355 85.158 -4.0456
2469.228760 85.160 -5.0976
2487.121826 85.152 -6.1276
2505.144531 85.135 -7.1307
2523.297852 85.109 -8.1066
2541.582764 85.075 -9.0543
2560.000000 85.032 -9.9710
2578.550781 84.982 -10.8547
2597.236084 84.925 -11.7022
2616.056641 84.861 -12.5103
2635.013672 84.791 -13.2768
2654.108154 84.716 -13.9982
2673.340820 84.636 -14.6751
2692.713135 84.554 -15.3076
2712.225586 84.468 -15.8953
2731.879395 84.381 -16.4377
2751.675781 84.291 -16.9358
2771.615479 84.201 -17.3889
2791.699707 84.111 -17.8023
2811.929688 84.024 -18.1788
2832.305908 83.938 -18.5244
2852.830078 83.855 -18.8430
2873.502930 83.775 -19.1427
2894.325439 83.699 -19.4300
2915.298828 83.626 -19.7137
2936.424316 83.556 -20.0036
2957.702881 83.487 -20.3027
2979.135742 83.419 -20.6172
3000.723633 83.350 -20.9475
3022.468262 83.278 -21.2984
3044.370117 83.202 -21.6633
3066.430908 83.120 -22.0403
3088.651611 83.031 -22.4203
3111.033203 82.935 -22.7976
3133.577148 82.831 -23.1603
3156.284180 82.716 -23.4974
3179.156006 82.594 -23.8007
3202.193359 82.464 -24.0588
3225.397949 82.328 -24.2701
3248.770508 82.186 -24.4312
3272.312500 82.040 -24.5357
3296.024902 81.887 -24.5758
3319.909180 81.732 -24.5523
3343.966797 81.578 -24.4630
3368.198486 81.423 -24.3079
3392.605713 81.264 -24.0893
3417.189941 81.106 -23.7985
3441.952393 80.948 -23.4249
3466.894287 80.794 -22.9772
3492.016846 80.648 -22.4565
3517.321289 80.510 -21.8758
3542.809326 80.381 -21.2422
3568.481934 80.263 -20.5741
3594.340576 80.159 -19.8831
3620.386719 80.067 -19.1972
3646.621582 79.990 -18.5446
3673.046387 79.921 -17.9368
3699.662842 79.855 -17.3950
3726.472168 79.789 -16.9180
3753.475586 79.721 -16.5189
3780.675049 79.640 -16.1764
3808.071289 79.541 -15.8898
3835.666016 79.418 -15.6104
3863.460938 79.265 -15.3094
3891.457275 79.082 -14.9251
3919.656250 78.865 -14.4131
3948.059814 78.613 -13.6919
3976.668945 78.322 -12.6997
4005.485596 77.999 -11.3337
4034.510986 77.640 -9.4848
4063.746582 77.274 -7.1087
4093.194336 76.918 -4.1164
4122.855469 76.604 -0.5340
4152.730957 76.352 3.6990
4182.823730 76.221 8.4116
4213.133789 76.280 13.5474
4243.664062 76.521 18.8230
4274.415527 76.977 23.9989
4305.389648 77.595 28.8812
4336.588379 78.347 33.2384
4368.013184 79.190 36.9442
4399.665527 80.079 39.8001
4431.547363 80.980 41.7925
4463.660156 81.843 42.7903
4496.005371 82.661 42.9492
4528.585449 83.407 42.3292
4561.401367 84.084 41.0902
4594.455078 84.688 39.3738
4627.748535 85.222 37.2968
4661.283203 85.684 34.9969
4695.060547 86.083 32.5522
4729.083008 86.427 30.0765
4763.352051 86.723 27.5987
4797.869141 86.976 25.1795
4832.636719 87.195 22.8355
4867.655762 87.387 20.6074
4902.928711 87.560 18.4831
4938.457520 87.725 16.4756
4974.243652 87.886 14.5500
5010.289062 88.051 12.6912
5046.595703 88.220 10.8522
5083.165527 88.401 8.9949
5120.000000 88.587 7.0776
5157.101562 88.778 5.0511
5194.472168 88.966 2.8999
5232.113281 89.144 0.5894
5270.027344 89.306 -1.8713
5308.216309 89.446 -4.4921
5346.681641 89.560 -7.2502
5385.426270 89.641 -10.1405
5424.451172 89.686 -13.1183
5463.758789 89.687 -16.1516
5503.351562 89.648 -19.1962
5543.230957 89.569 -22.2069
5583.399414 89.451 -25.1538
5623.859375 89.295 -27.9993
5664.611816 89.105 -30.7210
5705.660156 88.884 -33.2871
5747.005859 88.635 -35.6891
5788.650879 88.364 -37.9072
5830.597656 88.074 -39.9410
5872.848633 87.769 -41.7796
5915.405762 87.454 -43.4359
5958.271484 87.134 -44.9134
6001.447266 86.812 -46.2306
6044.936523 86.490 -47.4042
6088.740234 86.169 -48.4441
6132.861816 85.848 -49.3626
6177.303223 85.529 -50.1692
6222.066406 85.214 -50.8773
6267.154297 84.900 -51.4872
6312.568359 84.583 -52.0094
6358.312012 84.264 -52.4262
6404.386719 83.937 -52.7288
6450.795898 83.607 -52.9005
6497.541016 83.273 -52.9259
6544.625000 82.937 -52.7921
6592.049805 82.598 -52.4839
6639.818359 82.262 -51.9920
6687.933594 81.932 -51.3004
6736.396973 81.615 -50.4141
6785.211426 81.314 -49.3263
6834.379883 81.037 -48.0570
6883.904785 80.791 -46.6124
6933.788574 80.581 -45.0275
6984.033691 80.416 -43.3241
7034.642578 80.298 -41.5480
7085.618652 80.235 -39.7323
7136.963867 80.228 -37.9369
7188.681152 80.284 -36.2080
7240.773438 80.400 -34.6205
7293.243164 80.579 -33.2430
7346.092773 80.809 -32.1407
7399.325684 81.082 -31.3842
7452.944336 81.385 -31.0257
7506.951172 81.711 -31.1337
7561.350098 82.039 -31.7296
7616.142578 82.351 -32.8706
7671.332031 82.631 -34.5182
7726.921875 82.858 -36.6790
7782.914551 83.024 -39.2736
7839.312500 83.119 -42.2666
7896.119629 83.130 -45.5342
7953.337891 83.045 -48.9944
8010.971191 82.860 -52.4857
8069.021973 82.567 -55.8672
8127.493164 82.173 -58.9934
8186.388672 81.679 -61.7056
8245.710938 81.094 -63.9020
8305.461914 80.421 -65.4426
8365.647461 79.678 -66.2835
8426.267578 78.876 -66.3272
8487.328125 78.043 -65.5949
8548.831055 77.199 -64.0396
8610.779297 76.380 -61.7708
8673.176758 75.622 -58.8253
8736.026367 74.948 -55.3768
8799.331055 74.394 -51.5633
8863.094727 73.955 -47.5306
8927.320312 73.643 -43.4408
8992.010742 73.440 -39.3842
9057.170898 73.342 -35.4950
9122.802734 73.320 -31.8029
9188.910156 73.349 -28.3997
9255.497070 73.413 -25.2315
9322.566406 73.484 -22.3025
9390.121094 73.562 -19.5294
9458.166016 73.634 -16.8478
9526.704102 73.711 -14.2030
9595.738281 73.794 -11.5173
9665.273438 73.899 -8.7945
9735.311523 74.039 -5.9893
9805.857422 74.224 -3.1732
9876.915039 74.476 -0.3783
9948.487305 74.782 2.3198
10020.578125 75.140 4.8542
10093.191406 75.545 7.1662
10166.331055 75.996 9.1861
10240.000000 76.474 10.8790
10314.203125 76.965 12.1761
10388.944336 77.457 13.1094
10464.226562 77.930 13.6763
10540.054688 78.390 13.9155
10616.432617 78.838 13.8578
10693.363281 79.269 13.5228
10770.852539 79.678 12.9310
10848.902344 80.065 12.1100
10927.517578 80.428 11.0944
11006.703125 80.768 9.8851
11086.461914 81.088 8.4912
11166.798828 81.378 6.9212
11247.718750 81.634 5.1741
11329.223633 81.853 3.2870
11411.320312 82.031 1.2821
11494.011719 82.166 -0.7956
11577.301758 82.256 -2.9111
11661.195312 82.302 -5.0115
11745.697266 82.303 -7.0431
11830.811523 82.266 -8.9729
11916.542969 82.196 -10.7528
12002.894531 82.098 -12.3745
12089.873047 81.978 -13.8096
12177.480469 81.843 -15.0703
12265.723633 81.700 -16.1534
12354.606445 81.552 -17.0774
12444.132812 81.403 -17.8542
12534.308594 81.256 -18.5018
12625.136719 81.112 -19.0390
12716.624023 80.971 -19.4749
12808.773438 80.832 -19.8249
12901.591797 80.695 -20.0887
12995.082031 80.559 -20.2722
13089.250000 80.425 -20.3727
13184.099609 80.293 -20.3907
13279.636719 80.164 -20.3236
13375.867188 80.037 -20.1693
13472.793945 79.915 -19.9266
13570.422852 79.798 -19.5912
13668.759766 79.691 -19.1707
13767.809570 79.595 -18.6691
13867.577148 79.510 -18.0935
13968.067383 79.438 -17.4511
14069.285156 79.380 -16.7472
14171.237305 79.338 -15.9858
14273.927734 79.313 -15.1774
14377.362305 79.307 -14.3301
14481.546875 79.321 -13.4546
14586.486328 79.356 -12.5589
14692.185547 79.415 -11.6582
14798.651367 79.500 -10.7612
14905.888672 79.613 -9.8959
15013.902344 79.758 -9.0805
15122.700195 79.935 -8.3538
15232.285156 80.146 -7.7461
15342.664062 80.386 -7.3011
15453.843750 80.657 -7.0597
15565.829102 80.948 -7.0622
15678.625000 81.257 -7.3560
15792.239258 81.571 -7.9608
15906.675781 81.879 -8.9180
16021.942383 82.170 -10.2101
16138.043945 82.433 -11.8489
16254.986328 82.659 -13.7869
16372.777344 82.838 -16.0052
16491.421875 82.965 -18.4301
16610.923828 83.033 -21.0087
16731.294922 83.040 -23.6585
16852.535156 82.984 -26.3019
16974.656250 82.870 -28.8698
17097.662109 82.698 -31.2832
17221.558594 82.476 -33.4943
17346.353516 82.209 -35.4334
17472.052734 81.907 -37.0869
17598.662109 81.579 -38.4084
17726.189453 81.239 -39.4279
17854.640625 80.899 -40.1419
17984.021484 80.566 -40.6060
18114.341797 80.251 -40.8600
18245.605469 79.954 -40.9499
18377.820312 79.679 -40.9276
18510.994141 79.423 -40.8149
18645.132812 79.185 -40.6526
18780.242188 78.958 -40.4343
18916.332031 78.737 -40.1791
19053.408203 78.516 -39.8511
19191.476562 78.288 -39.4263
19330.546875 78.060 -38.8873
19470.623047 77.837 -38.2016
19611.714844 77.625 -37.3909
19753.830078 77.431 -36.4558
19896.974609 77.257 -35.4275
