* Measurement data measured by REW V5.20.13
* Source: C:\Users\kurin\Desktop\Targets and Curves\Resolve\Img\Files\Focal clear_SPL.txt
* Format: Comma/Tab/Space delimited data
* Dated: Aug 14, 2023 3:38:53 PM
* REW Settings:
*  C-weighting compensation: Off
*  Target level: 75.0 dB
* Note: ; Measurement imported from C:\Users\kurin\Desktop\Targets and Curves\Resolve\Img\Files\Focal clear_SPL.txt Format: Comma/Tab/Space delimited data 623 values loaded, 5 Hz to 39,792 Hz log spaced 
* Measurement: Focal clear_SPL
* Smoothing: 1/48 octave
* Frequency Step: 1/96 octave
* Start Frequency: 5.000 Hz
*
* Freq(Hz) SPL(dB) Phase(degrees)
5.000000 76.554 24.9580
5.036232 76.562 24.9532
5.072727 76.571 24.9480
5.109486 76.581 24.9419
5.146511 76.593 24.9350
5.183805 76.607 24.9268
5.221369 76.622 24.9180
5.259205 76.638 24.9096
5.297316 76.655 24.9010
5.335702 76.673 24.8920
5.374367 76.691 24.8830
5.413311 76.709 24.8745
5.452538 76.728 24.8660
5.492050 76.746 24.8571
5.531847 76.764 24.8480
5.571934 76.782 24.8390
5.612310 76.800 24.8300
5.652979 76.818 24.8210
5.693943 76.837 24.8120
5.735204 76.855 24.8031
5.776763 76.873 24.7940
5.818624 76.891 24.7846
5.860788 76.909 24.7750
5.903258 76.927 24.7655
5.946035 76.945 24.7560
5.989123 76.964 24.7465
6.032523 76.982 24.7370
6.076237 77.000 24.7276
6.120268 77.018 24.7180
6.164618 77.036 24.7080
6.209289 77.054 24.6980
6.254284 77.073 24.6885
6.299605 77.091 24.6790
6.345255 77.109 24.6691
6.391235 77.127 24.6590
6.437549 77.145 24.6485
6.484198 77.163 24.6380
6.531185 77.181 24.6280
6.578513 77.199 24.6180
6.626183 77.217 24.6076
6.674199 77.236 24.5970
6.722563 77.254 24.5866
6.771278 77.272 24.5760
6.820345 77.290 24.5651
6.869768 77.308 24.5540
6.919549 77.326 24.5430
6.969691 77.344 24.5320
7.020196 77.362 24.5210
7.071068 77.381 24.5100
7.122308 77.399 24.4991
7.173919 77.417 24.4880
7.225904 77.435 24.4766
7.278266 77.453 24.4650
7.331007 77.471 24.4535
7.384131 77.490 24.4420
7.437639 77.508 24.4306
7.491535 77.526 24.4190
7.545822 77.544 24.4071
7.600502 77.562 24.3950
7.655579 77.580 24.3830
7.711054 77.598 24.3710
7.766932 77.616 24.3591
7.823214 77.635 24.3470
7.879904 77.653 24.3346
7.937005 77.671 24.3220
7.994520 77.689 24.3096
8.052452 77.707 24.2970
8.110803 77.725 24.2840
8.169578 77.744 24.2710
8.228777 77.762 24.2586
8.288406 77.780 24.2460
8.348468 77.798 24.2326
8.408964 77.816 24.2190
8.469899 77.834 24.2060
8.531276 77.852 24.1930
8.593097 77.870 24.1796
8.655366 77.889 24.1660
8.718086 77.907 24.1526
8.781260 77.925 24.1390
8.844893 77.943 24.1251
8.908987 77.961 24.1110
8.973545 77.979 24.0971
9.038571 77.998 24.0830
9.104069 78.016 24.0686
9.170040 78.034 24.0540
9.236490 78.052 24.0395
9.303422 78.070 24.0250
9.370838 78.088 24.0106
9.438744 78.106 23.9960
9.507140 78.124 23.9811
9.576033 78.143 23.9660
9.645425 78.161 23.9506
9.715320 78.179 23.9350
9.785721 78.197 23.9195
9.856632 78.215 23.9040
9.928058 78.233 23.8886
10.000000 78.252 23.8730
10.072464 78.270 23.8571
10.145453 78.288 23.8410
10.218971 78.306 23.8251
10.293022 78.324 23.8090
10.367610 78.342 23.7926
10.442738 78.360 23.7760
10.518411 78.379 23.7596
10.594631 78.397 23.7430
10.671404 78.415 23.7261
10.748734 78.433 23.7090
10.826623 78.451 23.6921
10.905077 78.469 23.6750
10.984100 78.487 23.6576
11.063695 78.505 23.6400
11.143867 78.523 23.6226
11.224621 78.542 23.6050
11.305959 78.560 23.5871
11.387886 78.578 23.5690
11.470407 78.596 23.5511
11.553527 78.614 23.5330
11.637249 78.632 23.5146
11.721577 78.651 23.4960
11.806517 78.669 23.4771
11.892071 78.687 23.4580
11.978246 78.705 23.4391
12.065045 78.723 23.4200
12.152473 78.741 23.4006
12.240536 78.759 23.3810
12.329235 78.777 23.3616
12.418578 78.796 23.3420
12.508568 78.814 23.3221
12.599211 78.832 23.3020
12.690510 78.850 23.2816
12.782471 78.868 23.2610
12.875097 78.886 23.2401
12.968395 78.905 23.2190
13.062370 78.923 23.1980
13.157025 78.941 23.1770
13.252366 78.959 23.1561
13.348398 78.977 23.1350
13.445127 78.995 23.1131
13.542556 79.013 23.0910
13.640691 79.031 23.0691
13.739536 79.050 23.0470
13.839099 79.068 23.0246
13.939383 79.086 23.0020
14.040393 79.104 22.9791
14.142136 79.122 22.9560
14.244616 79.140 22.9331
14.347837 79.159 22.9100
14.451808 79.177 22.8861
14.556532 79.195 22.8620
14.662014 79.213 22.8381
14.768262 79.231 22.8140
14.875278 79.249 22.7897
14.983070 79.267 22.7650
15.091644 79.285 22.7396
15.201005 79.304 22.7140
15.311157 79.322 22.6886
15.422109 79.340 22.6630
15.533863 79.358 22.6371
15.646428 79.376 22.6110
15.759809 79.394 22.5847
15.874010 79.412 22.5580
15.989040 79.430 22.5306
16.104904 79.449 22.5030
16.221605 79.467 22.4757
16.339155 79.485 22.4480
16.457554 79.503 22.4197
16.576813 79.521 22.3910
16.696936 79.539 22.3621
16.817928 79.558 22.3330
16.939798 79.576 22.3037
17.062551 79.594 22.2740
17.186193 79.612 22.2438
17.310732 79.630 22.2130
17.436172 79.648 22.1817
17.562521 79.666 22.1500
17.689787 79.684 22.1183
17.817974 79.703 22.0860
17.947090 79.721 22.0528
18.077143 79.739 22.0190
18.208138 79.757 21.9848
18.340080 79.775 21.9500
18.472980 79.793 21.9145
18.606844 79.812 21.8780
18.741676 79.830 21.8406
18.877487 79.848 21.8020
19.014280 79.866 21.7624
19.152065 79.884 21.7211
19.290850 79.902 21.6777
19.430639 79.920 21.6320
19.571442 79.938 21.5835
19.713264 79.956 21.5321
19.856115 79.973 21.4768
20.000000 79.989 21.4191
20.144928 80.004 21.3586
20.290907 80.018 21.2991
20.437943 80.030 21.2434
20.586044 80.040 21.1940
20.735220 80.049 21.1539
20.885475 80.057 21.1250
21.036821 80.064 21.1108
21.189262 80.072 21.1100
21.342808 80.082 21.1245
21.497467 80.094 21.1490
21.653246 80.109 21.1809
21.810154 80.126 21.2140
21.968201 80.147 21.2420
22.127390 80.171 21.2620
22.287735 80.196 21.2693
22.449242 80.222 21.2630
22.611917 80.249 21.2398
22.775772 80.275 21.2021
22.940815 80.300 21.1486
23.107054 80.323 21.0861
23.274498 80.342 21.0191
23.443153 80.359 20.9531
23.613033 80.374 20.8951
23.784142 80.387 20.8450
23.956491 80.400 20.8053
24.130091 80.414 20.7750
24.304947 80.428 20.7545
24.481071 80.442 20.7420
24.658470 80.458 20.7380
24.837156 80.476 20.7360
25.017136 80.497 20.7305
25.198421 80.520 20.7190
25.381020 80.543 20.6957
25.564941 80.565 20.6650
25.750195 80.586 20.6297
25.936790 80.607 20.5901
26.124741 80.629 20.5470
26.314051 80.650 20.5021
26.504732 80.668 20.4554
26.696796 80.685 20.4121
26.890253 80.702 20.3780
27.085112 80.719 20.3500
27.281382 80.738 20.3279
27.479073 80.758 20.3090
27.678198 80.779 20.2915
27.878765 80.801 20.2730
28.080786 80.825 20.2516
28.284271 80.851 20.2250
28.489231 80.877 20.1902
28.695675 80.904 20.1481
28.903616 80.931 20.0993
29.113064 80.959 20.0411
29.324028 80.988 19.9706
29.536524 81.016 19.8891
29.750557 81.043 19.7950
29.966141 81.068 19.6941
30.183289 81.091 19.5922
30.402010 81.113 19.4871
30.622314 81.136 19.3780
30.844217 81.158 19.2671
31.067726 81.177 19.1560
31.292856 81.195 19.0462
31.519617 81.213 18.9410
31.748020 81.232 18.8371
31.978081 81.251 18.7329
32.209808 81.270 18.6261
32.443211 81.289 18.5144
32.678310 81.309 18.3962
32.915108 81.328 18.2693
33.153625 81.347 18.1332
33.393871 81.365 17.9851
33.635857 81.381 17.8292
33.879597 81.393 17.6652
34.125103 81.401 17.5032
34.372387 81.404 17.3511
34.621464 81.403 17.2152
34.872345 81.400 17.1046
35.125042 81.396 17.0181
35.379574 81.392 16.9587
35.635948 81.390 16.9230
35.894180 81.390 16.9114
36.154285 81.394 16.9150
36.416275 81.404 16.9279
36.680161 81.418 16.9410
36.945961 81.436 16.9451
37.213688 81.458 16.9350
37.483353 81.483 16.9018
37.754974 81.509 16.8471
38.028561 81.534 16.7674
38.304131 81.558 16.6691
38.581699 81.579 16.5560
38.861279 81.598 16.4322
39.142883 81.614 16.3018
39.426529 81.628 16.1682
39.712231 81.639 16.0351
40.000000 81.648 15.9052
40.289856 81.655 15.7831
40.581814 81.661 15.6672
40.875885 81.667 15.5578
41.172089 81.672 15.4542
41.470440 81.677 15.3545
41.770950 81.681 15.2611
42.073643 81.683 15.1757
42.378525 81.684 15.0991
42.685616 81.685 15.0333
42.994934 81.687 14.9771
43.306492 81.689 14.9289
43.620308 81.692 14.8910
43.936401 81.693 14.8655
44.254780 81.695 14.8520
44.575470 81.700 14.8535
44.898483 81.708 14.8620
45.223835 81.720 14.8720
45.551544 81.735 14.8790
45.881630 81.752 14.8765
46.214108 81.770 14.8650
46.548996 81.790 14.8437
46.886307 81.811 14.8101
47.226067 81.834 14.7605
47.568283 81.856 14.6971
47.912983 81.877 14.6198
48.260181 81.896 14.5322
48.609894 81.915 14.4371
48.962143 81.932 14.3372
49.316940 81.947 14.2359
49.674313 81.961 14.1332
50.034271 81.976 14.0309
50.396843 81.990 13.9262
50.762039 82.004 13.8161
51.129883 82.018 13.7022
51.500389 82.030 13.5846
51.873581 82.041 13.4642
52.249481 82.052 13.3413
52.628101 82.061 13.2172
53.009464 82.068 13.0921
53.393593 82.073 12.9702
53.780506 82.076 12.8551
54.170223 82.078 12.7482
54.562763 82.080 12.6521
54.958145 82.081 12.5661
55.356396 82.082 12.4906
55.757530 82.083 12.4241
56.161572 82.086 12.3666
56.568542 82.090 12.3141
56.978462 82.096 12.2632
57.391350 82.103 12.2121
57.807232 82.111 12.1574
58.226128 82.119 12.1001
58.648056 82.127 12.0403
59.073048 82.135 11.9781
59.501114 82.143 11.9132
59.932281 82.151 11.8471
60.366577 82.158 11.7812
60.804020 82.165 11.7161
61.244629 82.173 11.6535
61.688435 82.181 11.5911
62.135452 82.189 11.5268
62.585712 82.198 11.4611
63.039234 82.206 11.3938
63.496040 82.214 11.3251
63.956161 82.223 11.2553
64.419617 82.231 11.1841
64.886421 82.239 11.1104
65.356621 82.246 11.0371
65.830215 82.252 10.9678
66.307251 82.259 10.9001
66.787743 82.267 10.8334
67.271713 82.275 10.7661
67.759193 82.283 10.6968
68.250206 82.291 10.6251
68.744774 82.299 10.5501
69.242928 82.307 10.4731
69.744690 82.314 10.3945
70.250084 82.320 10.3161
70.759148 82.325 10.2390
71.271896 82.330 10.1661
71.788361 82.334 10.1020
72.308571 82.338 10.0441
72.832550 82.343 9.9927
73.360321 82.350 9.9441
73.891922 82.358 9.8947
74.427376 82.368 9.8441
74.966705 82.378 9.7915
75.509949 82.389 9.7341
76.057121 82.402 9.6701
76.608261 82.416 9.5962
77.163399 82.430 9.5068
77.722557 82.444 9.4072
78.285767 82.455 9.3007
78.853058 82.464 9.1882
79.424461 82.474 9.0717
80.000000 82.482 8.9512
80.579712 82.488 8.8264
81.163628 82.493 8.7012
81.751770 82.496 8.5798
82.344177 82.498 8.4622
82.940880 82.499 8.3503
83.541901 82.500 8.2432
84.147285 82.500 8.1410
84.757050 82.500 8.0432
85.371231 82.500 7.9496
85.989868 82.500 7.8592
86.612984 82.500 7.7710
87.240616 82.500 7.6852
87.872803 82.500 7.6017
88.509560 82.500 7.5202
89.150940 82.500 7.4399
89.796967 82.500 7.3612
90.447670 82.500 7.2840
91.103088 82.500 7.2082
91.763260 82.500 7.1337
92.428215 82.500 7.0602
93.097992 82.500 6.9872
93.772614 82.500 6.9151
94.452133 82.500 6.8442
95.136566 82.500 6.7741
95.825966 82.500 6.7048
96.520363 82.500 6.6361
97.219788 82.500 6.5683
97.924286 82.500 6.5011
98.633881 82.500 6.4344
99.348625 82.500 6.3681
100.068542 82.500 6.3020
100.793686 82.500 6.2362
101.524078 82.500 6.1710
102.259766 82.500 6.1062
103.000778 82.500 6.0416
103.747162 82.500 5.9771
104.498962 82.500 5.9126
105.256203 82.500 5.8481
106.018929 82.500 5.7838
106.787186 82.500 5.7191
107.561012 82.500 5.6538
108.340446 82.500 5.5881
109.125526 82.500 5.5225
109.916290 82.500 5.4561
110.712791 82.500 5.3885
111.515060 82.500 5.3191
112.323143 82.500 5.2473
113.137085 82.500 5.1732
113.956924 82.499 5.0964
114.782700 82.498 5.0172
115.614464 82.496 4.9345
116.452255 82.493 4.8512
117.296112 82.488 4.7685
118.146095 82.482 4.6902
119.002228 82.474 4.6203
119.864563 82.466 4.5582
120.733154 82.458 4.5044
121.608040 82.450 4.4591
122.489258 82.442 4.4227
123.376869 82.434 4.3941
124.270905 82.428 4.3736
125.171425 82.423 4.3570
126.078468 82.420 4.3405
126.992081 82.418 4.3230
127.912323 82.417 4.3020
128.839233 82.416 4.2781
129.772842 82.416 4.2507
130.713242 82.416 4.2201
131.660431 82.416 4.1860
132.614502 82.416 4.1491
133.575485 82.416 4.1102
134.543427 82.416 4.0691
135.518387 82.416 4.0259
136.500412 82.416 3.9801
137.489548 82.416 3.9313
138.485855 82.416 3.8791
139.489380 82.416 3.8228
140.500168 82.415 3.7631
141.518295 82.414 3.7002
142.543793 82.411 3.6352
143.576721 82.407 3.5682
144.617142 82.401 3.5031
145.665100 82.394 3.4441
146.720642 82.386 3.3911
147.783844 82.378 3.3456
148.854752 82.370 3.3071
149.933411 82.362 3.2759
151.019897 82.354 3.2511
152.114243 82.347 3.2332
153.216522 82.342 3.2180
154.326797 82.338 3.2023
155.445114 82.335 3.1840
156.571533 82.333 3.1603
157.706116 82.331 3.1311
158.848923 82.329 3.0942
160.000000 82.326 3.0531
161.159424 82.321 3.0095
162.327255 82.314 2.9671
163.503540 82.306 2.9300
164.688354 82.298 2.8981
165.881760 82.290 2.8727
167.083801 82.282 2.8530
168.294571 82.274 2.8388
169.514099 82.266 2.8290
170.742462 82.259 2.8241
171.979736 82.253 2.8200
173.225967 82.249 2.8124
174.481232 82.245 2.8020
175.745605 82.240 2.7870
177.019119 82.234 2.7710
178.301880 82.227 2.7565
179.593933 82.220 2.7450
180.895340 82.212 2.7393
182.206177 82.204 2.7390
183.526520 82.196 2.7450
184.856430 82.188 2.7570
186.195984 82.181 2.7761
187.545227 82.175 2.7989
188.904266 82.171 2.8233
190.273132 82.168 2.8469
191.651932 82.166 2.8672
193.040726 82.164 2.8840
194.439575 82.163 2.8959
195.848572 82.163 2.9040
197.267761 82.162 2.9087
198.697250 82.161 2.9100
200.137085 82.160 2.9083
201.587372 82.159 2.9030
203.048157 82.158 2.8935
204.519531 82.157 2.8800
206.001556 82.156 2.8617
207.494324 82.153 2.8411
208.997925 82.149 2.8195
210.512405 82.143 2.8000
212.037857 82.136 2.7858
213.574371 82.129 2.7770
215.122025 82.122 2.7747
216.680893 82.114 2.7790
218.251053 82.106 2.7902
219.832581 82.098 2.8079
221.425583 82.092 2.8335
223.030121 82.087 2.8619
224.646286 82.084 2.8894
226.274170 82.082 2.9139
227.913849 82.081 2.9318
229.565399 82.080 2.9440
231.228928 82.079 2.9502
232.904510 82.078 2.9510
234.592224 82.077 2.9455
236.292191 82.074 2.9370
238.004456 82.069 2.9271
239.729126 82.062 2.9200
241.466309 82.055 2.9207
243.216080 82.047 2.9290
244.978516 82.039 2.9461
246.753738 82.031 2.9719
248.541809 82.023 3.0071
250.342850 82.017 3.0499
252.156937 82.012 3.1010
253.984161 82.010 3.1529
255.824646 82.012 3.2002
257.678467 82.016 3.2369
259.545685 82.022 3.2545
261.426483 82.028 3.2550
263.320862 82.034 3.2369
265.229004 82.038 3.2031
267.150970 82.039 3.1532
269.086853 82.037 3.0952
271.036774 82.031 3.0347
273.000824 82.021 2.9782
274.979095 82.008 2.9344
276.971710 81.994 2.9021
278.978760 81.979 2.8833
281.000336 81.964 2.8760
283.036591 81.948 2.8800
285.087585 81.932 2.8910
287.153442 81.919 2.9040
289.234283 81.905 2.9200
291.330200 81.888 2.9351
293.441284 81.869 2.9589
295.567688 81.848 2.9989
297.709503 81.825 3.0568
299.866821 81.803 3.1374
302.039795 81.781 3.2397
304.228485 81.759 3.3660
306.433044 81.740 3.5116
308.653595 81.726 3.6763
310.890228 81.717 3.8485
313.143066 81.713 4.0181
315.412231 81.713 4.1806
317.697845 81.716 4.3278
320.000000 81.721 4.4606
322.318848 81.727 4.5757
324.654510 81.733 4.6767
327.007080 81.737 4.7649
329.376709 81.740 4.8448
331.763519 81.742 4.9210
334.167603 81.743 4.9948
336.589142 81.744 5.0691
339.028198 81.744 5.1438
341.484924 81.744 5.2195
343.959473 81.744 5.2958
346.451935 81.744 5.3725
348.962463 81.744 5.4498
351.491211 81.744 5.5276
354.038239 81.744 5.6058
356.603760 81.744 5.6841
359.187866 81.744 5.7628
361.790680 81.744 5.8416
364.412354 81.744 5.9208
367.053040 81.744 6.0005
369.712860 81.744 6.0807
372.391968 81.744 6.1614
375.090454 81.744 6.2428
377.808533 81.744 6.3250
380.546265 81.744 6.4078
383.303864 81.744 6.4905
386.081451 81.744 6.5738
388.879150 81.744 6.6582
391.697144 81.744 6.7427
394.535522 81.744 6.8264
397.394501 81.744 6.9098
400.274170 81.744 6.9931
403.174744 81.743 7.0767
406.096313 81.741 7.1601
409.039062 81.738 7.2467
412.003113 81.734 7.3386
414.988647 81.728 7.4397
417.995850 81.721 7.5547
421.024811 81.714 7.6836
424.075714 81.708 7.8282
427.148743 81.702 7.9875
430.244049 81.698 8.1620
433.361786 81.696 8.3484
436.502106 81.698 8.5453
439.665161 81.703 8.7464
442.851166 81.712 8.9458
446.060242 81.725 9.1404
449.292572 81.740 9.3256
452.548340 81.756 9.5005
455.827698 81.774 9.6627
459.130798 81.793 9.8125
462.457855 81.813 9.9488
465.809021 81.833 10.0736
469.184448 81.853 10.1889
472.584381 81.873 10.2947
476.008911 81.892 10.3913
479.458252 81.911 10.4797
482.932617 81.930 10.5607
486.432159 81.948 10.6348
489.957031 81.965 10.7029
493.507477 81.982 10.7648
497.083618 81.998 10.8203
500.685699 82.013 10.8708
504.313873 82.026 10.9172
507.968323 82.038 10.9619
511.649292 82.048 11.0072
515.356934 82.057 11.0548
519.091370 82.064 11.1068
522.852966 82.070 11.1648
526.641724 82.074 11.2307
530.458008 82.077 11.3067
534.301941 82.079 11.3960
538.173706 82.082 11.4976
542.073547 82.085 11.6126
546.001648 82.089 11.7386
549.958191 82.095 11.8744
553.943420 82.102 12.0175
557.957520 82.111 12.1651
562.000671 82.122 12.3165
566.073181 82.134 12.4712
570.175171 82.147 12.6265
574.306885 82.163 12.7797
578.468567 82.180 12.9295
582.660400 82.198 13.0731
586.882568 82.217 13.2115
591.135376 82.236 13.3441
595.419006 82.255 13.4736
599.733643 82.274 13.6023
604.079590 82.293 13.7306
608.456970 82.313 13.8598
612.866089 82.333 13.9886
617.307190 82.354 14.1151
621.780457 82.375 14.2416
626.286133 82.395 14.3703
630.824463 82.416 14.4996
635.395691 82.439 14.6300
640.000000 82.464 14.7576
644.637695 82.490 14.8773
649.309021 82.516 14.9926
654.014160 82.541 15.1052
658.753418 82.566 15.2146
663.527039 82.592 15.3208
668.335205 82.618 15.4247
673.178284 82.643 15.5261
678.056396 82.667 15.6277
682.969849 82.692 15.7320
687.918945 82.717 15.8386
692.903870 82.741 15.9470
697.924927 82.766 16.0596
702.982422 82.790 16.1792
708.076477 82.816 16.3045
713.207520 82.843 16.4362
718.375732 82.872 16.5715
723.581360 82.902 16.7084
728.824707 82.935 16.8455
734.106079 82.969 16.9821
739.425720 83.006 17.1145
744.783936 83.045 17.2393
750.180908 83.086 17.3556
755.617065 83.127 17.4615
761.092529 83.169 17.5577
766.607727 83.212 17.6440
772.162903 83.255 17.7217
777.758301 83.297 17.7916
783.394287 83.340 17.8558
789.071045 83.383 17.9165
794.789001 83.426 17.9738
800.548340 83.469 18.0290
806.349487 83.513 18.0808
812.192627 83.558 18.1293
818.078125 83.605 18.1719
824.006226 83.653 18.2064
829.977295 83.702 18.2319
835.991699 83.751 18.2467
842.049622 83.801 18.2510
848.151428 83.851 18.2447
854.297485 83.901 18.2281
860.488098 83.951 18.2004
866.723572 84.000 18.1651
873.004211 84.047 18.1257
879.330322 84.094 18.0822
885.702332 84.142 18.0363
892.120483 84.191 17.9872
898.585144 84.239 17.9346
905.096680 84.288 17.8782
911.655396 84.338 17.8204
918.261597 84.391 17.7533
924.915710 84.446 17.6703
931.618042 84.503 17.5694
938.368896 84.559 17.4460
945.168762 84.616 17.3016
952.017822 84.671 17.1369
958.916504 84.726 16.9498
965.865234 84.780 16.7374
972.864319 84.831 16.5029
979.914062 84.877 16.2462
987.014954 84.920 15.9740
994.167236 84.958 15.6917
1001.371399 84.991 15.4040
1008.627747 85.019 15.1158
1015.936646 85.043 14.8322
1023.298584 85.062 14.5591
1030.713867 85.076 14.2998
1038.182739 85.087 14.0582
1045.705933 85.094 13.8389
1053.283447 85.098 13.6478
1060.916016 85.101 13.4856
1068.603882 85.102 13.3547
1076.347412 85.104 13.2553
1084.147095 85.106 13.1898
1092.003296 85.111 13.1551
1099.916382 85.119 13.1506
1107.886841 85.131 13.1709
1115.915039 85.149 13.2125
1124.001343 85.172 13.2678
1132.146362 85.202 13.3308
1140.350342 85.238 13.3928
1148.613770 85.282 13.4447
1156.937134 85.332 13.4809
1165.320801 85.386 13.4937
1173.765137 85.444 13.4801
1182.270752 85.506 13.4348
1190.838013 85.572 13.3574
1199.467285 85.638 13.2454
1208.159180 85.705 13.1006
1216.913940 85.772 12.9245
1225.732178 85.839 12.7158
1234.614380 85.906 12.4738
1243.560913 85.973 12.1981
1252.572266 86.037 11.8863
1261.648926 86.099 11.5444
1270.791382 86.156 11.1768
1280.000000 86.209 10.7866
1289.275391 86.259 10.3785
1298.618042 86.307 9.9518
1308.028320 86.351 9.5066
1317.506836 86.391 9.0450
1327.054077 86.427 8.5685
1336.670410 86.459 8.0799
1346.356567 86.486 7.5821
1356.112793 86.509 7.0759
1365.939697 86.527 6.5609
1375.837891 86.540 6.0432
1385.807739 86.546 5.5268
1395.849854 86.546 5.0170
1405.964844 86.542 4.5205
1416.152954 86.533 4.0368
1426.415039 86.520 3.5655
1436.751465 86.502 3.1127
1447.162720 86.478 2.6838
1457.649414 86.451 2.2806
1468.212158 86.422 1.9077
1478.851440 86.391 1.5613
1489.567871 86.359 1.2381
1500.361816 86.325 0.9411
1511.234131 86.288 0.6703
1522.185059 86.248 0.4310
1533.215454 86.207 0.2284
1544.325806 86.165 0.0636
1555.516602 86.125 -0.0586
1566.788574 86.086 -0.1437
1578.142090 86.051 -0.1944
1589.578003 86.020 -0.2150
1601.096680 85.992 -0.2079
1612.698975 85.970 -0.1811
1624.385254 85.955 -0.1403
1636.156250 85.946 -0.0952
1648.012451 85.944 -0.0559
1659.954590 85.946 -0.0281
1671.983398 85.952 -0.0201
1684.099243 85.961 -0.0339
1696.302856 85.971 -0.0774
1708.594971 85.980 -0.1407
1720.976196 85.984 -0.2210
1733.447144 85.985 -0.3046
1746.008423 85.981 -0.3785
1758.660645 85.974 -0.4378
1771.404663 85.966 -0.4732
1784.240967 85.958 -0.4850
1797.170288 85.951 -0.4695
1810.193359 85.945 -0.4302
1823.310791 85.943 -0.3673
1836.523193 85.945 -0.2873
1849.831421 85.952 -0.1940
1863.236084 85.965 -0.0964
1876.737793 85.985 -0.0017
1890.337524 86.010 0.0807
1904.035645 86.040 0.1382
1917.833008 86.072 0.1719
1931.730469 86.104 0.1760
1945.728638 86.136 0.1591
1959.828125 86.165 0.1266
1974.029907 86.193 0.0832
1988.334473 86.219 0.0340
2002.742798 86.243 -0.0168
2017.255493 86.264 -0.0653
2031.873291 86.283 -0.1049
2046.597168 86.300 -0.1283
2061.427734 86.317 -0.1340
2076.365479 86.335 -0.1166
2091.411865 86.354 -0.0812
2106.566895 86.377 -0.0309
2121.832031 86.402 0.0327
2137.207764 86.429 0.1062
2152.694824 86.459 0.1916
2168.294189 86.491 0.2904
2184.006592 86.527 0.4005
2199.832764 86.567 0.5208
2215.773682 86.612 0.6505
2231.830078 86.660 0.7888
2248.002686 86.714 0.9334
2264.292725 86.774 1.0836
2280.700684 86.841 1.2334
2297.227539 86.914 1.3790
2313.874268 86.996 1.5125
2330.641602 87.086 1.6271
2347.530273 87.184 1.7157
2364.541504 87.287 1.7695
2381.676025 87.396 1.7860
2398.934570 87.511 1.7595
2416.318359 87.629 1.6904
2433.827881 87.750 1.5773
2451.464355 87.873 1.4207
2469.228760 87.999 1.2207
2487.121826 88.125 0.9781
2505.144531 88.254 0.6939
2523.297852 88.383 0.3676
2541.582764 88.514 0.0004
2560.000000 88.645 -0.4111
2578.550781 88.779 -0.8692
2597.236084 88.912 -1.3755
2616.056641 89.045 -1.9342
2635.013672 89.176 -2.5403
2654.108154 89.304 -3.1895
2673.340820 89.430 -3.8839
2692.713135 89.557 -4.6242
2712.225586 89.680 -5.4112
2731.879395 89.800 -6.2476
2751.675781 89.916 -7.1278
2771.615479 90.028 -8.0468
2791.699707 90.135 -9.0057
2811.929688 90.238 -10.0041
2832.305908 90.337 -11.0410
2852.830078 90.429 -12.1167
2873.502930 90.515 -13.2261
2894.325439 90.594 -14.3652
2915.298828 90.667 -15.5306
2936.424316 90.733 -16.7190
2957.702881 90.792 -17.9257
2979.135742 90.843 -19.1458
3000.723633 90.887 -20.3776
3022.468262 90.926 -21.6200
3044.370117 90.958 -22.8662
3066.430908 90.981 -24.1121
3088.651611 90.998 -25.3495
3111.033203 91.008 -26.5665
3133.577148 91.016 -27.7703
3156.284180 91.024 -28.9610
3179.156006 91.032 -30.1474
3202.193359 91.039 -31.3354
3225.397949 91.046 -32.5333
3248.770508 91.054 -33.7486
3272.312500 91.062 -34.9884
3296.024902 91.069 -36.2615
3319.909180 91.074 -37.5699
3343.966797 91.075 -38.9187
3368.198486 91.071 -40.3063
3392.605713 91.062 -41.7329
3417.189941 91.046 -43.1981
3441.952393 91.023 -44.7026
3466.894287 90.992 -46.2430
3492.016846 90.951 -47.8167
3517.321289 90.901 -49.4225
3542.809326 90.841 -51.0562
3568.481934 90.771 -52.7242
3594.340576 90.693 -54.4326
3620.386719 90.600 -56.1786
3646.621582 90.491 -57.9661
3673.046387 90.363 -59.7803
3699.662842 90.214 -61.6137
3726.472168 90.042 -63.4475
3753.475586 89.844 -65.2769
3780.675049 89.616 -67.0532
3808.071289 89.351 -68.7440
3835.666016 89.053 -70.2950
3863.460938 88.719 -71.6563
3891.457275 88.356 -72.7813
3919.656250 87.961 -73.6150
3948.059814 87.547 -74.1324
3976.668945 87.119 -74.2784
4005.485596 86.695 -74.0887
4034.510986 86.293 -73.5585
4063.746582 85.921 -72.7554
4093.194336 85.591 -71.7211
4122.855469 85.309 -70.5301
4152.730957 85.088 -69.2474
4182.823730 84.921 -67.9441
4213.133789 84.811 -66.7018
4243.664062 84.744 -65.5541
4274.415527 84.712 -64.5631
4305.389648 84.705 -63.7257
4336.588379 84.711 -63.0684
4368.013184 84.723 -62.5641
4399.665527 84.731 -62.2047
4431.547363 84.735 -61.9590
4463.660156 84.730 -61.8000
4496.005371 84.717 -61.7054
4528.585449 84.694 -61.6496
4561.401367 84.662 -61.6151
4594.455078 84.622 -61.5792
4627.748535 84.576 -61.5313
4661.283203 84.526 -61.4539
4695.060547 84.473 -61.3456
4729.083008 84.422 -61.1989
4763.352051 84.372 -61.0150
4797.869141 84.325 -60.7927
4832.636719 84.283 -60.5324
4867.655762 84.247 -60.2295
4902.928711 84.221 -59.8967
4938.457520 84.208 -59.5405
4974.243652 84.208 -59.1747
5010.289062 84.221 -58.8119
5046.595703 84.247 -58.4627
5083.165527 84.287 -58.1387
5120.000000 84.340 -57.8503
5157.101562 84.405 -57.6116
5194.472168 84.481 -57.4238
5232.113281 84.565 -57.2920
5270.027344 84.659 -57.2182
5308.216309 84.762 -57.2055
5346.681641 84.874 -57.2556
5385.426270 84.995 -57.3657
5424.451172 85.129 -57.5519
5463.758789 85.281 -57.8182
5503.351562 85.449 -58.1988
5543.230957 85.635 -58.7129
5583.399414 85.837 -59.4101
5623.859375 86.059 -60.3364
5664.611816 86.285 -61.5225
5705.660156 86.504 -63.0203
5747.005859 86.706 -64.8120
5788.650879 86.877 -66.9118
5830.597656 87.011 -69.2732
5872.848633 87.099 -71.8822
5915.405762 87.133 -74.6544
5958.271484 87.100 -77.5334
6001.447266 87.004 -80.4202
6044.936523 86.841 -83.2179
6088.740234 86.621 -85.8642
6132.861816 86.349 -88.2730
6177.303223 86.034 -90.4200
6222.066406 85.681 -92.2469
6267.154297 85.306 -93.7691
6312.568359 84.921 -94.9717
6358.312012 84.533 -95.8881
6404.386719 84.148 -96.5356
6450.795898 83.773 -96.9484
6497.541016 83.418 -97.1576
6544.625000 83.081 -97.1902
6592.049805 82.763 -97.0798
6639.818359 82.464 -96.8385
6687.933594 82.186 -96.4872
6736.396973 81.927 -96.0336
6785.211426 81.687 -95.4910
6834.379883 81.466 -94.8634
6883.904785 81.264 -94.1545
6933.788574 81.086 -93.3791
6984.033691 80.935 -92.5456
7034.642578 80.813 -91.6784
7085.618652 80.722 -90.7935
7136.963867 80.665 -89.9253
7188.681152 80.647 -89.0963
7240.773438 80.666 -88.3574
7293.243164 80.726 -87.7486
7346.092773 80.821 -87.3246
7399.325684 80.952 -87.1385
7452.944336 81.106 -87.2357
7506.951172 81.278 -87.6714
7561.350098 81.453 -88.4699
7616.142578 81.622 -89.6788
7671.332031 81.768 -91.2827
7726.921875 81.877 -93.3059
7782.914551 81.936 -95.6760
7839.312500 81.929 -98.3698
7896.119629 81.849 -101.2653
7953.337891 81.682 -104.2856
8010.971191 81.426 -107.2716
8069.021973 81.068 -110.0892
8127.493164 80.617 -112.5849
8186.388672 80.070 -114.5843
8245.710938 79.445 -116.0151
8305.461914 78.752 -116.7515
8365.647461 78.008 -116.7818
8426.267578 77.221 -116.0340
8487.328125 76.431 -114.5646
8548.831055 75.669 -112.3514
8610.779297 74.967 -109.5601
8673.176758 74.372 -106.3032
8736.026367 73.877 -102.7210
8799.331055 73.499 -98.9697
8863.094727 73.226 -95.1145
8927.320312 73.058 -91.2513
8992.010742 72.987 -87.4429
9057.170898 73.010 -83.7735
9122.802734 73.111 -80.2740
9188.910156 73.273 -76.9923
9255.497070 73.499 -73.9606
9322.566406 73.789 -71.2071
9390.121094 74.129 -68.7928
9458.166016 74.510 -66.7857
9526.704102 74.907 -65.1933
9595.738281 75.299 -64.0661
9665.273438 75.671 -63.3408
9735.311523 76.002 -63.0040
9805.857422 76.292 -62.9546
9876.915039 76.533 -63.1233
9948.487305 76.733 -63.4004
10020.578125 76.887 -63.6703
10093.191406 77.018 -63.8801
10166.331055 77.140 -63.9200
10240.000000 77.271 -63.8467
10314.203125 77.437 -63.6489
10388.944336 77.636 -63.4230
10464.226562 77.877 -63.2372
10540.054688 78.151 -63.1659
10616.432617 78.459 -63.2961
10693.363281 78.786 -63.6600
10770.852539 79.121 -64.3206
10848.902344 79.458 -65.2720
10927.517578 79.790 -66.5302
11006.703125 80.111 -68.0907
11086.461914 80.419 -69.9581
11166.798828 80.704 -72.1222
11247.718750 80.960 -74.5838
11329.223633 81.178 -77.3153
11411.320312 81.353 -80.3026
11494.011719 81.478 -83.5051
11577.301758 81.550 -86.9046
11661.195312 81.560 -90.4203
11745.697266 81.498 -93.9913
11830.811523 81.370 -97.5390
11916.542969 81.176 -100.9760
12002.894531 80.924 -104.2672
12089.873047 80.619 -107.3522
12177.480469 80.266 -110.2204
12265.723633 79.873 -112.8500
12354.606445 79.440 -115.2150
12444.132812 78.968 -117.2968
12534.308594 78.463 -119.0515
12625.136719 77.927 -120.4291
12716.624023 77.368 -121.4278
12808.773438 76.797 -122.0324
12901.591797 76.211 -122.2330
12995.082031 75.605 -122.0199
13089.250000 74.995 -121.3763
13184.099609 74.389 -120.2602
13279.636719 73.812 -118.7388
13375.867188 73.293 -116.8455
13472.793945 72.825 -114.6413
13570.422852 72.407 -112.1885
13668.759766 72.050 -109.5165
13767.809570 71.761 -106.6560
13867.577148 71.542 -103.6647
13968.067383 71.401 -100.5929
14069.285156 71.335 -97.4926
14171.237305 71.343 -94.4158
14273.927734 71.425 -91.4116
14377.362305 71.586 -88.5305
14481.546875 71.818 -85.8195
14586.486328 72.116 -83.3213
14692.185547 72.481 -81.0990
14798.651367 72.917 -79.2081
14905.888672 73.409 -77.7174
15013.902344 73.945 -76.7002
15122.700195 74.510 -76.1983
15232.285156 75.089 -76.2640
15342.664062 75.668 -76.9370
15453.843750 76.233 -78.2853
15565.829102 76.758 -80.2775
15678.625000 77.215 -82.9432
15792.239258 77.594 -86.1632
15906.675781 77.880 -89.8859
16021.942383 78.063 -93.9364
16138.043945 78.129 -98.1901
16254.986328 78.082 -102.4426
16372.777344 77.915 -106.4881
16491.421875 77.650 -110.2046
16610.923828 77.299 -113.4111
16731.294922 76.879 -116.0802
16852.535156 76.398 -118.1031
16974.656250 75.896 -119.5440
17097.662109 75.402 -120.3697
17221.558594 74.948 -120.7646
17346.353516 74.580 -120.8508
17472.052734 74.284 -120.7875
17598.662109 74.063 -120.7523
17726.189453 73.901 -120.8142
17854.640625 73.792 -121.0990
17984.021484 73.708 -121.6115
18114.341797 73.629 -122.4230
18245.605469 73.535 -123.4576
18377.820312 73.403 -124.7036
18510.994141 73.228 -126.0362
18645.132812 72.992 -127.3615
18780.242188 72.706 -128.5729
18916.332031 72.366 -129.5406
19053.408203 71.992 -130.2409
19191.476562 71.596 -130.5968
19330.546875 71.190 -130.6396
19470.623047 70.787 -130.3559
19611.714844 70.402 -129.8058
19753.830078 70.052 -129.0180
19896.974609 69.742 -128.0751
