* Measurement data measured by REW V5.20.13
* Source: C:\Users\kurin\Desktop\Targets and Curves\Resolve\Img\Files\Sonoma Model One_SPL.txt
* Format: Comma/Tab/Space delimited data
* Dated: Aug 14, 2023 6:36:32 PM
* REW Settings:
*  C-weighting compensation: Off
*  Target level: 75.0 dB
* Note: ; Measurement imported from C:\Users\kurin\Desktop\Targets and Curves\Resolve\Img\Files\Sonoma Model One_SPL.txt Format: Comma/Tab/Space delimited data 623 values loaded, 5 Hz to 39,792 Hz log spaced 
* Measurement: Sonoma Model One_SPL
* Smoothing: 1/48 octave
* Frequency Step: 1/96 octave
* Start Frequency: 5.000 Hz
*
* Freq(Hz) SPL(dB) Phase(degrees)
5.000000 85.501 -15.3360
5.036232 85.496 -15.3293
5.072727 85.490 -15.3220
5.109486 85.483 -15.3131
5.146511 85.475 -15.3030
5.183805 85.466 -15.2914
5.221369 85.456 -15.2790
5.259205 85.445 -15.2663
5.297316 85.434 -15.2530
5.335702 85.422 -15.2386
5.374367 85.410 -15.2240
5.413311 85.398 -15.2100
5.452538 85.386 -15.1960
5.492050 85.375 -15.1816
5.531847 85.363 -15.1670
5.571934 85.351 -15.1526
5.612310 85.339 -15.1380
5.652979 85.327 -15.1231
5.693943 85.315 -15.1080
5.735204 85.303 -15.0931
5.776763 85.291 -15.0780
5.818624 85.279 -15.0626
5.860788 85.267 -15.0470
5.903258 85.255 -15.0315
5.946035 85.243 -15.0160
5.989123 85.231 -15.0006
6.032523 85.219 -14.9850
6.076237 85.208 -14.9691
6.120268 85.196 -14.9530
6.164618 85.184 -14.9371
6.209289 85.172 -14.9210
6.254284 85.160 -14.9046
6.299605 85.148 -14.8880
6.345255 85.136 -14.8710
6.391235 85.124 -14.8540
6.437549 85.112 -14.8376
6.484198 85.100 -14.8210
6.531185 85.088 -14.8036
6.578513 85.076 -14.7860
6.626183 85.064 -14.7685
6.674199 85.052 -14.7510
6.722563 85.041 -14.7336
6.771278 85.029 -14.7160
6.820345 85.017 -14.6981
6.869768 85.005 -14.6800
6.919549 84.993 -14.6621
6.969691 84.981 -14.6440
7.020196 84.969 -14.6251
7.071068 84.957 -14.6060
7.122308 84.945 -14.5875
7.173919 84.933 -14.5690
7.225904 84.921 -14.5501
7.278266 84.909 -14.5310
7.331007 84.897 -14.5116
7.384131 84.885 -14.4920
7.437639 84.874 -14.4721
7.491535 84.862 -14.4520
7.545822 84.850 -14.4320
7.600502 84.838 -14.4120
7.655579 84.826 -14.3921
7.711054 84.814 -14.3720
7.766932 84.802 -14.3511
7.823214 84.790 -14.3300
7.879904 84.778 -14.3090
7.937005 84.766 -14.2880
7.994520 84.754 -14.2671
8.052452 84.742 -14.2460
8.110803 84.730 -14.2247
8.169578 84.718 -14.2030
8.228777 84.707 -14.1806
8.288406 84.695 -14.1580
8.348468 84.683 -14.1361
8.408964 84.671 -14.1140
8.469899 84.659 -14.0911
8.531276 84.647 -14.0680
8.593097 84.635 -14.0451
8.655366 84.623 -14.0220
8.718086 84.611 -13.9986
8.781260 84.599 -13.9750
8.844893 84.587 -13.9516
8.908987 84.575 -13.9280
8.973545 84.563 -13.9036
9.038571 84.551 -13.8790
9.104069 84.540 -13.8546
9.170040 84.528 -13.8300
9.236490 84.516 -13.8051
9.303422 84.504 -13.7800
9.370838 84.492 -13.7546
9.438744 84.480 -13.7290
9.507140 84.468 -13.7031
9.576033 84.456 -13.6770
9.645425 84.444 -13.6506
9.715320 84.432 -13.6240
9.785721 84.420 -13.5976
9.856632 84.408 -13.5710
9.928058 84.396 -13.5436
10.000000 84.384 -13.5160
10.072464 84.373 -13.4886
10.145453 84.361 -13.4610
10.218971 84.349 -13.4326
10.293022 84.337 -13.4040
10.367610 84.325 -13.3756
10.442738 84.313 -13.3470
10.518411 84.301 -13.3176
10.594631 84.289 -13.2880
10.671404 84.277 -13.2586
10.748734 84.265 -13.2290
10.826623 84.253 -13.1986
10.905077 84.241 -13.1680
10.984100 84.229 -13.1376
11.063695 84.217 -13.1070
11.143867 84.206 -13.0757
11.224621 84.194 -13.0440
11.305959 84.182 -13.0121
11.387886 84.170 -12.9800
11.470407 84.158 -12.9476
11.553527 84.146 -12.9150
11.637249 84.134 -12.8822
11.721577 84.122 -12.8490
11.806517 84.110 -12.8152
11.892071 84.098 -12.7810
11.978246 84.086 -12.7466
12.065045 84.074 -12.7120
12.152473 84.062 -12.6772
12.240536 84.050 -12.6420
12.329235 84.039 -12.6062
12.418578 84.027 -12.5700
12.508568 84.015 -12.5337
12.599211 84.003 -12.4970
12.690510 83.991 -12.4602
12.782471 83.979 -12.4230
12.875097 83.967 -12.3852
12.968395 83.955 -12.3470
13.062370 83.943 -12.3088
13.157025 83.931 -12.2700
13.252366 83.919 -12.2302
13.348398 83.907 -12.1900
13.445127 83.895 -12.1502
13.542556 83.883 -12.1100
13.640691 83.872 -12.0688
13.739536 83.860 -12.0270
13.839099 83.848 -11.9853
13.939383 83.836 -11.9430
14.040393 83.824 -11.8998
14.142136 83.812 -11.8560
14.244616 83.800 -11.8123
14.347837 83.788 -11.7680
14.451808 83.776 -11.7228
14.556532 83.764 -11.6770
14.662014 83.752 -11.6313
14.768262 83.740 -11.5851
14.875278 83.728 -11.5379
14.983070 83.716 -11.4901
15.091644 83.705 -11.4419
15.201005 83.693 -11.3930
15.311157 83.681 -11.3433
15.422109 83.669 -11.2930
15.533863 83.657 -11.2424
15.646428 83.645 -11.1910
15.759809 83.633 -11.1384
15.874010 83.621 -11.0850
15.989040 83.609 -11.0314
16.104904 83.597 -10.9770
16.221605 83.585 -10.9216
16.339155 83.573 -10.8651
16.457554 83.561 -10.8075
16.576813 83.549 -10.7490
16.696936 83.537 -10.6900
16.817928 83.525 -10.6300
16.939798 83.514 -10.5687
17.062551 83.502 -10.5061
17.186193 83.490 -10.4422
17.310732 83.478 -10.3770
17.436172 83.466 -10.3108
17.562521 83.454 -10.2430
17.689787 83.442 -10.1734
17.817974 83.430 -10.1021
17.947090 83.418 -10.0291
18.077143 83.406 -9.9540
18.208138 83.394 -9.8764
18.340080 83.382 -9.7961
18.472980 83.370 -9.7132
18.606844 83.358 -9.6271
18.741676 83.347 -9.5373
18.877487 83.335 -9.4431
19.014280 83.323 -9.3441
19.152065 83.311 -9.2381
19.290850 83.299 -9.1232
19.430639 83.287 -8.9981
19.571442 83.277 -8.8605
19.713264 83.269 -8.7112
19.856115 83.263 -8.5476
20.000000 83.260 -8.3772
20.144928 83.264 -8.2017
20.290907 83.274 -8.0352
20.437943 83.292 -7.8879
20.586044 83.315 -7.7731
20.735220 83.344 -7.7052
20.885475 83.375 -7.6910
21.036821 83.407 -7.7440
21.189262 83.436 -7.8578
21.342808 83.457 -8.0384
21.497467 83.467 -8.2627
21.653246 83.462 -8.5197
21.810154 83.443 -8.7797
21.968201 83.407 -9.0175
22.127390 83.358 -9.2088
22.287735 83.295 -9.3247
22.449242 83.224 -9.3540
22.611917 83.148 -9.2729
22.775772 83.074 -9.0913
22.940815 83.008 -8.8008
23.107054 82.953 -8.4325
23.274498 82.917 -8.0026
23.443153 82.898 -7.5476
23.613033 82.901 -7.1014
23.784142 82.921 -6.6893
23.956491 82.954 -6.3456
24.130091 82.997 -6.0773
24.304947 83.045 -5.9059
24.481071 83.092 -5.8221
24.658470 83.133 -5.8342
24.837156 83.164 -5.9099
25.017136 83.178 -6.0297
25.198421 83.178 -6.1619
25.381020 83.163 -6.2733
25.564941 83.138 -6.3490
25.750195 83.104 -6.3646
25.936790 83.065 -6.3151
26.124741 83.024 -6.1827
26.314051 82.986 -5.9813
26.504732 82.958 -5.7111
26.696796 82.939 -5.3954
26.890253 82.933 -5.0513
27.085112 82.939 -4.6984
27.281382 82.959 -4.3560
27.479073 82.991 -4.0414
27.678198 83.034 -3.7760
27.878765 83.084 -3.5662
28.080786 83.138 -3.4272
28.284271 83.194 -3.3541
28.489231 83.248 -3.3505
28.695675 83.299 -3.4059
28.903616 83.343 -3.5151
29.113064 83.381 -3.6658
29.324028 83.411 -3.8467
29.536524 83.434 -4.0488
29.750557 83.450 -4.2617
29.966141 83.459 -4.4778
30.183289 83.461 -4.6866
30.402010 83.457 -4.8858
30.622314 83.450 -5.0685
30.844217 83.440 -5.2368
31.067726 83.428 -5.3885
31.292856 83.415 -5.5288
31.519617 83.402 -5.6611
31.748020 83.387 -5.7888
31.978081 83.371 -5.9164
32.209808 83.354 -6.0448
32.443211 83.335 -6.1784
32.678310 83.313 -6.3118
32.915108 83.285 -6.4445
33.153625 83.252 -6.5669
33.393871 83.214 -6.6740
33.635857 83.169 -6.7519
33.879597 83.116 -6.7881
34.125103 83.059 -6.7731
34.372387 83.000 -6.6897
34.621464 82.943 -6.5483
34.872345 82.892 -6.3489
35.125042 82.848 -6.1053
35.379574 82.812 -5.8260
35.635948 82.784 -5.5274
35.894180 82.768 -5.2243
36.154285 82.760 -4.9304
36.416275 82.760 -4.6650
36.680161 82.765 -4.4263
36.945961 82.770 -4.2224
37.213688 82.776 -4.0433
37.483353 82.779 -3.8863
37.754974 82.781 -3.7382
38.028561 82.779 -3.5852
38.304131 82.776 -3.4262
38.581699 82.776 -3.2526
38.861279 82.778 -3.0733
39.142883 82.784 -2.8919
39.426529 82.794 -2.7152
39.712231 82.809 -2.5474
40.000000 82.829 -2.4002
40.289856 82.854 -2.2848
40.581814 82.882 -2.2081
40.875885 82.911 -2.1824
41.172089 82.939 -2.2029
41.470440 82.962 -2.2728
41.770950 82.980 -2.3808
42.073643 82.989 -2.5220
42.378525 82.989 -2.6808
42.685616 82.979 -2.8443
42.994934 82.959 -2.9998
43.306492 82.931 -3.1333
43.620308 82.894 -3.2359
43.936401 82.850 -3.2963
44.254780 82.800 -3.3080
44.575470 82.747 -3.2588
44.898483 82.692 -3.1542
45.223835 82.640 -2.9914
45.551544 82.591 -2.7843
45.881630 82.549 -2.5451
46.214108 82.510 -2.2764
46.548996 82.473 -1.9852
46.886307 82.438 -1.6705
47.226067 82.407 -1.3336
47.568283 82.379 -0.9746
47.912983 82.352 -0.5967
48.260181 82.328 -0.1917
48.609894 82.305 0.2480
48.962143 82.286 0.7213
49.316940 82.274 1.2339
49.674313 82.271 1.7721
50.034271 82.279 2.3275
50.396843 82.297 2.8891
50.762039 82.325 3.4497
51.129883 82.365 3.9901
51.500389 82.420 4.4935
51.873581 82.485 4.9453
52.249481 82.556 5.3229
52.628101 82.629 5.6325
53.009464 82.701 5.8703
53.393593 82.770 6.0448
53.780506 82.835 6.1574
54.170223 82.892 6.2259
54.562763 82.937 6.2597
54.958145 82.972 6.2850
55.356396 82.994 6.3256
55.757530 83.006 6.3979
56.161572 83.012 6.5226
56.568542 83.013 6.7096
56.978462 83.010 6.9755
57.391350 83.008 7.3203
57.807232 83.014 7.7548
58.226128 83.030 8.2641
58.648056 83.060 8.8458
59.073048 83.109 9.4719
59.501114 83.182 10.1261
59.932281 83.278 10.7709
60.366577 83.400 11.3729
60.804020 83.544 11.9032
61.244629 83.707 12.3269
61.688435 83.885 12.6286
62.135452 84.071 12.7803
62.585712 84.262 12.7841
63.039234 84.449 12.6261
63.496040 84.631 12.3266
63.956161 84.799 11.8927
64.419617 84.955 11.3510
64.886421 85.094 10.7237
65.356621 85.218 10.0322
65.830215 85.327 9.3031
66.307251 85.423 8.5445
66.787743 85.508 7.7737
67.271713 85.584 6.9905
67.759193 85.652 6.2008
68.250206 85.712 5.4035
68.744774 85.765 4.5998
69.242928 85.811 3.7885
69.744690 85.850 2.9684
70.250084 85.883 2.1406
70.759148 85.908 1.3054
71.271896 85.926 0.4636
71.788361 85.937 -0.3873
72.308571 85.938 -1.2374
72.832550 85.927 -2.0801
73.360321 85.907 -2.9075
73.891922 85.880 -3.7088
74.427376 85.846 -4.4855
74.966705 85.805 -5.2386
75.509949 85.757 -5.9597
76.057121 85.700 -6.6409
76.608261 85.638 -7.2828
77.163399 85.574 -7.8821
77.722557 85.506 -8.4429
78.285767 85.436 -8.9698
78.853058 85.362 -9.4580
79.424461 85.284 -9.9036
80.000000 85.204 -10.3082
80.579712 85.125 -10.6723
81.163628 85.045 -10.9954
81.751770 84.963 -11.2765
82.344177 84.882 -11.5185
82.940880 84.805 -11.7204
83.541901 84.731 -11.8927
84.147285 84.661 -12.0440
84.757050 84.594 -12.1798
85.371231 84.531 -12.3079
85.989868 84.469 -12.4298
86.612984 84.409 -12.5504
87.240616 84.348 -12.6658
87.872803 84.286 -12.7764
88.509560 84.223 -12.8738
89.150940 84.157 -12.9506
89.796967 84.091 -13.0049
90.447670 84.025 -13.0311
91.103088 83.961 -13.0330
91.763260 83.899 -13.0111
92.428215 83.840 -12.9701
93.097992 83.785 -12.9119
93.772614 83.733 -12.8461
94.452133 83.687 -12.7829
95.136566 83.644 -12.7221
95.825966 83.601 -12.6683
96.520363 83.559 -12.6181
97.219788 83.518 -12.5694
97.924286 83.477 -12.5231
98.633881 83.437 -12.4821
99.348625 83.396 -12.4391
100.068542 83.352 -12.3867
100.793686 83.308 -12.3272
101.524078 83.268 -12.2595
102.259766 83.228 -12.1862
103.000778 83.187 -12.1103
103.747162 83.146 -12.0292
104.498962 83.107 -11.9402
105.256203 83.068 -11.8462
106.018929 83.031 -11.7492
106.787186 82.995 -11.6492
107.561012 82.958 -11.5470
108.340446 82.922 -11.4422
109.125526 82.886 -11.3351
109.916290 82.851 -11.2242
110.712791 82.815 -11.1089
111.515060 82.779 -10.9863
112.323143 82.742 -10.8526
113.137085 82.706 -10.7103
113.956924 82.672 -10.5614
114.782700 82.639 -10.4034
115.614464 82.604 -10.2343
116.452255 82.570 -10.0544
117.296112 82.539 -9.8629
118.146095 82.510 -9.6614
119.002228 82.481 -9.4520
119.864563 82.454 -9.2316
120.733154 82.428 -8.9959
121.608040 82.406 -8.7505
122.489258 82.390 -8.4968
123.376869 82.378 -8.2436
124.270905 82.371 -7.9988
125.171425 82.368 -7.7664
126.078468 82.369 -7.5517
126.992081 82.373 -7.3594
127.912323 82.381 -7.1958
128.839233 82.390 -7.0612
129.772842 82.398 -6.9604
130.713242 82.405 -6.8861
131.660431 82.408 -6.8355
132.614502 82.408 -6.8001
133.575485 82.403 -6.7722
134.543427 82.394 -6.7470
135.518387 82.384 -6.7169
136.500412 82.372 -6.6831
137.489548 82.358 -6.6439
138.485855 82.343 -6.6001
139.489380 82.328 -6.5517
140.500168 82.312 -6.4991
141.518295 82.295 -6.4429
142.543793 82.278 -6.3832
143.576721 82.260 -6.3190
144.617142 82.242 -6.2531
145.665100 82.225 -6.1895
146.720642 82.206 -6.1242
147.783844 82.184 -6.0569
148.854752 82.160 -5.9812
149.933411 82.134 -5.8897
151.019897 82.108 -5.7853
152.114243 82.083 -5.6687
153.216522 82.057 -5.5394
154.326797 82.031 -5.3972
155.445114 82.005 -5.2414
156.571533 81.980 -5.0696
157.706116 81.957 -4.8864
158.848923 81.936 -4.6964
160.000000 81.916 -4.4975
161.159424 81.896 -4.2896
162.327255 81.877 -4.0715
163.503540 81.860 -3.8415
164.688354 81.845 -3.6015
165.881760 81.832 -3.3529
167.083801 81.822 -3.0957
168.294571 81.814 -2.8284
169.514099 81.810 -2.5577
170.742462 81.812 -2.2868
171.979736 81.819 -2.0237
173.225967 81.830 -1.7763
174.481232 81.845 -1.5475
175.745605 81.862 -1.3415
177.019119 81.882 -1.1624
178.301880 81.904 -1.0165
179.593933 81.927 -0.9013
180.895340 81.947 -0.8184
182.206177 81.965 -0.7621
183.526520 81.980 -0.7284
184.856430 81.992 -0.7140
186.195984 82.001 -0.7170
187.545227 82.005 -0.7300
188.904266 82.003 -0.7475
190.273132 81.996 -0.7620
191.651932 81.984 -0.7648
193.040726 81.969 -0.7531
194.439575 81.951 -0.7222
195.848572 81.930 -0.6692
197.267761 81.907 -0.5887
198.697250 81.884 -0.4833
200.137085 81.862 -0.3522
201.587372 81.842 -0.2004
203.048157 81.824 -0.0310
204.519531 81.809 0.1514
206.001556 81.797 0.3425
207.494324 81.788 0.5385
208.997925 81.781 0.7350
210.512405 81.777 0.9295
212.037857 81.774 1.1182
213.574371 81.773 1.3016
215.122025 81.772 1.4785
216.680893 81.772 1.6505
218.251053 81.772 1.8187
219.832581 81.772 1.9835
221.425583 81.772 2.1455
223.030121 81.772 2.3056
224.646286 81.772 2.4649
226.274170 81.772 2.6236
227.913849 81.772 2.7821
229.565399 81.772 2.9406
231.228928 81.772 3.0992
232.904510 81.772 3.2585
234.592224 81.772 3.4192
236.292191 81.772 3.5816
238.004456 81.772 3.7459
239.729126 81.772 3.9125
241.466309 81.772 4.0811
243.216080 81.772 4.2535
244.978516 81.772 4.4317
246.753738 81.772 4.6155
248.541809 81.773 4.8051
250.342850 81.775 5.0004
252.156937 81.778 5.2029
253.984161 81.782 5.4084
255.824646 81.790 5.6150
257.678467 81.800 5.8175
259.545685 81.812 6.0100
261.426483 81.825 6.1936
263.320862 81.837 6.3664
265.229004 81.850 6.5306
267.150970 81.863 6.6866
269.086853 81.875 6.8366
271.036774 81.885 6.9803
273.000824 81.894 7.1246
274.979095 81.900 7.2763
276.971710 81.906 7.4355
278.978760 81.913 7.6061
281.000336 81.921 7.7835
283.036591 81.930 7.9648
285.087585 81.941 8.1484
287.153442 81.952 8.3320
289.234283 81.965 8.5155
291.330200 81.979 8.6983
293.441284 81.993 8.8805
295.567688 82.008 9.0621
297.709503 82.024 9.2435
299.866821 82.041 9.4265
302.039795 82.059 9.6075
304.228485 82.080 9.7847
306.433044 82.102 9.9545
308.653595 82.126 10.1129
310.890228 82.151 10.2586
313.143066 82.176 10.3878
315.412231 82.201 10.5037
317.697845 82.224 10.6061
320.000000 82.244 10.7007
322.318848 82.262 10.7908
324.654510 82.277 10.8837
327.007080 82.289 10.9877
329.376709 82.300 11.1036
331.763519 82.311 11.2364
334.167603 82.323 11.3815
336.589142 82.336 11.5363
339.028198 82.351 11.7005
341.484924 82.366 11.8741
343.959473 82.384 12.0535
346.451935 82.405 12.2371
348.962463 82.430 12.4185
351.491211 82.458 12.5909
354.038239 82.488 12.7545
356.603760 82.518 12.9074
359.187866 82.549 13.0496
361.790680 82.581 13.1816
364.412354 82.615 13.3007
367.053040 82.649 13.4031
369.712860 82.683 13.4927
372.391968 82.714 13.5697
375.090454 82.743 13.6408
377.808533 82.770 13.7131
380.546265 82.797 13.7868
383.303864 82.823 13.8638
386.081451 82.849 13.9458
388.879150 82.874 14.0351
391.697144 82.901 14.1307
394.535522 82.929 14.2346
397.394501 82.960 14.3397
400.274170 82.995 14.4414
403.174744 83.032 14.5347
406.096313 83.071 14.6133
409.039062 83.112 14.6768
412.003113 83.153 14.7235
414.988647 83.196 14.7519
417.995850 83.240 14.7598
421.024811 83.284 14.7481
424.075714 83.325 14.7156
427.148743 83.365 14.6662
430.244049 83.403 14.6030
433.361786 83.440 14.5263
436.502106 83.476 14.4379
439.665161 83.510 14.3353
442.851166 83.543 14.2175
446.060242 83.575 14.0824
449.292572 83.604 13.9276
452.548340 83.630 13.7546
455.827698 83.651 13.5610
459.130798 83.666 13.3567
462.457855 83.672 13.1460
465.809021 83.671 12.9426
469.184448 83.661 12.7565
472.584381 83.643 12.6034
476.008911 83.616 12.5001
479.458252 83.583 12.4540
482.932617 83.549 12.4792
486.432159 83.515 12.5726
489.957031 83.483 12.7403
493.507477 83.457 12.9682
497.083618 83.443 13.2515
500.685699 83.440 13.5689
504.313873 83.450 13.9039
507.968323 83.472 14.2379
511.649292 83.507 14.5508
515.356934 83.552 14.8311
519.091370 83.604 15.0604
522.852966 83.661 15.2405
526.641724 83.719 15.3649
530.458008 83.778 15.4398
534.301941 83.836 15.4670
538.173706 83.891 15.4531
542.073547 83.941 15.4005
546.001648 83.987 15.3233
549.958191 84.025 15.2358
553.943420 84.059 15.1403
557.957520 84.092 15.0443
562.000671 84.123 14.9463
566.073181 84.150 14.8451
570.175171 84.174 14.7473
574.306885 84.195 14.6600
578.468567 84.215 14.5813
582.660400 84.235 14.5133
586.882568 84.256 14.4512
591.135376 84.277 14.3899
595.419006 84.298 14.3312
599.733643 84.318 14.2762
604.079590 84.338 14.2222
608.456970 84.361 14.1688
612.866089 84.384 14.1102
617.307190 84.407 14.0389
621.780457 84.430 13.9603
626.286133 84.450 13.8759
630.824463 84.468 13.7893
635.395691 84.485 13.7039
640.000000 84.501 13.6213
644.637695 84.515 13.5436
649.309021 84.528 13.4722
654.014160 84.541 13.4108
658.753418 84.554 13.3552
663.527039 84.569 13.3035
668.335205 84.585 13.2522
673.178284 84.602 13.1979
678.056396 84.620 13.1382
682.969849 84.639 13.0704
687.918945 84.658 12.9923
692.903870 84.677 12.9007
697.924927 84.695 12.7964
702.982422 84.711 12.6786
708.076477 84.724 12.5495
713.207520 84.735 12.4093
718.375732 84.743 12.2625
723.581360 84.745 12.1119
728.824707 84.743 11.9625
734.106079 84.737 11.8172
739.425720 84.725 11.6854
744.783936 84.706 11.5734
750.180908 84.680 11.4942
755.617065 84.648 11.4610
761.092529 84.612 11.4798
766.607727 84.575 11.5612
772.162903 84.538 11.7044
777.758301 84.503 11.9131
783.394287 84.473 12.1849
789.071045 84.448 12.5250
794.789001 84.433 12.9145
800.548340 84.434 13.3422
806.349487 84.448 13.7904
812.192627 84.472 14.2411
818.078125 84.509 14.6844
824.006226 84.559 15.1091
829.977295 84.620 15.5017
835.991699 84.691 15.8443
842.049622 84.769 16.1380
848.151428 84.849 16.3760
854.297485 84.933 16.5634
860.488098 85.019 16.7013
866.723572 85.106 16.7947
873.004211 85.191 16.8486
879.330322 85.276 16.8650
885.702332 85.362 16.8486
892.120483 85.449 16.7972
898.585144 85.535 16.7094
905.096680 85.620 16.5885
911.655396 85.703 16.4377
918.261597 85.787 16.2557
924.915710 85.871 16.0434
931.618042 85.954 15.7970
938.368896 86.035 15.5119
945.168762 86.115 15.1913
952.017822 86.191 14.8367
958.916504 86.264 14.4486
965.865234 86.335 14.0283
972.864319 86.403 13.5737
979.914062 86.467 13.0815
987.014954 86.525 12.5560
994.167236 86.576 11.9982
1001.371399 86.620 11.4161
1008.627747 86.656 10.8173
1015.936646 86.684 10.2046
1023.298584 86.705 9.5798
1030.713867 86.718 8.9540
1038.182739 86.718 8.3348
1045.705933 86.709 7.7355
1053.283447 86.691 7.1707
1060.916016 86.667 6.6442
1068.603882 86.638 6.1651
1076.347412 86.605 5.7327
1084.147095 86.571 5.3533
1092.003296 86.539 5.0141
1099.916382 86.512 4.7097
1107.886841 86.490 4.4232
1115.915039 86.472 4.1391
1124.001343 86.458 3.8481
1132.146362 86.447 3.5358
1140.350342 86.436 3.2023
1148.613770 86.422 2.8368
1156.937134 86.402 2.4576
1165.320801 86.371 2.0745
1173.765137 86.333 1.7026
1182.270752 86.288 1.3595
1190.838013 86.238 1.0482
1199.467285 86.184 0.7773
1208.159180 86.126 0.5478
1216.913940 86.067 0.3667
1225.732178 86.008 0.2254
1234.614380 85.955 0.1205
1243.560913 85.904 0.0432
1252.572266 85.855 -0.0162
1261.648926 85.808 -0.0579
1270.791382 85.763 -0.0855
1280.000000 85.719 -0.0980
1289.275391 85.676 -0.0962
1298.618042 85.634 -0.0781
1308.028320 85.593 -0.0406
1317.506836 85.554 0.0127
1327.054077 85.519 0.0804
1336.670410 85.486 0.1587
1346.356567 85.456 0.2433
1356.112793 85.428 0.3337
1365.939697 85.403 0.4293
1375.837891 85.380 0.5256
1385.807739 85.361 0.6177
1395.849854 85.343 0.7057
1405.964844 85.326 0.7872
1416.152954 85.309 0.8647
1426.415039 85.293 0.9404
1436.751465 85.278 1.0127
1447.162720 85.263 1.0810
1457.649414 85.249 1.1448
1468.212158 85.235 1.2033
1478.851440 85.221 1.2568
1489.567871 85.206 1.3050
1500.361816 85.190 1.3478
1511.234131 85.173 1.3838
1522.185059 85.154 1.4169
1533.215454 85.132 1.4491
1544.325806 85.107 1.4848
1555.516602 85.079 1.5277
1566.788574 85.047 1.5817
1578.142090 85.012 1.6486
1589.578003 84.972 1.7386
1601.096680 84.926 1.8607
1612.698975 84.877 2.0202
1624.385254 84.827 2.2248
1636.156250 84.776 2.4768
1648.012451 84.724 2.7798
1659.954590 84.672 3.1376
1671.983398 84.623 3.5563
1684.099243 84.577 4.0319
1696.302856 84.538 4.5657
1708.594971 84.506 5.1473
1720.976196 84.485 5.7709
1733.447144 84.475 6.4241
1746.008423 84.477 7.0954
1758.660645 84.489 7.7762
1771.404663 84.512 8.4572
1784.240967 84.545 9.1303
1797.170288 84.589 9.7853
1810.193359 84.642 10.4185
1823.310791 84.700 11.0221
1836.523193 84.765 11.5988
1849.831421 84.835 12.1494
1863.236084 84.912 12.6717
1876.737793 84.993 13.1653
1890.337524 85.080 13.6261
1904.035645 85.171 14.0502
1917.833008 85.266 14.4365
1931.730469 85.363 14.7820
1945.728638 85.463 15.0888
1959.828125 85.562 15.3567
1974.029907 85.661 15.5901
1988.334473 85.759 15.7892
2002.742798 85.856 15.9653
2017.255493 85.947 16.1262
2031.873291 86.036 16.2824
2046.597168 86.124 16.4494
2061.427734 86.215 16.6202
2076.365479 86.311 16.7948
2091.411865 86.412 16.9683
2106.566895 86.515 17.1395
2121.832031 86.625 17.2974
2137.207764 86.745 17.4363
2152.694824 86.872 17.5387
2168.294189 87.006 17.5832
2184.006592 87.141 17.5752
2199.832764 87.276 17.5118
2215.773682 87.410 17.3956
2231.830078 87.545 17.2267
2248.002686 87.677 17.0090
2264.292725 87.805 16.7427
2280.700684 87.927 16.4394
2297.227539 88.044 16.1091
2313.874268 88.157 15.7575
2330.641602 88.265 15.3920
2347.530273 88.370 15.0166
2364.541504 88.470 14.6362
2381.676025 88.568 14.2557
2398.934570 88.664 13.8837
2416.318359 88.761 13.5147
2433.827881 88.860 13.1487
2451.464355 88.963 12.7766
2469.228760 89.069 12.3920
2487.121826 89.179 11.9858
2505.144531 89.292 11.5502
2523.297852 89.408 11.0753
2541.582764 89.529 10.5486
2560.000000 89.648 9.9697
2578.550781 89.764 9.3313
2597.236084 89.875 8.6413
2616.056641 89.982 7.9025
2635.013672 90.082 7.1234
2654.108154 90.173 6.3110
2673.340820 90.258 5.4727
2692.713135 90.335 4.6159
2712.225586 90.405 3.7471
2731.879395 90.466 2.8750
2751.675781 90.522 2.0010
2771.615479 90.574 1.1297
2791.699707 90.621 0.2599
2811.929688 90.663 -0.6097
2832.305908 90.699 -1.4750
2852.830078 90.729 -2.3338
2873.502930 90.755 -3.1813
2894.325439 90.776 -4.0121
2915.298828 90.793 -4.8253
2936.424316 90.807 -5.6199
2957.702881 90.819 -6.3917
2979.135742 90.827 -7.1341
3000.723633 90.834 -7.8529
3022.468262 90.845 -8.5483
3044.370117 90.858 -9.2299
3066.430908 90.873 -9.9056
3088.651611 90.890 -10.5810
3111.033203 90.911 -11.2612
3133.577148 90.934 -11.9547
3156.284180 90.959 -12.6715
3179.156006 90.984 -13.4114
3202.193359 91.006 -14.1793
3225.397949 91.025 -14.9692
3248.770508 91.040 -15.7779
3272.312500 91.051 -16.6013
3296.024902 91.058 -17.4371
3319.909180 91.059 -18.2761
3343.966797 91.052 -19.1090
3368.198486 91.041 -19.9331
3392.605713 91.028 -20.7428
3417.189941 91.012 -21.5384
3441.952393 90.992 -22.3188
3466.894287 90.969 -23.0816
3492.016846 90.945 -23.8214
3517.321289 90.921 -24.5457
3542.809326 90.900 -25.2587
3568.481934 90.879 -25.9647
3594.340576 90.857 -26.6705
3620.386719 90.835 -27.3737
3646.621582 90.812 -28.0718
3673.046387 90.790 -28.7717
3699.662842 90.770 -29.4795
3726.472168 90.749 -30.1947
3753.475586 90.725 -30.9202
3780.675049 90.698 -31.6507
3808.071289 90.669 -32.3811
3835.666016 90.638 -33.1135
3863.460938 90.606 -33.8487
3891.457275 90.571 -34.5865
3919.656250 90.533 -35.3295
3948.059814 90.491 -36.0706
3976.668945 90.443 -36.8045
4005.485596 90.391 -37.5275
4034.510986 90.337 -38.2357
4063.746582 90.278 -38.9238
4093.194336 90.214 -39.5884
4122.855469 90.145 -40.2200
4152.730957 90.073 -40.8065
4182.823730 90.000 -41.3515
4213.133789 89.930 -41.8523
4243.664062 89.862 -42.3159
4274.415527 89.797 -42.7480
4305.389648 89.735 -43.1501
4336.588379 89.677 -43.5229
4368.013184 89.625 -43.8744
4399.665527 89.581 -44.2106
4431.547363 89.543 -44.5374
4463.660156 89.510 -44.8627
4496.005371 89.482 -45.1864
4528.585449 89.460 -45.5079
4561.401367 89.446 -45.8364
4594.455078 89.441 -46.1760
4627.748535 89.446 -46.5411
4661.283203 89.460 -46.9432
4695.060547 89.482 -47.3956
4729.083008 89.512 -47.9120
4763.352051 89.549 -48.5030
4797.869141 89.590 -49.1813
4832.636719 89.634 -49.9539
4867.655762 89.678 -50.8315
4902.928711 89.718 -51.8149
4938.457520 89.751 -52.9119
4974.243652 89.775 -54.1121
5010.289062 89.785 -55.4123
5046.595703 89.779 -56.7979
5083.165527 89.755 -58.2621
5120.000000 89.708 -59.7775
5157.101562 89.636 -61.3256
5194.472168 89.538 -62.8725
5232.113281 89.413 -64.3834
5270.027344 89.265 -65.8418
5308.216309 89.097 -67.2248
5346.681641 88.910 -68.5169
5385.426270 88.701 -69.6980
5424.451172 88.478 -70.7601
5463.758789 88.245 -71.6843
5503.351562 88.005 -72.4834
5543.230957 87.765 -73.1631
5583.399414 87.522 -73.7265
5623.859375 87.275 -74.1793
5664.611816 87.027 -74.5186
5705.660156 86.782 -74.7430
5747.005859 86.539 -74.8537
5788.650879 86.298 -74.8519
5830.597656 86.061 -74.7359
5872.848633 85.831 -74.5003
5915.405762 85.610 -74.1570
5958.271484 85.403 -73.7107
6001.447266 85.211 -73.1779
6044.936523 85.035 -72.5723
6088.740234 84.876 -71.9075
6132.861816 84.735 -71.1988
6177.303223 84.611 -70.4548
6222.066406 84.503 -69.6889
6267.154297 84.411 -68.9010
6312.568359 84.334 -68.0978
6358.312012 84.270 -67.2722
6404.386719 84.219 -66.4188
6450.795898 84.186 -65.5396
6497.541016 84.173 -64.6270
6544.625000 84.186 -63.7046
6592.049805 84.229 -62.7800
6639.818359 84.306 -61.8944
6687.933594 84.419 -61.0738
6736.396973 84.569 -60.3722
6785.211426 84.759 -59.8373
6834.379883 84.978 -59.5140
6883.904785 85.221 -59.4553
6933.788574 85.479 -59.6850
6984.033691 85.743 -60.2460
7034.642578 86.001 -61.1337
7085.618652 86.241 -62.3704
7136.963867 86.456 -63.9175
7188.681152 86.634 -65.7622
7240.773438 86.770 -67.8480
7293.243164 86.860 -70.1346
7346.092773 86.900 -72.5605
7399.325684 86.885 -75.0724
7452.944336 86.817 -77.6063
7506.951172 86.694 -80.0950
7561.350098 86.522 -82.4950
7616.142578 86.304 -84.7478
7671.332031 86.044 -86.8317
7726.921875 85.748 -88.7113
7782.914551 85.420 -90.3701
7839.312500 85.062 -91.7850
7896.119629 84.681 -92.9426
7953.337891 84.281 -93.8248
8010.971191 83.866 -94.4226
8069.021973 83.443 -94.7285
8127.493164 83.012 -94.7209
8186.388672 82.575 -94.3845
8245.710938 82.139 -93.6936
8305.461914 81.709 -92.6117
8365.647461 81.304 -91.1557
8426.267578 80.937 -89.3086
8487.328125 80.626 -87.1372
8548.831055 80.388 -84.6646
8610.779297 80.243 -82.0064
8673.176758 80.218 -79.2324
8736.026367 80.310 -76.5044
8799.331055 80.535 -73.9560
8863.094727 80.869 -71.7425
8927.320312 81.305 -70.0350
8992.010742 81.803 -68.9201
9057.170898 82.330 -68.5446
9122.802734 82.856 -68.8981
9188.910156 83.348 -70.0482
9255.497070 83.790 -71.9051
9322.566406 84.158 -74.4512
9390.121094 84.443 -77.5365
9458.166016 84.627 -81.0625
9526.704102 84.711 -84.8535
9595.738281 84.684 -88.7337
9665.273438 84.564 -92.6048
9735.311523 84.365 -96.3284
9805.857422 84.085 -99.8506
9876.915039 83.722 -103.0905
9948.487305 83.290 -105.9913
10020.578125 82.796 -108.4657
10093.191406 82.259 -110.5250
10166.331055 81.698 -112.1535
10240.000000 81.108 -113.3469
10314.203125 80.489 -114.0997
10388.944336 79.853 -114.3987
10464.226562 79.209 -114.2126
10540.054688 78.573 -113.5909
10616.432617 77.962 -112.5629
10693.363281 77.374 -111.1564
10770.852539 76.806 -109.3975
10848.902344 76.279 -107.3210
10927.517578 75.812 -104.9508
11006.703125 75.405 -102.3476
11086.461914 75.061 -99.5636
11166.798828 74.784 -96.6495
11247.718750 74.578 -93.6500
11329.223633 74.444 -90.6355
11411.320312 74.392 -87.6639
11494.011719 74.412 -84.8169
11577.301758 74.505 -82.1742
11661.195312 74.656 -79.8003
11745.697266 74.854 -77.7844
11830.811523 75.078 -76.1329
11916.542969 75.306 -74.8984
12002.894531 75.525 -74.0298
12089.873047 75.719 -73.5250
12177.480469 75.879 -73.2887
12265.723633 75.990 -73.2611
12354.606445 76.057 -73.3335
12444.132812 76.074 -73.4010
12534.308594 76.053 -73.3914
12625.136719 75.999 -73.2065
12716.624023 75.926 -72.8197
12808.773438 75.846 -72.1557
12901.591797 75.781 -71.2627
12995.082031 75.756 -70.1310
13089.250000 75.778 -68.8606
13184.099609 75.862 -67.5129
13279.636719 76.007 -66.1965
13375.867188 76.224 -65.0080
13472.793945 76.494 -64.0456
13570.422852 76.811 -63.4305
13668.759766 77.148 -63.1912
13767.809570 77.483 -63.4174
13867.577148 77.799 -64.0462
13968.067383 78.071 -65.0797
14069.285156 78.296 -66.4097
14171.237305 78.463 -67.9601
14273.927734 78.578 -69.6350
14377.362305 78.639 -71.3305
14481.546875 78.659 -72.9936
14586.486328 78.641 -74.5300
14692.185547 78.603 -75.9600
14798.651367 78.561 -77.2471
14905.888672 78.521 -78.4680
15013.902344 78.497 -79.6698
15122.700195 78.478 -80.9078
15232.285156 78.461 -82.2540
15342.664062 78.435 -83.7048
15453.843750 78.391 -85.3039
15565.829102 78.316 -86.9808
15678.625000 78.193 -88.7112
15792.239258 78.024 -90.3971
15906.675781 77.802 -91.9508
16021.942383 77.538 -93.3152
16138.043945 77.233 -94.4063
16254.986328 76.901 -95.2181
16372.777344 76.552 -95.7055
16491.421875 76.200 -95.9027
16610.923828 75.860 -95.8134
16731.294922 75.539 -95.4865
16852.535156 75.248 -94.9584
16974.656250 74.987 -94.2706
17097.662109 74.762 -93.4640
17221.558594 74.571 -92.5766
17346.353516 74.416 -91.6494
17472.052734 74.294 -90.7136
17598.662109 74.201 -89.8055
17726.189453 74.136 -88.9508
17854.640625 74.099 -88.1800
17984.021484 74.082 -87.5144
18114.341797 74.083 -86.9855
18245.605469 74.094 -86.5918
18377.820312 74.107 -86.3538
18510.994141 74.115 -86.2374
18645.132812 74.109 -86.2267
18780.242188 74.091 -86.2865
18916.332031 74.060 -86.3814
19053.408203 74.017 -86.4953
19191.476562 73.965 -86.6007
19330.546875 73.906 -86.6975
19470.623047 73.845 -86.7746
19611.714844 73.782 -86.8377
19753.830078 73.719 -86.8880
19896.974609 73.654 -86.9288
