* Measurement data measured by REW V5.20.13
* Source: C:\Users\kurin\Desktop\Targets and Curves\Resolve\Img\Files\Sundara 2018_SPL.txt
* Format: Comma/Tab/Space delimited data
* Dated: Aug 15, 2023 12:39:46 AM
* REW Settings:
*  C-weighting compensation: Off
*  Target level: 75.0 dB
* Note: ; Measurement imported from C:\Users\kurin\Desktop\Targets and Curves\Resolve\Img\Files\Sundara 2018_SPL.txt Format: Comma/Tab/Space delimited data 623 values loaded, 5 Hz to 39,792 Hz log spaced 
* Measurement: Sundara 2018_SPL
* Smoothing: 1/48 octave
* Frequency Step: 1/96 octave
* Start Frequency: 5.000 Hz
*
* Freq(Hz) SPL(dB) Phase(degrees)
5.000000 67.903 77.6920
5.036232 67.929 77.6712
5.072727 67.957 77.6490
5.109486 67.989 77.6233
5.146511 68.027 77.5940
5.183805 68.072 77.5597
5.221369 68.122 77.5230
5.259205 68.173 77.4866
5.297316 68.226 77.4490
5.335702 68.283 77.4088
5.374367 68.341 77.3680
5.413311 68.398 77.3284
5.452538 68.456 77.2890
5.492050 68.513 77.2492
5.531847 68.571 77.2090
5.571934 68.628 77.1681
5.612310 68.686 77.1270
5.652979 68.744 77.0861
5.693943 68.802 77.0450
5.735204 68.860 77.0037
5.776763 68.917 76.9620
5.818624 68.974 76.9196
5.860788 69.032 76.8770
5.903258 69.089 76.8346
5.946035 69.147 76.7920
5.989123 69.204 76.7487
6.032523 69.262 76.7050
6.076237 69.319 76.6611
6.120268 69.377 76.6170
6.164618 69.434 76.5726
6.209289 69.492 76.5280
6.254284 69.550 76.4832
6.299605 69.608 76.4380
6.345255 69.666 76.3922
6.391235 69.723 76.3460
6.437549 69.780 76.2996
6.484198 69.838 76.2530
6.531185 69.895 76.2062
6.578513 69.953 76.1590
6.626183 70.010 76.1112
6.674199 70.068 76.0630
6.722563 70.125 76.0146
6.771278 70.183 75.9660
6.820345 70.240 75.9172
6.869768 70.298 75.8680
6.919549 70.356 75.8182
6.969691 70.414 75.7680
7.020196 70.472 75.7177
7.071068 70.529 75.6670
7.122308 70.586 75.6157
7.173919 70.644 75.5640
7.225904 70.701 75.5122
7.278266 70.759 75.4600
7.331007 70.816 75.4072
7.384131 70.874 75.3540
7.437639 70.931 75.3007
7.491535 70.989 75.2470
7.545822 71.046 75.1927
7.600502 71.104 75.1380
7.655579 71.162 75.0832
7.711054 71.220 75.0280
7.766932 71.278 74.9723
7.823214 71.335 74.9160
7.879904 71.392 74.8593
7.937005 71.450 74.8020
7.994520 71.507 74.7442
8.052452 71.565 74.6860
8.110803 71.622 74.6277
8.169578 71.680 74.5690
8.228777 71.737 74.5098
8.288406 71.795 74.4500
8.348468 71.852 74.3897
8.408964 71.910 74.3290
8.469899 71.967 74.2683
8.531276 72.025 74.2070
8.593097 72.083 74.1448
8.655366 72.141 74.0820
8.718086 72.199 74.0193
8.781260 72.256 73.9560
8.844893 72.313 73.8918
8.908987 72.371 73.8270
8.973545 72.428 73.7622
9.038571 72.486 73.6970
9.104069 72.543 73.6313
9.170040 72.601 73.5650
9.236490 72.658 73.4978
9.303422 72.716 73.4300
9.370838 72.773 73.3623
9.438744 72.831 73.2940
9.507140 72.889 73.2248
9.576033 72.947 73.1550
9.645425 73.005 73.0853
9.715320 73.062 73.0150
9.785721 73.119 72.9438
9.856632 73.177 72.8720
9.928058 73.234 72.7998
10.000000 73.292 72.7270
10.072464 73.349 72.6534
10.145453 73.407 72.5791
10.218971 73.464 72.5043
10.293022 73.522 72.4290
10.367610 73.579 72.3533
10.442738 73.637 72.2770
10.518411 73.695 72.2003
10.594631 73.753 72.1230
10.671404 73.811 72.0449
10.748734 73.868 71.9660
10.826623 73.925 71.8864
10.905077 73.983 71.8061
10.984100 74.040 71.7254
11.063695 74.098 71.6441
11.143867 74.155 71.5618
11.224621 74.213 71.4790
11.305959 74.270 71.3959
11.387886 74.328 71.3121
11.470407 74.385 71.2274
11.553527 74.443 71.1420
11.637249 74.500 71.0559
11.721577 74.558 70.9691
11.806517 74.616 70.8815
11.892071 74.674 70.7931
11.978246 74.732 70.7039
12.065045 74.789 70.6140
12.152473 74.846 70.5239
12.240536 74.904 70.4330
12.329235 74.961 70.3410
12.418578 75.019 70.2481
12.508568 75.076 70.1544
12.599211 75.134 70.0601
12.690510 75.191 69.9650
12.782471 75.249 69.8691
12.875097 75.306 69.7725
12.968395 75.364 69.6751
13.062370 75.422 69.5764
13.157025 75.480 69.4770
13.252366 75.538 69.3775
13.348398 75.595 69.2771
13.445127 75.652 69.1751
13.542556 75.710 69.0721
13.640691 75.767 68.9685
13.739536 75.825 68.8640
13.839099 75.882 68.7585
13.939383 75.940 68.6521
14.040393 75.997 68.5450
14.142136 76.055 68.4370
14.244616 76.112 68.3281
14.347837 76.170 68.2180
14.451808 76.228 68.1065
14.556532 76.286 67.9941
14.662014 76.344 67.8811
14.768262 76.401 67.7671
14.875278 76.458 67.6517
14.983070 76.516 67.5351
15.091644 76.573 67.4177
15.201005 76.631 67.2991
15.311157 76.688 67.1791
15.422109 76.746 67.0581
15.533863 76.803 66.9361
15.646428 76.861 66.8131
15.759809 76.918 66.6888
15.874010 76.976 66.5631
15.989040 77.034 66.4357
16.104904 77.092 66.3071
16.221605 77.150 66.1777
16.339155 77.207 66.0472
16.457554 77.264 65.9153
16.576813 77.322 65.7821
16.696936 77.379 65.6473
16.817928 77.437 65.5111
16.939798 77.494 65.3733
17.062551 77.552 65.2342
17.186193 77.609 65.0939
17.310732 77.667 64.9521
17.436172 77.724 64.8085
17.562521 77.782 64.6631
17.689787 77.839 64.5160
17.817974 77.897 64.3672
17.947090 77.955 64.2170
18.077143 78.013 64.0651
18.208138 78.071 63.9111
18.340080 78.128 63.7552
18.472980 78.185 63.5976
18.606844 78.243 63.4381
18.741676 78.300 63.2763
18.877487 78.358 63.1122
19.014280 78.415 62.9453
19.152065 78.473 62.7762
19.290850 78.530 62.6060
19.430639 78.588 62.4331
19.571442 78.646 62.2569
19.713264 78.705 62.0762
19.856115 78.763 61.8906
20.000000 78.821 61.6982
20.144928 78.880 61.4975
20.290907 78.939 61.2872
20.437943 78.997 61.0629
20.586044 79.052 60.8322
20.735220 79.102 60.6001
20.885475 79.150 60.3703
21.036821 79.198 60.1471
21.189262 79.244 59.9323
21.342808 79.286 59.7265
21.497467 79.327 59.5372
21.653246 79.366 59.3733
21.810154 79.407 59.2312
21.968201 79.451 59.1134
22.127390 79.499 59.0111
22.287735 79.551 58.9193
22.449242 79.609 58.8281
22.611917 79.673 58.7290
22.775772 79.742 58.6132
22.940815 79.816 58.4698
23.107054 79.892 58.2963
23.274498 79.969 58.0866
23.443153 80.046 57.8404
23.613033 80.123 57.5525
23.784142 80.196 57.2313
23.956491 80.262 56.8787
24.130091 80.323 56.5094
24.304947 80.376 56.1375
24.481071 80.424 55.7675
24.658470 80.469 55.4089
24.837156 80.511 55.0615
25.017136 80.551 54.7282
25.198421 80.589 54.4093
25.381020 80.626 54.1093
25.564941 80.664 53.8183
25.750195 80.706 53.5284
25.936790 80.748 53.2374
26.124741 80.788 52.9385
26.314051 80.826 52.6374
26.504732 80.863 52.3378
26.696796 80.899 52.0384
26.890253 80.934 51.7365
27.085112 80.967 51.4393
27.281382 80.996 51.1532
27.479073 81.023 50.8784
27.678198 81.052 50.6182
27.878765 81.081 50.3693
28.080786 81.109 50.1296
28.284271 81.137 49.8993
28.489231 81.167 49.6797
28.695675 81.198 49.4653
28.903616 81.231 49.2511
29.113064 81.265 49.0373
29.324028 81.299 48.8217
29.536524 81.333 48.6062
29.750557 81.367 48.3933
29.966141 81.401 48.1802
30.183289 81.437 47.9652
30.402010 81.474 47.7483
30.622314 81.510 47.5276
30.844217 81.545 47.3063
31.067726 81.580 47.0876
31.292856 81.615 46.8693
31.519617 81.652 46.6511
31.748020 81.690 46.4303
31.978081 81.728 46.2035
32.209808 81.767 45.9723
32.443211 81.805 45.7380
32.678310 81.843 45.4983
32.915108 81.883 45.2514
33.153625 81.923 44.9973
33.393871 81.960 44.7354
33.635857 81.997 44.4664
33.879597 82.035 44.1913
34.125103 82.073 43.9084
34.372387 82.109 43.6136
34.621464 82.142 43.3145
34.872345 82.171 43.0177
35.125042 82.199 42.7224
35.379574 82.228 42.4298
35.635948 82.257 42.1393
35.894180 82.282 41.8486
36.154285 82.306 41.5634
36.416275 82.328 41.2900
36.680161 82.350 41.0244
36.945961 82.374 40.7656
37.213688 82.398 40.5104
37.483353 82.423 40.2558
37.754974 82.448 40.0004
38.028561 82.474 39.7419
38.304131 82.499 39.4803
38.581699 82.524 39.2141
38.861279 82.548 38.9454
39.142883 82.571 38.6760
39.426529 82.594 38.4054
39.712231 82.616 38.1341
40.000000 82.638 37.8614
40.289856 82.659 37.5860
40.581814 82.679 37.3104
40.875885 82.697 37.0357
41.172089 82.714 36.7644
41.470440 82.729 36.5002
41.770950 82.744 36.2404
42.073643 82.760 35.9828
42.378525 82.775 35.7304
42.685616 82.787 35.4852
42.994934 82.799 35.2473
43.306492 82.813 35.0206
43.620308 82.829 34.7953
43.936401 82.847 34.5630
44.254780 82.866 34.3234
44.575470 82.883 34.0720
44.898483 82.899 33.8134
45.223835 82.913 33.5493
45.551544 82.925 33.2834
45.881630 82.934 33.0181
46.214108 82.941 32.7594
46.548996 82.944 32.5134
46.886307 82.945 32.2814
47.226067 82.946 32.0679
47.568283 82.948 31.8693
47.912983 82.950 31.6846
48.260181 82.953 31.5103
48.609894 82.957 31.3431
48.962143 82.963 31.1812
49.316940 82.969 31.0217
49.674313 82.976 30.8652
50.034271 82.982 30.7097
50.396843 82.988 30.5602
50.762039 82.992 30.4211
51.129883 82.997 30.2922
51.500389 83.003 30.1762
51.873581 83.011 30.0692
52.249481 83.021 29.9680
52.628101 83.032 29.8732
53.009464 83.044 29.7857
53.393593 83.058 29.7001
53.780506 83.077 29.6133
54.170223 83.099 29.5192
54.562763 83.123 29.4094
54.958145 83.147 29.2872
55.356396 83.171 29.1522
55.757530 83.195 29.0062
56.161572 83.218 28.8505
56.568542 83.240 28.6873
56.978462 83.262 28.5185
57.391350 83.282 28.3473
57.807232 83.300 28.1779
58.226128 83.318 28.0093
58.648056 83.337 27.8424
59.073048 83.356 27.6753
59.501114 83.375 27.5063
59.932281 83.394 27.3353
60.366577 83.413 27.1622
60.804020 83.433 26.9853
61.244629 83.453 26.8020
61.688435 83.472 26.6143
62.135452 83.490 26.4224
62.585712 83.507 26.2293
63.039234 83.523 26.0405
63.496040 83.540 25.8493
63.956161 83.559 25.6517
64.419617 83.578 25.4464
64.886421 83.595 25.2293
65.356621 83.610 25.0054
65.830215 83.623 24.7768
66.307251 83.634 24.5475
66.787743 83.641 24.3206
67.271713 83.646 24.1014
67.759193 83.649 23.8955
68.250206 83.650 23.7043
68.744774 83.650 23.5324
69.242928 83.651 23.3763
69.744690 83.653 23.2350
70.250084 83.657 23.1052
70.759148 83.663 22.9845
71.271896 83.670 22.8692
71.788361 83.679 22.7558
72.308571 83.691 22.6422
72.832550 83.705 22.5254
73.360321 83.720 22.4042
73.891922 83.735 22.2767
74.427376 83.752 22.1423
74.966705 83.770 21.9990
75.509949 83.789 21.8483
76.057121 83.806 21.6911
76.608261 83.823 21.5263
77.163399 83.842 21.3541
77.722557 83.861 21.1724
78.285767 83.878 20.9767
78.853058 83.894 20.7744
79.424461 83.907 20.5712
80.000000 83.918 20.3674
80.579712 83.930 20.1660
81.163628 83.942 19.9644
81.751770 83.953 19.7600
82.344177 83.963 19.5554
82.940880 83.972 19.3530
83.541901 83.981 19.1504
84.147285 83.991 18.9469
84.757050 84.000 18.7404
85.371231 84.009 18.5284
85.989868 84.017 18.3115
86.612984 84.025 18.0892
87.240616 84.032 17.8615
87.872803 84.037 17.6255
88.509560 84.040 17.3885
89.150940 84.038 17.1548
89.796967 84.034 16.9295
90.447670 84.028 16.7202
91.103088 84.022 16.5234
91.763260 84.016 16.3394
92.428215 84.011 16.1644
93.097992 84.007 15.9960
93.772614 84.005 15.8293
94.452133 84.004 15.6586
95.136566 84.003 15.4834
95.825966 84.001 15.2996
96.520363 83.998 15.1124
97.219788 83.992 14.9239
97.924286 83.984 14.7394
98.633881 83.974 14.5638
99.348625 83.961 14.4003
100.068542 83.946 14.2536
100.793686 83.931 14.1243
101.524078 83.917 14.0166
102.259766 83.904 13.9242
103.000778 83.894 13.8441
103.747162 83.887 13.7701
104.498962 83.883 13.6957
105.256203 83.880 13.6192
106.018929 83.879 13.5365
106.787186 83.878 13.4482
107.561012 83.878 13.3526
108.340446 83.878 13.2512
109.125526 83.877 13.1444
109.916290 83.876 13.0332
110.712791 83.874 12.9178
111.515060 83.871 12.8012
112.323143 83.866 12.6851
113.137085 83.859 12.5742
113.956924 83.851 12.4744
114.782700 83.842 12.3842
115.614464 83.834 12.3049
116.452255 83.827 12.2351
117.296112 83.820 12.1750
118.146095 83.815 12.1211
119.002228 83.813 12.0725
119.864563 83.813 12.0211
120.733154 83.816 11.9580
121.608040 83.820 11.8852
122.489258 83.822 11.7998
123.376869 83.823 11.7072
124.270905 83.823 11.6116
125.171425 83.823 11.5132
126.078468 83.821 11.4121
126.992081 83.818 11.3132
127.912323 83.812 11.2216
128.839233 83.806 11.1372
129.772842 83.801 11.0634
130.713242 83.796 10.9951
131.660431 83.793 10.9293
132.614502 83.791 10.8632
133.575485 83.790 10.7930
134.543427 83.789 10.7191
135.518387 83.788 10.6404
136.500412 83.787 10.5572
137.489548 83.785 10.4683
138.485855 83.782 10.3772
139.489380 83.777 10.2859
140.500168 83.771 10.1982
141.518295 83.763 10.1190
142.543793 83.754 10.0472
143.576721 83.746 9.9832
144.617142 83.737 9.9271
145.665100 83.728 9.8798
146.720642 83.720 9.8391
147.783844 83.713 9.8047
148.854752 83.708 9.7721
149.933411 83.704 9.7371
151.019897 83.701 9.6991
152.114243 83.698 9.6551
153.216522 83.694 9.6081
154.326797 83.689 9.5592
155.445114 83.682 9.5121
156.571533 83.674 9.4706
157.706116 83.665 9.4361
158.848923 83.656 9.4105
160.000000 83.646 9.3950
161.159424 83.636 9.3906
162.327255 83.626 9.3990
163.503540 83.617 9.4233
164.688354 83.609 9.4599
165.881760 83.605 9.5089
167.083801 83.605 9.5619
168.294571 83.608 9.6111
169.514099 83.614 9.6539
170.742462 83.622 9.6847
171.979736 83.631 9.7040
173.225967 83.642 9.7107
174.481232 83.653 9.7030
175.745605 83.665 9.6777
177.019119 83.677 9.6381
178.301880 83.686 9.5842
179.593933 83.692 9.5232
180.895340 83.696 9.4619
182.206177 83.699 9.4011
183.526520 83.700 9.3440
184.856430 83.701 9.2901
186.195984 83.701 9.2404
187.545227 83.701 9.1941
188.904266 83.701 9.1515
190.273132 83.701 9.1111
191.651932 83.701 9.0713
193.040726 83.701 9.0321
194.439575 83.701 8.9932
195.848572 83.701 8.9541
197.267761 83.701 8.9143
198.697250 83.700 8.8741
200.137085 83.699 8.8336
201.587372 83.697 8.7931
203.048157 83.695 8.7524
204.519531 83.692 8.7131
206.001556 83.688 8.6763
207.494324 83.684 8.6431
208.997925 83.679 8.6142
210.512405 83.673 8.5910
212.037857 83.666 8.5747
213.574371 83.659 8.5660
215.122025 83.652 8.5664
216.680893 83.645 8.5750
218.251053 83.639 8.5913
219.832581 83.633 8.6149
221.425583 83.628 8.6453
223.030121 83.623 8.6819
224.646286 83.619 8.7244
226.274170 83.617 8.7719
227.913849 83.616 8.8232
229.565399 83.616 8.8779
231.228928 83.617 8.9355
232.904510 83.619 8.9938
234.592224 83.624 9.0515
236.292191 83.631 9.1049
238.004456 83.639 9.1496
239.729126 83.648 9.1869
241.466309 83.656 9.2164
243.216080 83.665 9.2389
244.978516 83.674 9.2551
246.753738 83.682 9.2660
248.541809 83.689 9.2710
250.342850 83.694 9.2760
252.156937 83.697 9.2860
253.984161 83.699 9.3029
255.824646 83.702 9.3311
257.678467 83.705 9.3679
259.545685 83.709 9.4134
261.426483 83.715 9.4639
263.320862 83.723 9.5179
265.229004 83.734 9.5689
267.150970 83.748 9.6094
269.086853 83.763 9.6409
271.036774 83.777 9.6616
273.000824 83.790 9.6740
274.979095 83.804 9.6806
276.971710 83.817 9.6800
278.978760 83.830 9.6692
281.000336 83.842 9.6550
283.036591 83.850 9.6422
285.087585 83.857 9.6340
287.153442 83.864 9.6372
289.234283 83.872 9.6460
291.330200 83.882 9.6575
293.441284 83.892 9.6700
295.567688 83.903 9.6805
297.709503 83.914 9.6900
299.866821 83.926 9.6989
302.039795 83.938 9.7050
304.228485 83.951 9.7065
306.433044 83.965 9.7020
308.653595 83.979 9.6870
310.890228 83.991 9.6690
313.143066 83.999 9.6534
315.412231 84.005 9.6430
317.697845 84.013 9.6435
320.000000 84.022 9.6520
322.318848 84.030 9.6663
324.654510 84.038 9.6889
327.007080 84.047 9.7231
329.376709 84.057 9.7649
331.763519 84.071 9.8130
334.167603 84.088 9.8618
336.589142 84.107 9.9061
339.028198 84.129 9.9429
341.484924 84.154 9.9676
343.959473 84.180 9.9800
346.451935 84.206 9.9771
348.962463 84.232 9.9621
351.491211 84.257 9.9371
354.038239 84.283 9.9021
356.603760 84.309 9.8573
359.187866 84.335 9.8042
361.790680 84.359 9.7431
364.412354 84.383 9.6772
367.053040 84.405 9.6105
369.712860 84.428 9.5412
372.391968 84.452 9.4690
375.090454 84.476 9.3932
377.808533 84.500 9.3143
380.546265 84.525 9.2293
383.303864 84.552 9.1364
386.081451 84.580 9.0323
388.879150 84.609 8.9126
391.697144 84.637 8.7794
394.535522 84.664 8.6336
397.394501 84.690 8.4755
400.274170 84.716 8.3058
403.174744 84.742 8.1236
406.096313 84.767 7.9272
409.039062 84.791 7.7197
412.003113 84.812 7.5042
414.988647 84.833 7.2787
417.995850 84.854 7.0438
421.024811 84.876 6.7948
424.075714 84.897 6.5288
427.148743 84.918 6.2419
430.244049 84.938 5.9299
433.361786 84.956 5.5911
436.502106 84.971 5.2230
439.665161 84.983 4.8253
442.851166 84.991 4.3956
446.060242 84.992 3.9385
449.292572 84.985 3.4535
452.548340 84.968 2.9526
455.827698 84.941 2.4432
459.130798 84.902 1.9376
462.457855 84.852 1.4461
465.809021 84.790 0.9824
469.184448 84.715 0.5584
472.584381 84.629 0.1900
476.008911 84.532 -0.1053
479.458252 84.426 -0.3195
482.932617 84.315 -0.4390
486.432159 84.200 -0.4621
489.957031 84.084 -0.3812
493.507477 83.968 -0.1997
497.083618 83.858 0.0849
500.685699 83.754 0.4626
504.313873 83.661 0.9299
507.968323 83.580 1.4692
511.649292 83.516 2.0676
515.356934 83.467 2.7068
519.091370 83.435 3.3694
522.852966 83.418 4.0398
526.641724 83.418 4.7004
530.458008 83.432 5.3399
534.301941 83.460 5.9440
538.173706 83.499 6.5042
542.073547 83.549 7.0084
546.001648 83.606 7.4536
549.958191 83.668 7.8313
553.943420 83.733 8.1461
557.957520 83.799 8.3971
562.000671 83.864 8.5924
566.073181 83.927 8.7365
570.175171 83.987 8.8387
574.306885 84.043 8.9075
578.468567 84.095 8.9499
582.660400 84.144 8.9749
586.882568 84.191 8.9850
591.135376 84.236 8.9868
595.419006 84.280 8.9771
599.733643 84.324 8.9552
604.079590 84.368 8.9201
608.456970 84.410 8.8706
612.866089 84.452 8.8062
617.307190 84.493 8.7269
621.780457 84.534 8.6313
626.286133 84.573 8.5162
630.824463 84.609 8.3874
635.395691 84.641 8.2488
640.000000 84.670 8.1035
644.637695 84.698 7.9573
649.309021 84.724 7.8065
654.014160 84.750 7.6484
658.753418 84.774 7.4856
663.527039 84.794 7.3194
668.335205 84.813 7.1506
673.178284 84.831 6.9813
678.056396 84.848 6.8086
682.969849 84.863 6.6288
687.918945 84.876 6.4466
692.903870 84.885 6.2643
697.924927 84.891 6.0856
702.982422 84.895 5.9146
708.076477 84.896 5.7526
713.207520 84.895 5.6008
718.375732 84.892 5.4635
723.581360 84.887 5.3446
728.824707 84.880 5.2453
734.106079 84.873 5.1683
739.425720 84.867 5.1122
744.783936 84.863 5.0780
750.180908 84.861 5.0610
755.617065 84.861 5.0585
761.092529 84.865 5.0660
766.607727 84.873 5.0801
772.162903 84.885 5.0950
777.758301 84.901 5.1041
783.394287 84.919 5.1060
789.071045 84.939 5.0975
794.789001 84.962 5.0771
800.548340 84.988 5.0436
806.349487 85.017 4.9932
812.192627 85.046 4.9194
818.078125 85.076 4.8284
824.006226 85.103 4.7235
829.977295 85.130 4.6074
835.991699 85.158 4.4853
842.049622 85.188 4.3525
848.151428 85.219 4.2066
854.297485 85.251 4.0466
860.488098 85.284 3.8719
866.723572 85.318 3.6788
873.004211 85.355 3.4660
879.330322 85.394 3.2249
885.702332 85.435 2.9482
892.120483 85.478 2.6302
898.585144 85.521 2.2647
905.096680 85.564 1.8467
911.655396 85.605 1.3682
918.261597 85.641 0.8321
924.915710 85.669 0.2365
931.618042 85.689 -0.4126
938.368896 85.700 -1.1124
945.168762 85.700 -1.8541
952.017822 85.685 -2.6337
958.916504 85.655 -3.4349
965.865234 85.608 -4.2483
972.864319 85.543 -5.0501
979.914062 85.457 -5.8226
987.014954 85.351 -6.5384
994.167236 85.226 -7.1700
1001.371399 85.086 -7.6993
1008.627747 84.931 -8.1026
1015.936646 84.766 -8.3702
1023.298584 84.592 -8.4833
1030.713867 84.417 -8.4444
1038.182739 84.245 -8.2410
1045.705933 84.084 -7.9007
1053.283447 83.941 -7.4365
1060.916016 83.815 -6.8795
1068.603882 83.711 -6.2582
1076.347412 83.625 -5.5948
1084.147095 83.561 -4.9158
1092.003296 83.514 -4.2373
1099.916382 83.484 -3.5818
1107.886841 83.469 -2.9556
1115.915039 83.466 -2.3711
1124.001343 83.472 -1.8319
1132.146362 83.486 -1.3456
1140.350342 83.506 -0.9116
1148.613770 83.530 -0.5319
1156.937134 83.558 -0.2063
1165.320801 83.588 0.0654
1173.765137 83.619 0.2822
1182.270752 83.649 0.4413
1190.838013 83.677 0.5487
1199.467285 83.700 0.6054
1208.159180 83.718 0.6230
1216.913940 83.728 0.6095
1225.732178 83.730 0.5771
1234.614380 83.723 0.5362
1243.560913 83.708 0.5001
1252.572266 83.685 0.4823
1261.648926 83.654 0.4929
1270.791382 83.617 0.5463
1280.000000 83.576 0.6435
1289.275391 83.535 0.7926
1298.618042 83.495 0.9871
1308.028320 83.458 1.2263
1317.506836 83.424 1.5017
1327.054077 83.397 1.8084
1336.670410 83.375 2.1357
1346.356567 83.361 2.4732
1356.112793 83.353 2.8147
1365.939697 83.350 3.1524
1375.837891 83.353 3.4817
1385.807739 83.362 3.7980
1395.849854 83.376 4.0939
1405.964844 83.394 4.3620
1416.152954 83.415 4.5972
1426.415039 83.440 4.7940
1436.751465 83.466 4.9455
1447.162720 83.493 5.0419
1457.649414 83.518 5.0859
1468.212158 83.536 5.0727
1478.851440 83.546 5.0153
1489.567871 83.545 4.9193
1500.361816 83.531 4.8025
1511.234131 83.502 4.6717
1522.185059 83.456 4.5654
1533.215454 83.387 4.5137
1544.325806 83.300 4.5486
1555.516602 83.201 4.7099
1566.788574 83.093 5.0035
1578.142090 82.982 5.4496
1589.578003 82.873 6.0442
1601.096680 82.771 6.8009
1612.698975 82.684 7.6871
1624.385254 82.623 8.6898
1636.156250 82.587 9.7631
1648.012451 82.581 10.8679
1659.954590 82.600 11.9710
1671.983398 82.644 13.0310
1684.099243 82.709 14.0330
1696.302856 82.788 14.9480
1708.594971 82.879 15.7765
1720.976196 82.974 16.5038
1733.447144 83.071 17.1464
1746.008423 83.163 17.7075
1758.660645 83.251 18.2120
1771.404663 83.330 18.6805
1784.240967 83.403 19.1292
1797.170288 83.471 19.5781
1810.193359 83.535 20.0361
1823.310791 83.596 20.5181
1836.523193 83.658 21.0269
1849.831421 83.722 21.5750
1863.236084 83.793 22.1494
1876.737793 83.874 22.7467
1890.337524 83.965 23.3504
1904.035645 84.065 23.9457
1917.833008 84.176 24.5228
1931.730469 84.295 25.0701
1945.728638 84.423 25.5779
1959.828125 84.560 26.0327
1974.029907 84.700 26.4334
1988.334473 84.843 26.7719
2002.742798 84.986 27.0560
2017.255493 85.129 27.2910
2031.873291 85.271 27.4764
2046.597168 85.415 27.6140
2061.427734 85.557 27.7017
2076.365479 85.697 27.7353
2091.411865 85.832 27.7231
2106.566895 85.960 27.6699
2121.832031 86.082 27.5834
2137.207764 86.196 27.4670
2152.694824 86.302 27.3385
2168.294189 86.393 27.2079
2184.006592 86.473 27.1024
2199.832764 86.541 27.0466
2215.773682 86.603 27.0588
2231.830078 86.658 27.1657
2248.002686 86.715 27.3670
2264.292725 86.780 27.6787
2280.700684 86.858 28.0771
2297.227539 86.956 28.5560
2313.874268 87.075 29.0778
2330.641602 87.223 29.6147
2347.530273 87.394 30.1309
2364.541504 87.589 30.5908
2381.676025 87.804 30.9665
2398.934570 88.038 31.2178
2416.318359 88.282 31.3457
2433.827881 88.525 31.3322
2451.464355 88.769 31.1948
2469.228760 89.010 30.9418
2487.121826 89.247 30.5837
2505.144531 89.478 30.1295
2523.297852 89.703 29.5926
2541.582764 89.920 28.9875
2560.000000 90.131 28.3211
2578.550781 90.338 27.6070
2597.236084 90.540 26.8387
2616.056641 90.740 26.0161
2635.013672 90.937 25.1329
2654.108154 91.130 24.1826
2673.340820 91.316 23.1646
2692.713135 91.495 22.0717
2712.225586 91.661 20.9165
2731.879395 91.812 19.7014
2751.675781 91.947 18.4508
2771.615479 92.065 17.1812
2791.699707 92.165 15.9205
2811.929688 92.246 14.6967
2832.305908 92.315 13.5263
2852.830078 92.376 12.4391
2873.502930 92.435 11.4243
2894.325439 92.498 10.4909
2915.298828 92.569 9.6079
2936.424316 92.653 8.7567
2957.702881 92.748 7.9087
2979.135742 92.853 7.0349
3000.723633 92.965 6.1191
3022.468262 93.085 5.1364
3044.370117 93.205 4.0850
3066.430908 93.324 2.9487
3088.651611 93.438 1.7455
3111.033203 93.540 0.4849
3133.577148 93.635 -0.8227
3156.284180 93.723 -2.1631
3179.156006 93.805 -3.5384
3202.193359 93.881 -4.9468
3225.397949 93.950 -6.3861
3248.770508 94.009 -7.8529
3272.312500 94.061 -9.3492
3296.024902 94.106 -10.8779
3319.909180 94.142 -12.4337
3343.966797 94.163 -14.0182
3368.198486 94.171 -15.6144
3392.605713 94.164 -17.2125
3417.189941 94.142 -18.7928
3441.952393 94.102 -20.3395
3466.894287 94.047 -21.8305
3492.016846 93.977 -23.2411
3517.321289 93.895 -24.5621
3542.809326 93.807 -25.7735
3568.481934 93.716 -26.8831
3594.340576 93.628 -27.8858
3620.386719 93.544 -28.8008
3646.621582 93.471 -29.6359
3673.046387 93.410 -30.4203
3699.662842 93.366 -31.1765
3726.472168 93.335 -31.9335
3753.475586 93.319 -32.7256
3780.675049 93.311 -33.5601
3808.071289 93.307 -34.4586
3835.666016 93.304 -35.4113
3863.460938 93.297 -36.4180
3891.457275 93.286 -37.4719
3919.656250 93.272 -38.5693
3948.059814 93.252 -39.7007
3976.668945 93.221 -40.8593
4005.485596 93.181 -42.0322
4034.510986 93.133 -43.2066
4063.746582 93.076 -44.3765
4093.194336 93.012 -45.5349
4122.855469 92.940 -46.6725
4152.730957 92.858 -47.7801
4182.823730 92.769 -48.8500
4213.133789 92.676 -49.8702
4243.664062 92.578 -50.8455
4274.415527 92.481 -51.7744
4305.389648 92.382 -52.6637
4336.588379 92.285 -53.5181
4368.013184 92.188 -54.3421
4399.665527 92.094 -55.1413
4431.547363 92.000 -55.9173
4463.660156 91.908 -56.6742
4496.005371 91.816 -57.4104
4528.585449 91.725 -58.1277
4561.401367 91.633 -58.8188
4594.455078 91.540 -59.4766
4627.748535 91.449 -60.1010
4661.283203 91.364 -60.6829
4695.060547 91.286 -61.2423
4729.083008 91.221 -61.7864
4763.352051 91.167 -62.3453
4797.869141 91.129 -62.9408
4832.636719 91.102 -63.6054
4867.655762 91.088 -64.3721
4902.928711 91.079 -65.2613
4938.457520 91.070 -66.3124
4974.243652 91.050 -67.5020
5010.289062 91.007 -68.8397
5046.595703 90.935 -70.2657
5083.165527 90.829 -71.7483
5120.000000 90.684 -73.2120
5157.101562 90.495 -74.5991
5194.472168 90.265 -75.8245
5232.113281 89.989 -76.7969
5270.027344 89.685 -77.4774
5308.216309 89.365 -77.7851
5346.681641 89.048 -77.7560
5385.426270 88.750 -77.3740
5424.451172 88.489 -76.7168
5463.758789 88.281 -75.8180
5503.351562 88.138 -74.7942
5543.230957 88.078 -73.7336
5583.399414 88.091 -72.7564
5623.859375 88.176 -71.9846
5664.611816 88.313 -71.5015
5705.660156 88.495 -71.4344
5747.005859 88.688 -71.7732
5788.650879 88.858 -72.5871
5830.597656 88.992 -73.7631
5872.848633 89.066 -75.2612
5915.405762 89.077 -76.9282
5958.271484 89.012 -78.6505
6001.447266 88.877 -80.2682
6044.936523 88.662 -81.6039
6088.740234 88.397 -82.5950
6132.861816 88.100 -83.0961
6177.303223 87.801 -83.1796
6222.066406 87.532 -82.8278
6267.154297 87.309 -82.1699
6312.568359 87.158 -81.2784
6358.312012 87.083 -80.3078
6404.386719 87.108 -79.4041
6450.795898 87.201 -78.6672
6497.541016 87.345 -78.2482
6544.625000 87.518 -78.1397
6592.049805 87.697 -78.4019
6639.818359 87.870 -78.9802
6687.933594 88.021 -79.8610
6736.396973 88.146 -80.9807
6785.211426 88.240 -82.2903
6834.379883 88.301 -83.7313
6883.904785 88.325 -85.2413
6933.788574 88.318 -86.7831
6984.033691 88.284 -88.3052
7034.642578 88.226 -89.7887
7085.618652 88.146 -91.2026
7136.963867 88.048 -92.5316
7188.681152 87.935 -93.7491
7240.773438 87.816 -94.8577
7293.243164 87.695 -95.8411
7346.092773 87.580 -96.7297
7399.325684 87.480 -97.5327
7452.944336 87.396 -98.2982
7506.951172 87.335 -99.0611
7561.350098 87.294 -99.8706
7616.142578 87.277 -100.7783
7671.332031 87.273 -101.8123
7726.921875 87.276 -103.0166
7782.914551 87.280 -104.3944
7839.312500 87.279 -105.9724
7896.119629 87.262 -107.7253
7953.337891 87.219 -109.6523
8010.971191 87.147 -111.7059
8069.021973 87.041 -113.8442
8127.493164 86.903 -116.0482
8186.388672 86.738 -118.2906
8245.710938 86.540 -120.5550
8305.461914 86.306 -122.8238
8365.647461 86.039 -125.0732
8426.267578 85.738 -127.2773
8487.328125 85.404 -129.4239
8548.831055 85.040 -131.5061
8610.779297 84.637 -133.4809
8673.176758 84.188 -135.3211
8736.026367 83.697 -136.9707
8799.331055 83.164 -138.3796
8863.094727 82.591 -139.5029
8927.320312 81.977 -140.2971
8992.010742 81.325 -140.7079
9057.170898 80.633 -140.6819
9122.802734 79.914 -140.1721
9188.910156 79.174 -139.1218
9255.497070 78.425 -137.5063
9322.566406 77.673 -135.2785
9390.121094 76.940 -132.4486
9458.166016 76.238 -128.9853
9526.704102 75.598 -124.9676
9595.738281 75.045 -120.4158
9665.273438 74.606 -115.4749
9735.311523 74.314 -110.2421
9805.857422 74.175 -104.8841
9876.915039 74.212 -99.5458
9948.487305 74.404 -94.3921
10020.578125 74.751 -89.6019
10093.191406 75.211 -85.2779
10166.331055 75.754 -81.5792
10240.000000 76.348 -78.5144
10314.203125 76.959 -76.1621
10388.944336 77.569 -74.4695
10464.226562 78.153 -73.4429
10540.054688 78.704 -72.9792
10616.432617 79.203 -73.0121
10693.363281 79.656 -73.4395
10770.852539 80.060 -74.1605
10848.902344 80.420 -75.1034
10927.517578 80.738 -76.1759
11006.703125 81.023 -77.3386
11086.461914 81.279 -78.5250
11166.798828 81.515 -79.7253
11247.718750 81.735 -80.9037
11329.223633 81.948 -82.0720
11411.320312 82.160 -83.2195
11494.011719 82.376 -84.3796
11577.301758 82.603 -85.5707
11661.195312 82.841 -86.8278
11745.697266 83.092 -88.1788
11830.811523 83.356 -89.6635
11916.542969 83.635 -91.3156
12002.894531 83.923 -93.1820
12089.873047 84.220 -95.3119
12177.480469 84.513 -97.7333
12265.723633 84.796 -100.4919
12354.606445 85.057 -103.5833
12444.132812 85.286 -107.0256
12534.308594 85.477 -110.7957
12625.136719 85.622 -114.8909
12716.624023 85.714 -119.2682
12808.773438 85.741 -123.8998
12901.591797 85.704 -128.7360
12995.082031 85.599 -133.7310
13089.250000 85.423 -138.8451
13184.099609 85.176 -144.0575
13279.636719 84.844 -149.2663
13375.867188 84.414 -154.4080
13472.793945 83.888 -159.3448
13570.422852 83.268 -163.9639
13668.759766 82.550 -168.1249
13767.809570 81.732 -171.7127
13867.577148 80.807 -174.5381
13968.067383 79.758 -176.4112
14069.285156 78.614 -177.2177
14171.237305 77.387 -176.7798
14273.927734 76.109 -175.0993
14377.362305 74.797 -172.0816
14481.546875 73.511 -167.8419
14586.486328 72.284 -162.3615
14692.185547 71.224 -155.9516
14798.651367 70.446 -148.7992
14905.888672 69.962 -141.2653
15013.902344 69.833 -133.6679
15122.700195 70.024 -126.3264
15232.285156 70.561 -119.5903
15342.664062 71.323 -113.6868
15453.843750 72.213 -108.9425
15565.829102 73.181 -105.4096
15678.625000 74.151 -103.2739
15792.239258 75.094 -102.4519
15906.675781 75.964 -102.9902
16021.942383 76.739 -104.6820
16138.043945 77.380 -107.4120
16254.986328 77.895 -110.9465
16372.777344 78.283 -115.0769
16491.421875 78.544 -119.6111
16610.923828 78.676 -124.3432
16731.294922 78.684 -129.1046
16852.535156 78.569 -133.6913
16974.656250 78.349 -138.0020
17097.662109 78.035 -141.8756
17221.558594 77.645 -145.2868
17346.353516 77.188 -148.1440
17472.052734 76.690 -150.4863
17598.662109 76.175 -152.3018
17726.189453 75.651 -153.6554
17854.640625 75.134 -154.5927
17984.021484 74.630 -155.1608
18114.341797 74.146 -155.4025
18245.605469 73.691 -155.3758
18377.820312 73.279 -155.1417
18510.994141 72.899 -154.7338
18645.132812 72.546 -154.1962
18780.242188 72.226 -153.5577
18916.332031 71.946 -152.8499
19053.408203 71.700 -152.1082
19191.476562 71.483 -151.3734
19330.546875 71.293 -150.6608
19470.623047 71.128 -149.9965
19611.714844 70.983 -149.3893
19753.830078 70.854 -148.8568
19896.974609 70.737 -148.3976
