* Measurement data measured by REW V5.20.13
* Source: C:\Users\kurin\Desktop\Targets and Curves\Resolve\Img\Files\Rode nth-100_SPL.txt
* Format: Comma/Tab/Space delimited data
* Dated: Aug 15, 2023 12:30:31 AM
* REW Settings:
*  C-weighting compensation: Off
*  Target level: 75.0 dB
* Note: ; Measurement imported from C:\Users\kurin\Desktop\Targets and Curves\Resolve\Img\Files\Rode nth-100_SPL.txt Format: Comma/Tab/Space delimited data 623 values loaded, 5 Hz to 39,792 Hz log spaced 
* Measurement: Rode nth-100_SPL
* Smoothing: 1/48 octave
* Frequency Step: 1/96 octave
* Start Frequency: 5.000 Hz
*
* Freq(Hz) SPL(dB) Phase(degrees)
5.000000 83.554 68.8460
5.036232 83.577 68.8282
5.072727 83.602 68.8090
5.109486 83.631 68.7866
5.146511 83.664 68.7610
5.183805 83.704 68.7305
5.221369 83.747 68.6980
5.259205 83.792 68.6664
5.297316 83.840 68.6340
5.335702 83.890 68.5993
5.374367 83.941 68.5640
5.413311 83.992 68.5295
5.452538 84.043 68.4950
5.492050 84.094 68.4601
5.531847 84.145 68.4250
5.571934 84.196 68.3901
5.612310 84.247 68.3550
5.652979 84.298 68.3191
5.693943 84.349 68.2830
5.735204 84.400 68.2471
5.776763 84.451 68.2110
5.818624 84.502 68.1741
5.860788 84.553 68.1370
5.903258 84.604 68.1001
5.946035 84.655 68.0630
5.989123 84.706 68.0256
6.032523 84.757 67.9880
6.076237 84.808 67.9502
6.120268 84.859 67.9120
6.164618 84.910 67.8731
6.209289 84.961 67.8340
6.254284 85.012 67.7951
6.299605 85.063 67.7560
6.345255 85.114 67.7161
6.391235 85.165 67.6760
6.437549 85.215 67.6361
6.484198 85.266 67.5960
6.531185 85.317 67.5552
6.578513 85.368 67.5140
6.626183 85.419 67.4726
6.674199 85.470 67.4310
6.722563 85.521 67.3891
6.771278 85.572 67.3470
6.820345 85.623 67.3047
6.869768 85.674 67.2620
6.919549 85.725 67.2186
6.969691 85.776 67.1750
7.020196 85.827 67.1316
7.071068 85.878 67.0880
7.122308 85.929 67.0438
7.173919 85.980 66.9990
7.225904 86.031 66.9536
7.278266 86.082 66.9080
7.331007 86.133 66.8626
7.384131 86.184 66.8170
7.437639 86.235 66.7707
7.491535 86.286 66.7240
7.545822 86.337 66.6772
7.600502 86.388 66.6300
7.655579 86.439 66.5822
7.711054 86.490 66.5340
7.766932 86.541 66.4856
7.823214 86.592 66.4370
7.879904 86.642 66.3882
7.937005 86.693 66.3390
7.994520 86.744 66.2893
8.052452 86.795 66.2390
8.110803 86.846 66.1882
8.169578 86.897 66.1370
8.228777 86.948 66.0856
8.288406 86.999 66.0340
8.348468 87.050 65.9822
8.408964 87.101 65.9300
8.469899 87.152 65.8772
8.531276 87.203 65.8240
8.593097 87.254 65.7708
8.655366 87.305 65.7170
8.718086 87.356 65.6622
8.781260 87.407 65.6070
8.844893 87.458 65.5522
8.908987 87.509 65.4970
8.973545 87.560 65.4408
9.038571 87.611 65.3840
9.104069 87.662 65.3272
9.170040 87.713 65.2700
9.236490 87.764 65.2122
9.303422 87.815 65.1540
9.370838 87.866 65.0958
9.438744 87.917 65.0370
9.507140 87.967 64.9773
9.576033 88.018 64.9170
9.645425 88.069 64.8567
9.715320 88.120 64.7960
9.785721 88.171 64.7348
9.856632 88.222 64.6730
9.928058 88.273 64.6108
10.000000 88.324 64.5480
10.072464 88.375 64.4847
10.145453 88.426 64.4211
10.218971 88.477 64.3573
10.293022 88.528 64.2930
10.367610 88.579 64.2278
10.442738 88.630 64.1620
10.518411 88.681 64.0958
10.594631 88.732 64.0290
10.671404 88.783 63.9618
10.748734 88.834 63.8940
10.826623 88.885 63.8258
10.905077 88.936 63.7571
10.984100 88.987 63.6878
11.063695 89.038 63.6180
11.143867 89.089 63.5478
11.224621 89.140 63.4770
11.305959 89.191 63.4059
11.387886 89.242 63.3341
11.470407 89.293 63.2613
11.553527 89.344 63.1880
11.637249 89.394 63.1143
11.721577 89.445 63.0401
11.806517 89.496 62.9653
11.892071 89.547 62.8901
11.978246 89.598 62.8144
12.065045 89.649 62.7380
12.152473 89.700 62.6603
12.240536 89.751 62.5820
12.329235 89.802 62.5038
12.418578 89.853 62.4251
12.508568 89.904 62.3454
12.599211 89.955 62.2650
12.690510 90.006 62.1839
12.782471 90.057 62.1021
12.875097 90.108 62.0199
12.968395 90.159 61.9371
13.062370 90.210 61.8534
13.157025 90.261 61.7690
13.252366 90.312 61.6839
13.348398 90.363 61.5981
13.445127 90.414 61.5119
13.542556 90.465 61.4251
13.640691 90.516 61.3374
13.739536 90.567 61.2490
13.839099 90.618 61.1600
13.939383 90.669 61.0701
14.040393 90.719 60.9789
14.142136 90.770 60.8870
14.244616 90.821 60.7948
14.347837 90.872 60.7020
14.451808 90.923 60.6085
14.556532 90.974 60.5140
14.662014 91.025 60.4185
14.768262 91.076 60.3221
14.875278 91.127 60.2250
14.983070 91.178 60.1271
15.091644 91.229 60.0285
15.201005 91.280 59.9291
15.311157 91.331 59.8286
15.422109 91.382 59.7271
15.533863 91.433 59.6245
15.646428 91.484 59.5211
15.759809 91.535 59.4170
15.874010 91.586 59.3121
15.989040 91.637 59.2060
16.104904 91.688 59.0991
16.221605 91.739 58.9916
16.339155 91.790 58.8831
16.457554 91.841 58.7731
16.576813 91.892 58.6621
16.696936 91.943 58.5505
16.817928 91.994 58.4381
16.939798 92.044 58.3247
17.062551 92.095 58.2101
17.186193 92.146 58.0942
17.310732 92.197 57.9771
17.436172 92.248 57.8591
17.562521 92.299 57.7401
17.689787 92.350 57.6202
17.817974 92.401 57.4991
17.947090 92.452 57.3767
18.077143 92.503 57.2531
18.208138 92.554 57.1282
18.340080 92.605 57.0021
18.472980 92.656 56.8752
18.606844 92.707 56.7471
18.741676 92.758 56.6173
18.877487 92.809 56.4861
19.014280 92.860 56.3539
19.152065 92.911 56.2202
19.290850 92.962 56.0844
19.430639 93.013 55.9471
19.571442 93.064 55.8085
19.713264 93.114 55.6692
19.856115 93.164 55.5293
20.000000 93.213 55.3901
20.144928 93.263 55.2528
20.290907 93.313 55.1171
20.437943 93.363 54.9839
20.586044 93.414 54.8511
20.735220 93.467 54.7181
20.885475 93.521 54.5812
21.036821 93.576 54.4359
21.189262 93.631 54.2832
21.342808 93.685 54.1226
21.497467 93.740 53.9542
21.653246 93.795 53.7776
21.810154 93.849 53.5932
21.968201 93.902 53.3999
22.127390 93.953 53.2022
22.287735 94.002 53.0040
22.449242 94.049 52.8072
22.611917 94.096 52.6151
22.775772 94.143 52.4272
22.940815 94.189 52.2444
23.107054 94.235 52.0662
23.274498 94.282 51.8929
23.443153 94.329 51.7232
23.613033 94.377 51.5575
23.784142 94.426 51.3921
23.956491 94.477 51.2250
24.130091 94.530 51.0522
24.304947 94.584 50.8688
24.481071 94.639 50.6753
24.658470 94.694 50.4706
24.837156 94.749 50.2543
25.017136 94.804 50.0254
25.198421 94.858 49.7843
25.381020 94.910 49.5294
25.564941 94.961 49.2652
25.750195 95.009 48.9952
25.936790 95.056 48.7203
26.124741 95.101 48.4421
26.314051 95.144 48.1624
26.504732 95.184 47.8824
26.696796 95.223 47.6053
26.890253 95.260 47.3350
27.085112 95.295 47.0703
27.281382 95.331 46.8108
27.479073 95.365 46.5583
27.678198 95.396 46.3140
27.878765 95.427 46.0803
28.080786 95.458 45.8622
28.284271 95.490 45.6543
28.489231 95.524 45.4535
28.695675 95.559 45.2583
28.903616 95.594 45.0666
29.113064 95.631 44.8773
29.324028 95.670 44.6898
29.536524 95.710 44.5002
29.750557 95.752 44.3050
29.966141 95.796 44.1022
30.183289 95.840 43.8884
30.402010 95.885 43.6643
30.622314 95.929 43.4290
30.844217 95.973 43.1833
31.067726 96.016 42.9265
31.292856 96.058 42.6624
31.519617 96.098 42.3938
31.748020 96.136 42.1223
31.978081 96.173 41.8508
32.209808 96.210 41.5784
32.443211 96.246 41.3055
32.678310 96.282 41.0314
32.915108 96.317 40.7553
33.153625 96.352 40.4773
33.393871 96.386 40.1975
33.635857 96.419 39.9154
33.879597 96.452 39.6312
34.125103 96.484 39.3444
34.372387 96.515 39.0535
34.621464 96.545 38.7614
34.872345 96.573 38.4705
35.125042 96.600 38.1814
35.379574 96.626 37.8960
35.635948 96.652 37.6123
35.894180 96.678 37.3284
36.154285 96.702 37.0464
36.416275 96.724 36.7677
36.680161 96.745 36.4924
36.945961 96.768 36.2214
37.213688 96.790 35.9534
37.483353 96.810 35.6864
37.754974 96.830 35.4234
38.028561 96.849 35.1674
38.304131 96.867 34.9163
38.581699 96.887 34.6695
38.861279 96.906 34.4264
39.142883 96.924 34.1861
39.426529 96.942 33.9493
39.712231 96.961 33.7170
40.000000 96.980 33.4873
40.289856 96.999 33.2586
40.581814 97.018 33.0313
40.875885 97.037 32.8060
41.172089 97.056 32.5813
41.470440 97.076 32.3560
41.770950 97.095 32.1314
42.073643 97.113 31.9076
42.378525 97.130 31.6863
42.685616 97.148 31.4702
42.994934 97.167 31.2563
43.306492 97.186 31.0418
43.620308 97.204 30.8293
43.936401 97.221 30.6213
44.254780 97.239 30.4153
44.575470 97.259 30.2097
44.898483 97.279 30.0043
45.223835 97.298 29.7980
45.551544 97.317 29.5923
45.881630 97.336 29.3894
46.214108 97.356 29.1863
46.548996 97.377 28.9805
46.886307 97.398 28.7733
47.226067 97.418 28.5652
47.568283 97.438 28.3563
47.912983 97.458 28.1480
48.260181 97.479 27.9383
48.609894 97.500 27.7256
48.962143 97.522 27.5103
49.316940 97.543 27.2923
49.674313 97.564 27.0724
50.034271 97.585 26.8515
50.396843 97.606 26.6283
50.762039 97.627 26.4025
51.129883 97.649 26.1724
51.500389 97.671 25.9364
51.873581 97.692 25.6944
52.249481 97.713 25.4452
52.628101 97.734 25.1904
53.009464 97.753 24.9313
53.393593 97.772 24.6684
53.780506 97.789 24.4036
54.170223 97.806 24.1344
54.562763 97.823 23.8583
54.958145 97.838 23.5784
55.356396 97.850 23.2971
55.757530 97.861 23.0154
56.161572 97.871 22.7357
56.568542 97.880 22.4565
56.978462 97.887 22.1758
57.391350 97.893 21.8975
57.807232 97.896 21.6247
58.226128 97.898 21.3575
58.648056 97.899 21.0972
59.073048 97.898 20.8434
59.501114 97.896 20.5949
59.932281 97.893 20.3544
60.366577 97.887 20.1236
60.804020 97.880 19.9054
61.244629 97.872 19.7031
61.688435 97.863 19.5163
62.135452 97.854 19.3457
62.585712 97.845 19.1913
63.039234 97.836 19.0532
63.496040 97.828 18.9312
63.956161 97.821 18.8260
64.419617 97.816 18.7342
64.886421 97.813 18.6527
65.356621 97.811 18.5811
65.830215 97.810 18.5173
66.307251 97.810 18.4631
66.787743 97.812 18.4201
67.271713 97.816 18.3871
67.759193 97.823 18.3643
68.250206 97.832 18.3490
68.744774 97.844 18.3390
69.242928 97.859 18.3320
69.744690 97.878 18.3271
70.250084 97.900 18.3190
70.759148 97.926 18.3029
71.271896 97.956 18.2761
71.788361 97.989 18.2348
72.308571 98.024 18.1781
72.832550 98.061 18.1042
73.360321 98.100 18.0112
73.891922 98.141 17.8962
74.427376 98.182 17.7603
74.966705 98.223 17.6028
75.509949 98.263 17.4263
76.057121 98.303 17.2324
76.608261 98.341 17.0234
77.163399 98.377 16.8025
77.722557 98.412 16.5695
78.285767 98.448 16.3250
78.853058 98.482 16.0705
79.424461 98.513 15.8070
80.000000 98.543 15.5365
80.579712 98.572 15.2620
81.163628 98.601 14.9815
81.751770 98.629 14.6940
82.344177 98.656 14.4006
82.940880 98.681 14.1017
83.541901 98.704 13.7986
84.147285 98.726 13.4921
84.757050 98.747 13.1836
85.371231 98.766 12.8747
85.989868 98.785 12.5656
86.612984 98.803 12.2577
87.240616 98.820 11.9486
87.872803 98.837 11.6353
88.509560 98.854 11.3206
89.150940 98.868 11.0074
89.796967 98.881 10.6937
90.447670 98.896 10.3797
91.103088 98.912 10.0617
91.763260 98.927 9.7347
92.428215 98.940 9.4027
93.097992 98.952 9.0678
93.772614 98.962 8.7297
94.452133 98.972 8.3886
95.136566 98.980 8.0447
95.825966 98.987 7.6973
96.520363 98.993 7.3498
97.219788 98.996 7.0055
97.924286 98.998 6.6647
98.633881 98.999 6.3291
99.348625 99.000 5.9977
100.068542 99.000 5.6703
100.793686 99.000 5.3458
101.524078 99.000 5.0236
102.259766 99.000 4.7018
103.000778 99.000 4.3786
103.747162 99.000 4.0536
104.498962 98.999 3.7256
105.256203 98.998 3.3946
106.018929 98.996 3.0595
106.787186 98.993 2.7226
107.561012 98.987 2.3852
108.340446 98.980 2.0505
109.125526 98.972 1.7227
109.916290 98.963 1.4006
110.712791 98.954 1.0848
111.515060 98.945 0.7737
112.323143 98.936 0.4660
113.137085 98.928 0.1606
113.956924 98.920 -0.1423
114.782700 98.913 -0.4482
115.614464 98.908 -0.7623
116.452255 98.903 -1.0844
117.296112 98.896 -1.4170
118.146095 98.888 -1.7563
119.002228 98.879 -2.0987
119.864563 98.868 -2.4451
120.733154 98.857 -2.7960
121.608040 98.844 -3.1492
122.489258 98.828 -3.5031
123.376869 98.810 -3.8561
124.270905 98.792 -4.2050
125.171425 98.773 -4.5534
126.078468 98.754 -4.9051
126.992081 98.733 -5.2562
127.912323 98.709 -5.6044
128.839233 98.683 -5.9483
129.772842 98.657 -6.2849
130.713242 98.631 -6.6173
131.660431 98.604 -6.9487
132.614502 98.575 -7.2761
133.575485 98.545 -7.5967
134.543427 98.514 -7.9134
135.518387 98.485 -8.2266
136.500412 98.456 -8.5404
137.489548 98.426 -8.8602
138.485855 98.394 -9.1822
139.489380 98.360 -9.5044
140.500168 98.325 -9.8263
141.518295 98.289 -10.1466
142.543793 98.252 -10.4652
143.576721 98.213 -10.7826
144.617142 98.171 -11.0963
145.665100 98.128 -11.4034
146.720642 98.083 -11.7052
147.783844 98.037 -12.0018
148.854752 97.989 -12.2932
149.933411 97.940 -12.5803
151.019897 97.890 -12.8613
152.114243 97.838 -13.1350
153.216522 97.783 -13.4003
154.326797 97.727 -13.6564
155.445114 97.669 -13.9014
156.571533 97.609 -14.1339
157.706116 97.547 -14.3515
158.848923 97.483 -14.5509
160.000000 97.419 -14.7346
161.159424 97.356 -14.9036
162.327255 97.292 -15.0587
163.503540 97.227 -15.2009
164.688354 97.162 -15.3307
165.881760 97.098 -15.4485
167.083801 97.034 -15.5557
168.294571 96.969 -15.6546
169.514099 96.904 -15.7428
170.742462 96.838 -15.8188
171.979736 96.771 -15.8818
173.225967 96.704 -15.9310
174.481232 96.637 -15.9659
175.745605 96.570 -15.9861
177.019119 96.502 -15.9910
178.301880 96.435 -15.9797
179.593933 96.368 -15.9531
180.895340 96.302 -15.9112
182.206177 96.237 -15.8561
183.526520 96.174 -15.7897
184.856430 96.111 -15.7132
186.195984 96.050 -15.6293
187.545227 95.989 -15.5362
188.904266 95.928 -15.4333
190.273132 95.867 -15.3203
191.651932 95.808 -15.1961
193.040726 95.750 -15.0624
194.439575 95.693 -14.9217
195.848572 95.635 -14.7704
197.267761 95.577 -14.6057
198.697250 95.519 -14.4275
200.137085 95.463 -14.2335
201.587372 95.409 -14.0275
203.048157 95.357 -13.8140
204.519531 95.305 -13.5887
206.001556 95.253 -13.3483
207.494324 95.202 -13.0936
208.997925 95.155 -12.8225
210.512405 95.110 -12.5407
212.037857 95.068 -12.2539
213.574371 95.028 -11.9597
215.122025 94.989 -11.6568
216.680893 94.953 -11.3478
218.251053 94.922 -11.0335
219.832581 94.893 -10.7189
221.425583 94.867 -10.4105
223.030121 94.843 -10.1058
224.646286 94.819 -9.8046
226.274170 94.797 -9.5058
227.913849 94.776 -9.2077
229.565399 94.756 -8.9107
231.228928 94.737 -8.6159
232.904510 94.719 -8.3199
234.592224 94.701 -8.0202
236.292191 94.683 -7.7158
238.004456 94.667 -7.4041
239.729126 94.652 -7.0879
241.466309 94.640 -6.7686
243.216080 94.629 -6.4469
244.978516 94.620 -6.1234
246.753738 94.613 -5.7989
248.541809 94.608 -5.4748
250.342850 94.604 -5.1509
252.156937 94.602 -4.8286
253.984161 94.601 -4.5059
255.824646 94.601 -4.1820
257.678467 94.602 -3.8548
259.545685 94.604 -3.5214
261.426483 94.609 -3.1829
263.320862 94.616 -2.8379
265.229004 94.627 -2.4910
267.150970 94.641 -2.1453
269.086853 94.659 -1.8040
271.036774 94.681 -1.4696
273.000824 94.706 -1.1459
274.979095 94.735 -0.8375
276.971710 94.766 -0.5449
278.978760 94.799 -0.2706
281.000336 94.833 -0.0137
283.036591 94.868 0.2262
285.087585 94.905 0.4493
287.153442 94.942 0.6547
289.234283 94.980 0.8465
291.330200 95.015 1.0287
293.441284 95.051 1.2005
295.567688 95.090 1.3634
297.709503 95.130 1.5146
299.866821 95.169 1.6508
302.039795 95.208 1.7756
304.228485 95.247 1.8920
306.433044 95.286 1.9987
308.653595 95.327 2.0956
310.890228 95.368 2.1818
313.143066 95.409 2.2560
315.412231 95.450 2.3198
317.697845 95.491 2.3753
320.000000 95.532 2.4199
322.318848 95.575 2.4518
324.654510 95.618 2.4710
327.007080 95.659 2.4766
329.376709 95.700 2.4690
331.763519 95.742 2.4480
334.167603 95.784 2.4151
336.589142 95.822 2.3710
339.028198 95.860 2.3182
341.484924 95.898 2.2595
343.959473 95.935 2.1942
346.451935 95.971 2.1225
348.962463 96.006 2.0442
351.491211 96.042 1.9593
354.038239 96.077 1.8673
356.603760 96.112 1.7681
359.187866 96.146 1.6613
361.790680 96.179 1.5475
364.412354 96.213 1.4244
367.053040 96.247 1.2889
369.712860 96.281 1.1435
372.391968 96.311 0.9889
375.090454 96.340 0.8275
377.808533 96.369 0.6629
380.546265 96.397 0.4925
383.303864 96.424 0.3144
386.081451 96.451 0.1295
388.879150 96.476 -0.0619
391.697144 96.501 -0.2594
394.535522 96.525 -0.4615
397.394501 96.548 -0.6704
400.274170 96.570 -0.8873
403.174744 96.592 -1.1133
406.096313 96.613 -1.3502
409.039062 96.632 -1.5962
412.003113 96.649 -1.8509
414.988647 96.664 -2.1121
417.995850 96.677 -2.3781
421.024811 96.687 -2.6471
424.075714 96.695 -2.9175
427.148743 96.701 -3.1871
430.244049 96.704 -3.4536
433.361786 96.706 -3.7172
436.502106 96.707 -3.9765
439.665161 96.708 -4.2342
442.851166 96.707 -4.4921
446.060242 96.706 -4.7512
449.292572 96.704 -5.0131
452.548340 96.701 -5.2772
455.827698 96.695 -5.5445
459.130798 96.687 -5.8111
462.457855 96.677 -6.0738
465.809021 96.664 -6.3322
469.184448 96.650 -6.5858
472.584381 96.634 -6.8322
476.008911 96.616 -7.0683
479.458252 96.597 -7.2953
482.932617 96.578 -7.5125
486.432159 96.559 -7.7233
489.957031 96.539 -7.9322
493.507477 96.518 -8.1354
497.083618 96.495 -8.3302
500.685699 96.471 -8.5184
504.313873 96.449 -8.7007
507.968323 96.427 -8.8774
511.649292 96.402 -9.0499
515.356934 96.375 -9.2155
519.091370 96.349 -9.3706
522.852966 96.323 -9.5185
526.641724 96.298 -9.6610
530.458008 96.272 -9.7986
534.301941 96.246 -9.9322
538.173706 96.219 -10.0616
542.073547 96.193 -10.1860
546.001648 96.166 -10.3066
549.958191 96.139 -10.4251
553.943420 96.111 -10.5386
557.957520 96.082 -10.6440
562.000671 96.052 -10.7437
566.073181 96.025 -10.8389
570.175171 95.997 -10.9297
574.306885 95.967 -11.0168
578.468567 95.937 -11.0987
582.660400 95.908 -11.1728
586.882568 95.879 -11.2428
591.135376 95.851 -11.3131
595.419006 95.822 -11.3798
599.733643 95.791 -11.4398
604.079590 95.759 -11.4938
608.456970 95.729 -11.5402
612.866089 95.700 -11.5829
617.307190 95.671 -11.6267
621.780457 95.641 -11.6669
626.286133 95.609 -11.6993
630.824463 95.577 -11.7259
635.395691 95.547 -11.7466
640.000000 95.517 -11.7639
644.637695 95.487 -11.7825
649.309021 95.456 -11.7970
654.014160 95.423 -11.8039
658.753418 95.389 -11.8020
663.527039 95.355 -11.7880
668.335205 95.322 -11.7641
673.178284 95.289 -11.7317
678.056396 95.257 -11.6902
682.969849 95.225 -11.6386
687.918945 95.193 -11.5782
692.903870 95.163 -11.5089
697.924927 95.135 -11.4343
702.982422 95.109 -11.3572
708.076477 95.084 -11.2793
713.207520 95.060 -11.2035
718.375732 95.037 -11.1293
723.581360 95.013 -11.0571
728.824707 94.990 -10.9863
734.106079 94.968 -10.9165
739.425720 94.945 -10.8463
744.783936 94.921 -10.7744
750.180908 94.896 -10.6993
755.617065 94.872 -10.6192
761.092529 94.847 -10.5333
766.607727 94.822 -10.4398
772.162903 94.797 -10.3404
777.758301 94.774 -10.2364
783.394287 94.752 -10.1274
789.071045 94.728 -10.0136
794.789001 94.705 -9.8944
800.548340 94.684 -9.7688
806.349487 94.663 -9.6385
812.192627 94.642 -9.5057
818.078125 94.622 -9.3685
824.006226 94.602 -9.2251
829.977295 94.583 -9.0765
835.991699 94.566 -8.9226
842.049622 94.550 -8.7656
848.151428 94.535 -8.6081
854.297485 94.520 -8.4486
860.488098 94.506 -8.2864
866.723572 94.492 -8.1216
873.004211 94.481 -7.9540
879.330322 94.470 -7.7846
885.702332 94.460 -7.6145
892.120483 94.450 -7.4426
898.585144 94.441 -7.2681
905.096680 94.434 -7.0917
911.655396 94.428 -6.9129
918.261597 94.423 -6.7347
924.915710 94.420 -6.5599
931.618042 94.418 -6.3886
938.368896 94.417 -6.2217
945.168762 94.417 -6.0586
952.017822 94.417 -5.8998
958.916504 94.417 -5.7436
965.865234 94.417 -5.5891
972.864319 94.417 -5.4346
979.914062 94.417 -5.2782
987.014954 94.417 -5.1186
994.167236 94.418 -4.9537
1001.371399 94.419 -4.7836
1008.627747 94.421 -4.6065
1015.936646 94.426 -4.4258
1023.298584 94.434 -4.2416
1030.713867 94.446 -4.0616
1038.182739 94.462 -3.8908
1045.705933 94.482 -3.7366
1053.283447 94.505 -3.6069
1060.916016 94.531 -3.5054
1068.603882 94.557 -3.4383
1076.347412 94.583 -3.4061
1084.147095 94.607 -3.4129
1092.003296 94.628 -3.4528
1099.916382 94.643 -3.5247
1107.886841 94.652 -3.6186
1115.915039 94.653 -3.7288
1124.001343 94.645 -3.8406
1132.146362 94.628 -3.9407
1140.350342 94.603 -4.0188
1148.613770 94.571 -4.0613
1156.937134 94.533 -4.0641
1165.320801 94.491 -4.0197
1173.765137 94.446 -3.9245
1182.270752 94.399 -3.7712
1190.838013 94.352 -3.5630
1199.467285 94.309 -3.2971
1208.159180 94.270 -2.9843
1216.913940 94.238 -2.6320
1225.732178 94.212 -2.2474
1234.614380 94.192 -1.8383
1243.560913 94.179 -1.4106
1252.572266 94.174 -0.9700
1261.648926 94.176 -0.5258
1270.791382 94.186 -0.0883
1280.000000 94.201 0.3404
1289.275391 94.220 0.7542
1298.618042 94.243 1.1544
1308.028320 94.269 1.5404
1317.506836 94.298 1.9104
1327.054077 94.330 2.2618
1336.670410 94.363 2.5967
1346.356567 94.397 2.9148
1356.112793 94.431 3.2219
1365.939697 94.463 3.5227
1375.837891 94.496 3.8198
1385.807739 94.529 4.1171
1395.849854 94.564 4.4148
1405.964844 94.599 4.7142
1416.152954 94.636 5.0159
1426.415039 94.673 5.3211
1436.751465 94.713 5.6298
1447.162720 94.754 5.9436
1457.649414 94.799 6.2587
1468.212158 94.847 6.5735
1478.851440 94.899 6.8838
1489.567871 94.953 7.1841
1500.361816 95.010 7.4769
1511.234131 95.068 7.7641
1522.185059 95.129 8.0428
1533.215454 95.194 8.3125
1544.325806 95.263 8.5679
1555.516602 95.334 8.8024
1566.788574 95.407 9.0191
1578.142090 95.480 9.2198
1589.578003 95.555 9.4023
1601.096680 95.632 9.5654
1612.698975 95.710 9.7084
1624.385254 95.787 9.8288
1636.156250 95.864 9.9316
1648.012451 95.939 10.0201
1659.954590 96.013 10.0967
1671.983398 96.086 10.1636
1684.099243 96.159 10.2248
1696.302856 96.229 10.2851
1708.594971 96.299 10.3447
1720.976196 96.370 10.4061
1733.447144 96.443 10.4667
1746.008423 96.515 10.5247
1758.660645 96.589 10.5808
1771.404663 96.663 10.6356
1784.240967 96.739 10.6878
1797.170288 96.816 10.7374
1810.193359 96.896 10.7808
1823.310791 96.977 10.8151
1836.523193 97.061 10.8379
1849.831421 97.145 10.8446
1863.236084 97.229 10.8400
1876.737793 97.311 10.8273
1890.337524 97.394 10.8071
1904.035645 97.478 10.7804
1917.833008 97.562 10.7491
1931.730469 97.644 10.7139
1945.728638 97.725 10.6801
1959.828125 97.805 10.6536
1974.029907 97.887 10.6341
1988.334473 97.970 10.6224
2002.742798 98.056 10.6210
2017.255493 98.142 10.6341
2031.873291 98.232 10.6569
2046.597168 98.329 10.6906
2061.427734 98.434 10.7219
2076.365479 98.545 10.7381
2091.411865 98.663 10.7380
2106.566895 98.783 10.7188
2121.832031 98.909 10.6723
2137.207764 99.044 10.5921
2152.694824 99.183 10.4706
2168.294189 99.324 10.2949
2184.006592 99.465 10.0731
2199.832764 99.605 9.8062
2215.773682 99.742 9.5023
2231.830078 99.877 9.1686
2248.002686 100.010 8.8085
2264.292725 100.142 8.4265
2280.700684 100.272 8.0267
2297.227539 100.401 7.6146
2313.874268 100.529 7.1908
2330.641602 100.659 6.7593
2347.530273 100.790 6.3149
2364.541504 100.924 5.8556
2381.676025 101.059 5.3762
2398.934570 101.198 4.8731
2416.318359 101.340 4.3395
2433.827881 101.485 3.7684
2451.464355 101.632 3.1566
2469.228760 101.780 2.4994
2487.121826 101.927 1.7951
2505.144531 102.073 1.0402
2523.297852 102.217 0.2358
2541.582764 102.358 -0.6213
2560.000000 102.494 -1.5219
2578.550781 102.623 -2.4602
2597.236084 102.746 -3.4295
2616.056641 102.865 -4.4219
2635.013672 102.979 -5.4357
2654.108154 103.087 -6.4674
2673.340820 103.191 -7.5134
2692.713135 103.290 -8.5681
2712.225586 103.387 -9.6340
2731.879395 103.481 -10.7107
2751.675781 103.573 -11.8019
2771.615479 103.662 -12.9120
2791.699707 103.749 -14.0390
2811.929688 103.831 -15.1825
2832.305908 103.910 -16.3425
2852.830078 103.985 -17.5197
2873.502930 104.057 -18.7108
2894.325439 104.123 -19.9133
2915.298828 104.185 -21.1255
2936.424316 104.243 -22.3443
2957.702881 104.298 -23.5716
2979.135742 104.350 -24.8086
3000.723633 104.399 -26.0545
3022.468262 104.443 -27.3089
3044.370117 104.483 -28.5711
3066.430908 104.520 -29.8409
3088.651611 104.554 -31.1182
3111.033203 104.583 -32.4039
3133.577148 104.608 -33.6958
3156.284180 104.629 -34.9928
3179.156006 104.645 -36.2938
3202.193359 104.657 -37.5968
3225.397949 104.665 -38.9038
3248.770508 104.669 -40.2166
3272.312500 104.669 -41.5331
3296.024902 104.663 -42.8527
3319.909180 104.651 -44.1729
3343.966797 104.634 -45.4928
3368.198486 104.610 -46.8068
3392.605713 104.579 -48.1117
3417.189941 104.540 -49.3991
3441.952393 104.494 -50.6617
3466.894287 104.441 -51.8926
3492.016846 104.381 -53.0842
3517.321289 104.315 -54.2308
3542.809326 104.245 -55.3243
3568.481934 104.171 -56.3633
3594.340576 104.097 -57.3433
3620.386719 104.022 -58.2657
3646.621582 103.949 -59.1291
3673.046387 103.878 -59.9383
3699.662842 103.813 -60.6953
3726.472168 103.753 -61.4068
3753.475586 103.700 -62.0782
3780.675049 103.655 -62.7152
3808.071289 103.618 -63.3213
3835.666016 103.591 -63.9082
3863.460938 103.578 -64.4832
3891.457275 103.577 -65.0642
3919.656250 103.589 -65.6655
3948.059814 103.615 -66.3059
3976.668945 103.654 -67.0026
4005.485596 103.705 -67.7750
4034.510986 103.765 -68.6460
4063.746582 103.830 -69.6221
4093.194336 103.894 -70.7207
4122.855469 103.953 -71.9308
4152.730957 104.002 -73.2550
4182.823730 104.039 -74.6691
4213.133789 104.058 -76.1608
4243.664062 104.058 -77.6976
4274.415527 104.037 -79.2517
4305.389648 103.996 -80.7965
4336.588379 103.938 -82.3005
4368.013184 103.864 -83.7513
4399.665527 103.780 -85.1254
4431.547363 103.687 -86.4248
4463.660156 103.592 -87.6407
4496.005371 103.494 -88.7824
4528.585449 103.399 -89.8531
4561.401367 103.307 -90.8633
4594.455078 103.221 -91.8206
4627.748535 103.141 -92.7376
4661.283203 103.069 -93.6264
4695.060547 103.004 -94.4968
4729.083008 102.947 -95.3607
4763.352051 102.897 -96.2229
4797.869141 102.852 -97.0907
4832.636719 102.813 -97.9686
4867.655762 102.780 -98.8610
4902.928711 102.753 -99.7745
4938.457520 102.731 -100.7159
4974.243652 102.713 -101.6883
5010.289062 102.698 -102.6970
5046.595703 102.686 -103.7427
5083.165527 102.676 -104.8274
5120.000000 102.667 -105.9514
5157.101562 102.658 -107.1161
5194.472168 102.649 -108.3200
5232.113281 102.640 -109.5609
5270.027344 102.630 -110.8415
5308.216309 102.621 -112.1621
5346.681641 102.612 -113.5272
5385.426270 102.603 -114.9393
5424.451172 102.593 -116.4047
5463.758789 102.583 -117.9278
5503.351562 102.572 -119.5171
5543.230957 102.559 -121.1817
5583.399414 102.541 -122.9243
5623.859375 102.518 -124.7520
5664.611816 102.485 -126.6605
5705.660156 102.440 -128.6507
5747.005859 102.381 -130.7132
5788.650879 102.308 -132.8426
5830.597656 102.217 -135.0246
5872.848633 102.105 -137.2509
5915.405762 101.971 -139.4984
5958.271484 101.813 -141.7476
6001.447266 101.632 -143.9796
6044.936523 101.430 -146.1733
6088.740234 101.206 -148.3154
6132.861816 100.962 -150.3915
6177.303223 100.697 -152.3842
6222.066406 100.411 -154.2735
6267.154297 100.110 -156.0524
6312.568359 99.796 -157.7055
6358.312012 99.473 -159.2386
6404.386719 99.142 -160.6512
6450.795898 98.805 -161.9466
6497.541016 98.463 -163.1273
6544.625000 98.118 -164.1959
6592.049805 97.770 -165.1558
6639.818359 97.422 -166.0079
6687.933594 97.074 -166.7560
6736.396973 96.725 -167.3950
6785.211426 96.375 -167.9234
6834.379883 96.025 -168.3342
6883.904785 95.675 -168.6215
6933.788574 95.328 -168.7795
6984.033691 94.984 -168.7984
7034.642578 94.648 -168.6849
7085.618652 94.324 -168.4357
7136.963867 94.016 -168.0721
7188.681152 93.726 -167.6083
7240.773438 93.457 -167.0629
7293.243164 93.210 -166.4538
7346.092773 92.986 -165.7974
7399.325684 92.785 -165.1113
7452.944336 92.607 -164.4105
7506.951172 92.451 -163.7128
7561.350098 92.315 -163.0275
7616.142578 92.197 -162.3686
7671.332031 92.096 -161.7392
7726.921875 92.012 -161.1440
7782.914551 91.943 -160.5907
7839.312500 91.890 -160.0857
7896.119629 91.851 -159.6362
7953.337891 91.827 -159.2513
8010.971191 91.814 -158.9325
8069.021973 91.810 -158.6842
8127.493164 91.816 -158.5067
8186.388672 91.831 -158.4001
8245.710938 91.856 -158.3699
8305.461914 91.889 -158.4175
8365.647461 91.932 -158.5560
8426.267578 91.985 -158.7948
8487.328125 92.046 -159.1468
8548.831055 92.111 -159.6252
8610.779297 92.180 -160.2394
8673.176758 92.250 -161.0014
8736.026367 92.318 -161.9166
8799.331055 92.377 -162.9998
8863.094727 92.423 -164.2351
8927.320312 92.449 -165.6216
8992.010742 92.452 -167.1287
9057.170898 92.427 -168.7399
9122.802734 92.371 -170.4121
9188.910156 92.280 -172.1180
9255.497070 92.151 -173.7941
9322.566406 91.980 -175.3875
9390.121094 91.772 -176.8378
9458.166016 91.531 -178.0818
9526.704102 91.262 -179.0755
9595.738281 90.969 -179.7559
9665.273438 90.670 179.8820
9735.311523 90.376 179.8839
9805.857422 90.107 -179.8094
9876.915039 89.883 -179.2082
9948.487305 89.718 -178.4147
10020.578125 89.630 -177.4918
10093.191406 89.621 -176.5698
10166.331055 89.704 -175.7636
10240.000000 89.858 -175.1833
10314.203125 90.076 -174.9663
10388.944336 90.331 -175.1461
10464.226562 90.597 -175.8113
10540.054688 90.858 -176.9300
10616.432617 91.095 -178.5270
10693.363281 91.295 179.4780
10770.852539 91.441 177.1206
10848.902344 91.531 174.5107
10927.517578 91.553 171.7381
11006.703125 91.513 168.8994
11086.461914 91.410 166.1001
11166.798828 91.252 163.4026
11247.718750 91.043 160.8926
11329.223633 90.792 158.6042
11411.320312 90.507 156.5972
11494.011719 90.199 154.8785
11577.301758 89.875 153.4836
11661.195312 89.551 152.3863
11745.697266 89.239 151.5905
11830.811523 88.949 151.0394
11916.542969 88.695 150.7006
12002.894531 88.483 150.5028
12089.873047 88.323 150.3889
12177.480469 88.214 150.2837
12265.723633 88.161 150.1122
12354.606445 88.153 149.8160
12444.132812 88.188 149.3206
12534.308594 88.253 148.5996
12625.136719 88.337 147.6001
12716.624023 88.430 146.3285
12808.773438 88.521 144.7665
12901.591797 88.604 142.9362
12995.082031 88.670 140.8455
13089.250000 88.718 138.5182
13184.099609 88.741 135.9739
13279.636719 88.737 133.2336
13375.867188 88.702 130.3227
13472.793945 88.636 127.2489
13570.422852 88.541 124.0236
13668.759766 88.409 120.6604
13767.809570 88.234 117.1629
13867.577148 88.013 113.5721
13968.067383 87.743 109.9014
14069.285156 87.413 106.2367
14171.237305 87.016 102.6176
14273.927734 86.546 99.1974
14377.362305 85.990 96.0880
14481.546875 85.355 93.4541
14586.486328 84.639 91.4697
14692.185547 83.861 90.2189
14798.651367 83.024 89.8603
14905.888672 82.172 90.3477
15013.902344 81.322 91.7628
15122.700195 80.548 93.8763
15232.285156 79.920 96.5896
15342.664062 79.462 99.5865
15453.843750 79.231 102.6052
15565.829102 79.195 105.3811
15678.625000 79.364 107.6154
15792.239258 79.667 109.1490
15906.675781 80.052 109.7149
16021.942383 80.464 109.3377
16138.043945 80.838 107.8932
16254.986328 81.155 105.5659
16372.777344 81.375 102.4303
16491.421875 81.496 98.6951
16610.923828 81.506 94.5202
16731.294922 81.398 90.1297
16852.535156 81.154 85.7402
16974.656250 80.794 81.5365
17097.662109 80.323 77.7638
17221.558594 79.762 74.4595
17346.353516 79.127 71.7466
17472.052734 78.433 69.6102
17598.662109 77.689 68.0924
17726.189453 76.924 67.1419
17854.640625 76.163 66.7690
17984.021484 75.437 66.8297
18114.341797 74.792 67.2194
18245.605469 74.210 67.8262
18377.820312 73.689 68.5140
18510.994141 73.226 69.2507
18645.132812 72.819 69.9641
18780.242188 72.455 70.6395
18916.332031 72.123 71.2360
19053.408203 71.817 71.7612
19191.476562 71.524 72.2041
19330.546875 71.243 72.5801
19470.623047 70.970 72.8962
19611.714844 70.703 73.1676
19753.830078 70.434 73.4111
19896.974609 70.171 73.6288
