* Measurement data measured by REW V5.20.13
* Source: C:\Users\kurin\Desktop\Targets and Curves\Resolve\Img\Files\hifiman he-r7dx_SPL.txt
* Format: Comma/Tab/Space delimited data
* Dated: Aug 14, 2023 5:23:44 PM
* REW Settings:
*  C-weighting compensation: Off
*  Target level: 75.0 dB
* Note: ; Measurement imported from C:\Users\kurin\Desktop\Targets and Curves\Resolve\Img\Files\hifiman he-r7dx_SPL.txt Format: Comma/Tab/Space delimited data 623 values loaded, 5 Hz to 39,792 Hz log spaced 
* Measurement: hifiman he-r7dx_SPL
* Smoothing: 1/48 octave
* Frequency Step: 1/96 octave
* Start Frequency: 5.000 Hz
*
* Freq(Hz) SPL(dB) Phase(degrees)
5.000000 71.285 88.5110
5.036232 71.315 88.4888
5.072727 71.347 88.4650
5.109486 71.384 88.4374
5.146511 71.427 88.4060
5.183805 71.478 88.3692
5.221369 71.534 88.3300
5.259205 71.591 88.2916
5.297316 71.652 88.2520
5.335702 71.717 88.2094
5.374367 71.783 88.1660
5.413311 71.848 88.1239
5.452538 71.913 88.0820
5.492050 71.978 88.0396
5.531847 72.044 87.9970
5.571934 72.109 87.9541
5.612310 72.174 87.9110
5.652979 72.239 87.8676
5.693943 72.305 87.8240
5.735204 72.371 87.7801
5.776763 72.436 87.7360
5.818624 72.501 87.6917
5.860788 72.566 87.6470
5.903258 72.631 87.6016
5.946035 72.697 87.5560
5.989123 72.762 87.5106
6.032523 72.827 87.4650
6.076237 72.892 87.4187
6.120268 72.958 87.3720
6.164618 73.024 87.3251
6.209289 73.089 87.2780
6.254284 73.154 87.2307
6.299605 73.219 87.1830
6.345255 73.284 87.1347
6.391235 73.350 87.0860
6.437549 73.416 87.0371
6.484198 73.481 86.9880
6.531185 73.546 86.9387
6.578513 73.611 86.8890
6.626183 73.676 86.8387
6.674199 73.742 86.7880
6.722563 73.807 86.7372
6.771278 73.872 86.6860
6.820345 73.937 86.6342
6.869768 74.003 86.5820
6.919549 74.069 86.5297
6.969691 74.134 86.4770
7.020196 74.199 86.4237
7.071068 74.264 86.3700
7.122308 74.329 86.3162
7.173919 74.395 86.2620
7.225904 74.460 86.2072
7.278266 74.525 86.1520
7.331007 74.590 86.0967
7.384131 74.656 86.0410
7.437639 74.722 85.9847
7.491535 74.787 85.9280
7.545822 74.852 85.8712
7.600502 74.917 85.8140
7.655579 74.982 85.7563
7.711054 75.048 85.6980
7.766932 75.114 85.6392
7.823214 75.179 85.5800
7.879904 75.244 85.5208
7.937005 75.309 85.4610
7.994520 75.374 85.4003
8.052452 75.440 85.3390
8.110803 75.505 85.2777
8.169578 75.570 85.2160
8.228777 75.635 85.1538
8.288406 75.701 85.0910
8.348468 75.767 85.0277
8.408964 75.832 84.9640
8.469899 75.897 84.9003
8.531276 75.962 84.8360
8.593097 76.027 84.7708
8.655366 76.093 84.7050
8.718086 76.158 84.6393
8.781260 76.223 84.5730
8.844893 76.288 84.5058
8.908987 76.354 84.4380
8.973545 76.420 84.3703
9.038571 76.485 84.3020
9.104069 76.550 84.2328
9.170040 76.615 84.1630
9.236490 76.680 84.0933
9.303422 76.746 84.0230
9.370838 76.811 83.9518
9.438744 76.876 83.8800
9.507140 76.941 83.8077
9.576033 77.007 83.7350
9.645425 77.073 83.6623
9.715320 77.138 83.5890
9.785721 77.203 83.5144
9.856632 77.268 83.4390
9.928058 77.333 83.3638
10.000000 77.399 83.2880
10.072464 77.465 83.2114
10.145453 77.530 83.1341
10.218971 77.595 83.0563
10.293022 77.660 82.9780
10.367610 77.726 82.8993
10.442738 77.791 82.8200
10.518411 77.856 82.7399
10.594631 77.921 82.6590
10.671404 77.986 82.5773
10.748734 78.052 82.4950
10.826623 78.118 82.4129
10.905077 78.183 82.3301
10.984100 78.248 82.2459
11.063695 78.313 82.1611
11.143867 78.378 82.0758
11.224621 78.444 81.9900
11.305959 78.509 81.9039
11.387886 78.574 81.8171
11.470407 78.639 81.7294
11.553527 78.705 81.6410
11.637249 78.771 81.5519
11.721577 78.836 81.4621
11.806517 78.901 81.3715
11.892071 78.966 81.2801
11.978246 79.031 81.1879
12.065045 79.097 81.0950
12.152473 79.163 81.0013
12.240536 79.228 80.9070
12.329235 79.293 80.8124
12.418578 79.358 80.7171
12.508568 79.423 80.6204
12.599211 79.489 80.5231
12.690510 79.554 80.4255
12.782471 79.619 80.3271
12.875097 79.684 80.2275
12.968395 79.750 80.1271
13.062370 79.816 80.0259
13.157025 79.881 79.9240
13.252366 79.946 79.8214
13.348398 80.011 79.7181
13.445127 80.076 79.6140
13.542556 80.142 79.5091
13.640691 80.207 79.4036
13.739536 80.272 79.2970
13.839099 80.337 79.1890
13.939383 80.403 79.0801
14.040393 80.469 78.9709
14.142136 80.534 78.8610
14.244616 80.599 78.7500
14.347837 80.664 78.6380
14.451808 80.729 78.5250
14.556532 80.795 78.4111
14.662014 80.860 78.2960
14.768262 80.925 78.1801
14.875278 80.990 78.0636
14.983070 81.056 77.9461
15.091644 81.121 77.8276
15.201005 81.187 77.7081
15.311157 81.252 77.5876
15.422109 81.317 77.4661
15.533863 81.382 77.3436
15.646428 81.448 77.2201
15.759809 81.514 77.0956
15.874010 81.579 76.9701
15.989040 81.644 76.8437
16.104904 81.709 76.7161
16.221605 81.774 76.5872
16.339155 81.840 76.4572
16.457554 81.905 76.3261
16.576813 81.970 76.1941
16.696936 82.035 76.0611
16.817928 82.101 75.9271
16.939798 82.166 75.7922
17.062551 82.232 75.6562
17.186193 82.297 75.5187
17.310732 82.362 75.3801
17.436172 82.427 75.2406
17.562521 82.493 75.1001
17.689787 82.558 74.9582
17.817974 82.623 74.8152
17.947090 82.688 74.6711
18.077143 82.754 74.5261
18.208138 82.820 74.3802
18.340080 82.885 74.2332
18.472980 82.950 74.0846
18.606844 83.015 73.9351
18.741676 83.080 73.7854
18.877487 83.146 73.6352
19.014280 83.211 73.4839
19.152065 83.277 73.3322
19.290850 83.342 73.1801
19.430639 83.408 73.0281
19.571442 83.473 72.8768
19.713264 83.539 72.7252
19.856115 83.606 72.5729
20.000000 83.674 72.4192
20.144928 83.742 72.2638
20.290907 83.811 72.1052
20.437943 83.881 71.9422
20.586044 83.952 71.7731
20.735220 84.023 71.5960
20.885475 84.095 71.4102
21.036821 84.167 71.2148
21.189262 84.239 71.0083
21.342808 84.311 70.7884
21.497467 84.382 70.5573
21.653246 84.451 70.3142
21.810154 84.517 70.0653
21.968201 84.580 69.8157
22.127390 84.641 69.5683
22.287735 84.700 69.3270
22.449242 84.757 69.0942
22.611917 84.814 68.8738
22.775772 84.870 68.6652
22.940815 84.927 68.4704
23.107054 84.985 68.2852
23.274498 85.046 68.1086
23.443153 85.109 67.9342
23.613033 85.175 67.7564
23.784142 85.244 67.5722
23.956491 85.314 67.3773
24.130091 85.385 67.1702
24.304947 85.457 66.9472
24.481071 85.529 66.7103
24.658470 85.600 66.4588
24.837156 85.669 66.1974
25.017136 85.736 65.9305
25.198421 85.803 65.6583
25.381020 85.870 65.3823
25.564941 85.936 65.1033
25.750195 86.000 64.8225
25.936790 86.065 64.5394
26.124741 86.131 64.2548
26.314051 86.197 63.9644
26.504732 86.264 63.6651
26.696796 86.331 63.3544
26.890253 86.398 63.0285
27.085112 86.465 62.6884
27.281382 86.530 62.3324
27.479073 86.592 61.9645
27.678198 86.651 61.5870
27.878765 86.708 61.2035
28.080786 86.761 60.8171
28.284271 86.812 60.4315
28.489231 86.859 60.0512
28.695675 86.904 59.6775
28.903616 86.947 59.3136
29.113064 86.990 58.9585
29.324028 87.032 58.6125
29.536524 87.074 58.2744
29.750557 87.115 57.9435
29.966141 87.156 57.6184
30.183289 87.197 57.2976
30.402010 87.238 56.9804
30.622314 87.279 56.6655
30.844217 87.320 56.3524
31.067726 87.362 56.0401
31.292856 87.403 55.7285
31.519617 87.444 55.4171
31.748020 87.484 55.1054
31.978081 87.524 54.7920
32.209808 87.564 54.4784
32.443211 87.602 54.1653
32.678310 87.639 53.8544
32.915108 87.675 53.5474
33.153625 87.711 53.2444
33.393871 87.746 52.9453
33.635857 87.781 52.6524
33.879597 87.814 52.3683
34.125103 87.848 52.0914
34.372387 87.883 51.8219
34.621464 87.919 51.5574
34.872345 87.956 51.2947
35.125042 87.993 51.0353
35.379574 88.030 50.7803
35.635948 88.068 50.5273
35.894180 88.108 50.2748
36.154285 88.150 50.0214
36.416275 88.192 49.7657
36.680161 88.235 49.5064
36.945961 88.280 49.2432
37.213688 88.327 48.9714
37.483353 88.376 48.6863
37.754974 88.425 48.3875
38.028561 88.474 48.0728
38.304131 88.522 47.7424
38.581699 88.570 47.3957
38.861279 88.618 47.0326
39.142883 88.663 46.6509
39.426529 88.706 46.2566
39.712231 88.744 45.8530
40.000000 88.779 45.4446
40.289856 88.811 45.0367
40.581814 88.841 44.6306
40.875885 88.867 44.2278
41.172089 88.891 43.8326
41.470440 88.912 43.4494
41.770950 88.931 43.0786
42.073643 88.950 42.7243
42.378525 88.969 42.3805
42.685616 88.989 42.0430
42.994934 89.010 41.7105
43.306492 89.030 41.3804
43.620308 89.050 41.0515
43.936401 89.071 40.7229
44.254780 89.093 40.3905
44.575470 89.114 40.0484
44.898483 89.133 39.7016
45.223835 89.149 39.3508
45.551544 89.162 39.0025
45.881630 89.171 38.6612
46.214108 89.178 38.3325
46.548996 89.181 38.0224
46.886307 89.183 37.7334
47.226067 89.184 37.4709
47.568283 89.186 37.2324
47.912983 89.189 37.0186
48.260181 89.194 36.8253
48.609894 89.202 36.6511
48.962143 89.213 36.4882
49.316940 89.229 36.3309
49.674313 89.250 36.1713
50.034271 89.274 35.9993
50.396843 89.301 35.8163
50.762039 89.328 35.6205
51.129883 89.356 35.4114
51.500389 89.385 35.1868
51.873581 89.414 34.9494
52.249481 89.440 34.6999
52.628101 89.465 34.4424
53.009464 89.489 34.1816
53.393593 89.513 33.9165
53.780506 89.536 33.6475
54.170223 89.558 33.3755
54.562763 89.579 33.1009
54.958145 89.598 32.8244
55.356396 89.616 32.5461
55.757530 89.633 32.2674
56.161572 89.648 31.9888
56.568542 89.662 31.7135
56.978462 89.674 31.4447
57.391350 89.684 31.1835
57.807232 89.693 30.9318
58.226128 89.702 30.6904
58.648056 89.710 30.4610
59.073048 89.718 30.2424
59.501114 89.726 30.0338
59.932281 89.735 29.8353
60.366577 89.744 29.6466
60.804020 89.753 29.4683
61.244629 89.763 29.3018
61.688435 89.775 29.1453
62.135452 89.789 28.9975
62.585712 89.805 28.8572
63.039234 89.823 28.7242
63.496040 89.843 28.5942
63.956161 89.867 28.4650
64.419617 89.894 28.3312
64.886421 89.925 28.1889
65.356621 89.959 28.0323
65.830215 89.996 27.8549
66.307251 90.035 27.6554
66.787743 90.074 27.4299
67.271713 90.113 27.1795
67.759193 90.152 26.9033
68.250206 90.189 26.6036
68.744774 90.223 26.2801
69.242928 90.254 25.9396
69.744690 90.280 25.5874
70.250084 90.303 25.2277
70.759148 90.321 24.8649
71.271896 90.336 24.5037
71.788361 90.346 24.1491
72.308571 90.353 23.8046
72.832550 90.357 23.4757
73.360321 90.360 23.1616
73.891922 90.361 22.8640
74.427376 90.362 22.5815
74.966705 90.362 22.3137
75.509949 90.362 22.0594
76.057121 90.362 21.8173
76.608261 90.362 21.5874
77.163399 90.362 21.3697
77.722557 90.362 21.1644
78.285767 90.363 20.9718
78.853058 90.364 20.7924
79.424461 90.366 20.6271
80.000000 90.370 20.4743
80.579712 90.376 20.3339
81.163628 90.384 20.2012
81.751770 90.396 20.0724
82.344177 90.411 19.9453
82.940880 90.428 19.8174
83.541901 90.448 19.6863
84.147285 90.471 19.5501
84.757050 90.496 19.4043
85.371231 90.524 19.2435
85.989868 90.554 19.0684
86.612984 90.584 18.8778
87.240616 90.614 18.6724
87.872803 90.646 18.4534
88.509560 90.679 18.2185
89.150940 90.711 17.9653
89.796967 90.743 17.6956
90.447670 90.773 17.4099
91.103088 90.803 17.1096
91.763260 90.832 16.7959
92.428215 90.859 16.4697
93.097992 90.884 16.1319
93.772614 90.908 15.7837
94.452133 90.930 15.4259
95.136566 90.949 15.0608
95.825966 90.966 14.6901
96.520363 90.980 14.3168
97.219788 90.991 13.9441
97.924286 91.000 13.5728
98.633881 91.007 13.2044
99.348625 91.013 12.8407
100.068542 91.016 12.4836
100.793686 91.018 12.1339
101.524078 91.019 11.7936
102.259766 91.020 11.4608
103.000778 91.020 11.1343
103.747162 91.020 10.8136
104.498962 91.020 10.4981
105.256203 91.020 10.1866
106.018929 91.020 9.8780
106.787186 91.020 9.5716
107.561012 91.020 9.2665
108.340446 91.020 8.9625
109.125526 91.020 8.6593
109.916290 91.020 8.3566
110.712791 91.020 8.0539
111.515060 91.020 7.7506
112.323143 91.020 7.4465
113.137085 91.020 7.1406
113.956924 91.020 6.8328
114.782700 91.020 6.5218
115.614464 91.020 6.2066
116.452255 91.020 5.8866
117.296112 91.019 5.5612
118.146095 91.018 5.2297
119.002228 91.016 4.8907
119.864563 91.013 4.5459
120.733154 91.007 4.1962
121.608040 91.000 3.8438
122.489258 90.991 3.4907
123.376869 90.981 3.1379
124.270905 90.968 2.7858
125.171425 90.954 2.4366
126.078468 90.938 2.0928
126.992081 90.920 1.7548
127.912323 90.901 1.4243
128.839233 90.881 1.1007
129.772842 90.860 0.7836
130.713242 90.839 0.4726
131.660431 90.817 0.1669
132.614502 90.793 -0.1322
133.575485 90.768 -0.4236
134.543427 90.742 -0.7065
135.518387 90.716 -0.9789
136.500412 90.690 -1.2435
137.489548 90.664 -1.5035
138.485855 90.638 -1.7554
139.489380 90.609 -1.9964
140.500168 90.580 -2.2275
141.518295 90.554 -2.4477
142.543793 90.529 -2.6605
143.576721 90.503 -2.8699
144.617142 90.478 -3.0736
145.665100 90.453 -3.2693
146.720642 90.429 -3.4605
147.783844 90.407 -3.6495
148.854752 90.386 -3.8375
149.933411 90.365 -4.0253
151.019897 90.346 -4.2155
152.114243 90.329 -4.4105
153.216522 90.313 -4.6124
154.326797 90.297 -4.8250
155.445114 90.280 -5.0465
156.571533 90.263 -5.2757
157.706116 90.245 -5.5144
158.848923 90.227 -5.7650
160.000000 90.207 -6.0244
161.159424 90.183 -6.2921
162.327255 90.156 -6.5624
163.503540 90.127 -6.8299
164.688354 90.095 -7.0934
165.881760 90.060 -7.3519
167.083801 90.021 -7.5994
168.294571 89.978 -7.8314
169.514099 89.933 -8.0425
170.742462 89.886 -8.2254
171.979736 89.837 -8.3816
173.225967 89.789 -8.5106
174.481232 89.741 -8.6118
175.745605 89.694 -8.6828
177.019119 89.649 -8.7279
178.301880 89.609 -8.7474
179.593933 89.573 -8.7510
180.895340 89.544 -8.7463
182.206177 89.519 -8.7400
183.526520 89.498 -8.7404
184.856430 89.482 -8.7510
186.195984 89.470 -8.7774
187.545227 89.461 -8.8219
188.904266 89.453 -8.8901
190.273132 89.445 -8.9778
191.651932 89.436 -9.0835
193.040726 89.427 -9.2046
194.439575 89.417 -9.3389
195.848572 89.406 -9.4836
197.267761 89.392 -9.6366
198.697250 89.377 -9.7946
200.137085 89.361 -9.9528
201.587372 89.344 -10.1126
203.048157 89.327 -10.2741
204.519531 89.309 -10.4365
206.001556 89.290 -10.5989
207.494324 89.271 -10.7616
208.997925 89.252 -10.9240
210.512405 89.233 -11.0876
212.037857 89.214 -11.2529
213.574371 89.195 -11.4226
215.122025 89.177 -11.5987
216.680893 89.160 -11.7835
218.251053 89.142 -11.9805
219.832581 89.124 -12.1874
221.425583 89.104 -12.4026
223.030121 89.082 -12.6274
224.646286 89.061 -12.8628
226.274170 89.038 -13.1084
227.913849 89.012 -13.3661
229.565399 88.982 -13.6293
231.228928 88.949 -13.8925
232.904510 88.912 -14.1542
234.592224 88.873 -14.4120
236.292191 88.832 -14.6643
238.004456 88.788 -14.9105
239.729126 88.741 -15.1464
241.466309 88.691 -15.3683
243.216080 88.638 -15.5745
244.978516 88.585 -15.7606
246.753738 88.531 -15.9305
248.541809 88.479 -16.0856
250.342850 88.427 -16.2296
252.156937 88.376 -16.3661
253.984161 88.326 -16.4976
255.824646 88.278 -16.6261
257.678467 88.231 -16.7577
259.545685 88.186 -16.8984
261.426483 88.141 -17.0506
263.320862 88.096 -17.2185
265.229004 88.049 -17.4015
267.150970 88.001 -17.6010
269.086853 87.949 -17.8144
271.036774 87.893 -18.0426
273.000824 87.831 -18.2763
274.979095 87.762 -18.5099
276.971710 87.685 -18.7324
278.978760 87.602 -18.9334
281.000336 87.512 -19.1056
283.036591 87.417 -19.2399
285.087585 87.317 -19.3308
287.153442 87.212 -19.3695
289.234283 87.105 -19.3561
291.330200 87.000 -19.2847
293.441284 86.897 -19.1644
295.567688 86.799 -18.9990
297.709503 86.705 -18.7986
299.866821 86.618 -18.5707
302.039795 86.536 -18.3257
304.228485 86.463 -18.0731
306.433044 86.395 -17.8237
308.653595 86.333 -17.5905
310.890228 86.275 -17.3766
313.143066 86.218 -17.1898
315.412231 86.161 -17.0284
317.697845 86.103 -16.8957
320.000000 86.042 -16.7843
322.318848 85.975 -16.6939
324.654510 85.900 -16.6063
327.007080 85.815 -16.5095
329.376709 85.721 -16.3845
331.763519 85.617 -16.2117
334.167603 85.506 -15.9798
336.589142 85.390 -15.6727
339.028198 85.270 -15.2853
341.484924 85.150 -14.8033
343.959473 85.034 -14.2377
346.451935 84.928 -13.5875
348.962463 84.832 -12.8741
351.491211 84.750 -12.1125
354.038239 84.682 -11.3213
356.603760 84.629 -10.5197
359.187866 84.588 -9.7214
361.790680 84.561 -8.9445
364.412354 84.543 -8.1951
367.053040 84.532 -7.4869
369.712860 84.527 -6.8150
372.391968 84.524 -6.1809
375.090454 84.523 -5.5787
377.808533 84.523 -5.0049
380.546265 84.523 -4.4546
383.303864 84.523 -3.9225
386.081451 84.523 -3.4065
388.879150 84.523 -2.9031
391.697144 84.523 -2.4105
394.535522 84.523 -1.9257
397.394501 84.523 -1.4484
400.274170 84.523 -0.9775
403.174744 84.523 -0.5115
406.096313 84.523 -0.0486
409.039062 84.523 0.4116
412.003113 84.523 0.8695
414.988647 84.523 1.3265
417.995850 84.523 1.7835
421.024811 84.523 2.2415
424.075714 84.523 2.7016
427.148743 84.523 3.1645
430.244049 84.523 3.6307
433.361786 84.523 4.1025
436.502106 84.523 4.5818
439.665161 84.523 5.0695
442.851166 84.524 5.5663
446.060242 84.525 6.0744
449.292572 84.526 6.5967
452.548340 84.529 7.1323
455.827698 84.535 7.6816
459.130798 84.543 8.2432
462.457855 84.553 8.8159
465.809021 84.565 9.4001
469.184448 84.580 9.9966
472.584381 84.599 10.6021
476.008911 84.622 11.2147
479.458252 84.649 11.8320
482.932617 84.679 12.4508
486.432159 84.713 13.0720
489.957031 84.750 13.6962
493.507477 84.791 14.3211
497.083618 84.837 14.9449
500.685699 84.888 15.5660
504.313873 84.942 16.1825
507.968323 85.001 16.7930
511.649292 85.064 17.3962
515.356934 85.133 17.9891
519.091370 85.205 18.5692
522.852966 85.283 19.1332
526.641724 85.366 19.6775
530.458008 85.453 20.1993
534.301941 85.543 20.6941
538.173706 85.637 21.1625
542.073547 85.732 21.6035
546.001648 85.830 22.0176
549.958191 85.929 22.4044
553.943420 86.031 22.7659
557.957520 86.132 23.1034
562.000671 86.235 23.4180
566.073181 86.339 23.7116
570.175171 86.445 23.9821
574.306885 86.552 24.2273
578.468567 86.660 24.4493
582.660400 86.767 24.6507
586.882568 86.876 24.8284
591.135376 86.987 24.9808
595.419006 87.100 25.1066
599.733643 87.211 25.2022
604.079590 87.322 25.2738
608.456970 87.430 25.3272
612.866089 87.539 25.3599
617.307190 87.649 25.3718
621.780457 87.760 25.3621
626.286133 87.869 25.3291
630.824463 87.978 25.2752
635.395691 88.086 25.2039
640.000000 88.195 25.1104
644.637695 88.305 24.9905
649.309021 88.415 24.8455
654.014160 88.522 24.6737
658.753418 88.627 24.4797
663.527039 88.730 24.2689
668.335205 88.833 24.0378
673.178284 88.936 23.7846
678.056396 89.039 23.5090
682.969849 89.139 23.2091
687.918945 89.237 22.8882
692.903870 89.333 22.5500
697.924927 89.429 22.1903
702.982422 89.525 21.8060
708.076477 89.619 21.3965
713.207520 89.709 20.9591
718.375732 89.797 20.4977
723.581360 89.882 20.0163
728.824707 89.965 19.5128
734.106079 90.045 18.9862
739.425720 90.123 18.4370
744.783936 90.195 17.8640
750.180908 90.264 17.2711
755.617065 90.328 16.6625
761.092529 90.389 16.0373
766.607727 90.445 15.3950
772.162903 90.497 14.7394
777.758301 90.542 14.0727
783.394287 90.582 13.3994
789.071045 90.617 12.7251
794.789001 90.648 12.0484
800.548340 90.675 11.3688
806.349487 90.698 10.6884
812.192627 90.716 10.0089
818.078125 90.730 9.3305
824.006226 90.740 8.6541
829.977295 90.747 7.9794
835.991699 90.749 7.3054
842.049622 90.747 6.6355
848.151428 90.741 5.9729
854.297485 90.730 5.3174
860.488098 90.716 4.6690
866.723572 90.698 4.0293
873.004211 90.676 3.3995
879.330322 90.650 2.7812
885.702332 90.621 2.1772
892.120483 90.589 1.5851
898.585144 90.555 1.0031
905.096680 90.518 0.4321
911.655396 90.477 -0.1279
918.261597 90.433 -0.6760
924.915710 90.387 -1.2114
931.618042 90.337 -1.7341
938.368896 90.284 -2.2438
945.168762 90.228 -2.7402
952.017822 90.171 -3.2226
958.916504 90.110 -3.6912
965.865234 90.046 -4.1472
972.864319 89.978 -4.5874
979.914062 89.908 -5.0093
987.014954 89.834 -5.4125
994.167236 89.758 -5.7959
1001.371399 89.679 -6.1597
1008.627747 89.598 -6.5042
1015.936646 89.513 -6.8287
1023.298584 89.426 -7.1322
1030.713867 89.336 -7.4151
1038.182739 89.244 -7.6779
1045.705933 89.149 -7.9200
1053.283447 89.052 -8.1424
1060.916016 88.950 -8.3412
1068.603882 88.844 -8.5140
1076.347412 88.733 -8.6565
1084.147095 88.619 -8.7645
1092.003296 88.500 -8.8348
1099.916382 88.378 -8.8650
1107.886841 88.251 -8.8482
1115.915039 88.117 -8.7798
1124.001343 87.980 -8.6506
1132.146362 87.838 -8.4515
1140.350342 87.694 -8.1782
1148.613770 87.547 -7.8267
1156.937134 87.399 -7.3871
1165.320801 87.247 -6.8524
1173.765137 87.096 -6.2091
1182.270752 86.944 -5.4425
1190.838013 86.798 -4.5479
1199.467285 86.660 -3.5148
1208.159180 86.534 -2.3459
1216.913940 86.424 -1.0338
1225.732178 86.338 0.4016
1234.614380 86.283 1.9590
1243.560913 86.265 3.5888
1252.572266 86.294 5.2625
1261.648926 86.369 6.9155
1270.791382 86.493 8.4918
1280.000000 86.658 9.9367
1289.275391 86.862 11.1862
1298.618042 87.091 12.2122
1308.028320 87.336 12.9616
1317.506836 87.585 13.4455
1327.054077 87.824 13.6416
1336.670410 88.046 13.5986
1346.356567 88.242 13.3388
1356.112793 88.410 12.9198
1365.939697 88.547 12.3921
1375.837891 88.655 11.7995
1385.807739 88.735 11.1952
1395.849854 88.793 10.6013
1405.964844 88.831 10.0573
1416.152954 88.854 9.5637
1426.415039 88.868 9.1371
1436.751465 88.876 8.7683
1447.162720 88.880 8.4568
1457.649414 88.881 8.1930
1468.212158 88.882 7.9689
1478.851440 88.882 7.7787
1489.567871 88.882 7.6146
1500.361816 88.882 7.4735
1511.234131 88.881 7.3497
1522.185059 88.880 7.2424
1533.215454 88.878 7.1488
1544.325806 88.875 7.0703
1555.516602 88.870 7.0067
1566.788574 88.864 6.9612
1578.142090 88.856 6.9371
1589.578003 88.848 6.9340
1601.096680 88.841 6.9522
1612.698975 88.833 6.9928
1624.385254 88.825 7.0568
1636.156250 88.817 7.1446
1648.012451 88.811 7.2579
1659.954590 88.808 7.3935
1671.983398 88.807 7.5494
1684.099243 88.810 7.7222
1696.302856 88.816 7.9098
1708.594971 88.827 8.1071
1720.976196 88.843 8.3100
1733.447144 88.863 8.5131
1746.008423 88.887 8.7103
1758.660645 88.914 8.8992
1771.404663 88.944 9.0768
1784.240967 88.977 9.2404
1797.170288 89.012 9.3847
1810.193359 89.047 9.5145
1823.310791 89.080 9.6298
1836.523193 89.111 9.7396
1849.831421 89.140 9.8518
1863.236084 89.168 9.9704
1876.737793 89.196 10.1025
1890.337524 89.224 10.2473
1904.035645 89.254 10.4077
1917.833008 89.286 10.5803
1931.730469 89.322 10.7652
1945.728638 89.362 10.9552
1959.828125 89.408 11.1451
1974.029907 89.458 11.3282
1988.334473 89.512 11.4975
2002.742798 89.570 11.6494
2017.255493 89.630 11.7775
2031.873291 89.692 11.8846
2046.597168 89.753 11.9704
2061.427734 89.815 12.0377
2076.365479 89.877 12.0883
2091.411865 89.938 12.1249
2106.566895 89.997 12.1487
2121.832031 90.054 12.1659
2137.207764 90.109 12.1817
2152.694824 90.162 12.2009
2168.294189 90.214 12.2287
2184.006592 90.265 12.2688
2199.832764 90.315 12.3257
2215.773682 90.366 12.4026
2231.830078 90.419 12.5056
2248.002686 90.476 12.6304
2264.292725 90.539 12.7787
2280.700684 90.609 12.9393
2297.227539 90.688 13.1066
2313.874268 90.777 13.2654
2330.641602 90.876 13.4029
2347.530273 90.985 13.5066
2364.541504 91.100 13.5612
2381.676025 91.221 13.5621
2398.934570 91.347 13.4987
2416.318359 91.473 13.3737
2433.827881 91.598 13.1826
2451.464355 91.720 12.9371
2469.228760 91.835 12.6433
2487.121826 91.945 12.3135
2505.144531 92.049 11.9596
2523.297852 92.149 11.5897
2541.582764 92.244 11.2144
2560.000000 92.336 10.8377
2578.550781 92.426 10.4682
2597.236084 92.516 10.1017
2616.056641 92.608 9.7394
2635.013672 92.703 9.3726
2654.108154 92.801 8.9945
2673.340820 92.903 8.5998
2692.713135 93.007 8.1834
2712.225586 93.114 7.7382
2731.879395 93.225 7.2564
2751.675781 93.337 6.7335
2771.615479 93.450 6.1617
2791.699707 93.562 5.5438
2811.929688 93.671 4.8802
2832.305908 93.778 4.1714
2852.830078 93.882 3.4169
2873.502930 93.982 2.6206
2894.325439 94.075 1.7844
2915.298828 94.163 0.9140
2936.424316 94.245 0.0148
2957.702881 94.322 -0.9109
2979.135742 94.391 -1.8614
3000.723633 94.454 -2.8297
3022.468262 94.509 -3.8085
3044.370117 94.558 -4.7964
3066.430908 94.602 -5.7900
3088.651611 94.642 -6.7895
3111.033203 94.675 -7.7950
3133.577148 94.703 -8.8032
3156.284180 94.725 -9.8108
3179.156006 94.741 -10.8182
3202.193359 94.753 -11.8261
3225.397949 94.759 -12.8302
3248.770508 94.757 -13.8298
3272.312500 94.749 -14.8156
3296.024902 94.734 -15.7799
3319.909180 94.714 -16.7177
3343.966797 94.688 -17.6212
3368.198486 94.659 -18.4909
3392.605713 94.629 -19.3230
3417.189941 94.599 -20.1234
3441.952393 94.570 -20.8935
3466.894287 94.542 -21.6427
3492.016846 94.519 -22.3777
3517.321289 94.499 -23.1076
3542.809326 94.481 -23.8429
3568.481934 94.465 -24.5865
3594.340576 94.449 -25.3455
3620.386719 94.432 -26.1183
3646.621582 94.414 -26.9089
3673.046387 94.392 -27.7072
3699.662842 94.364 -28.5071
3726.472168 94.331 -29.3004
3753.475586 94.296 -30.0764
3780.675049 94.260 -30.8366
3808.071289 94.223 -31.5767
3835.666016 94.187 -32.3036
3863.460938 94.155 -33.0162
3891.457275 94.127 -33.7336
3919.656250 94.108 -34.4676
3948.059814 94.094 -35.2383
3976.668945 94.084 -36.0665
4005.485596 94.076 -36.9624
4034.510986 94.068 -37.9446
4063.746582 94.053 -39.0087
4093.194336 94.027 -40.1647
4122.855469 93.985 -41.3889
4152.730957 93.923 -42.6717
4182.823730 93.839 -43.9798
4213.133789 93.730 -45.2887
4243.664062 93.595 -46.5631
4274.415527 93.433 -47.7676
4305.389648 93.247 -48.8769
4336.588379 93.040 -49.8595
4368.013184 92.814 -50.6974
4399.665527 92.572 -51.3656
4431.547363 92.318 -51.8531
4463.660156 92.057 -52.1388
4496.005371 91.795 -52.2281
4528.585449 91.537 -52.1153
4561.401367 91.288 -51.8119
4594.455078 91.052 -51.3214
4627.748535 90.833 -50.6616
4661.283203 90.637 -49.8419
4695.060547 90.469 -48.8909
4729.083008 90.333 -47.8291
4763.352051 90.231 -46.6905
4797.869141 90.168 -45.5062
4832.636719 90.140 -44.3070
4867.655762 90.149 -43.1257
4902.928711 90.194 -41.9884
4938.457520 90.273 -40.9251
4974.243652 90.382 -39.9563
5010.289062 90.520 -39.1068
5046.595703 90.682 -38.3932
5083.165527 90.868 -37.8370
5120.000000 91.073 -37.4485
5157.101562 91.292 -37.2437
5194.472168 91.522 -37.2266
5232.113281 91.761 -37.4039
5270.027344 92.005 -37.7836
5308.216309 92.252 -38.3757
5346.681641 92.498 -39.1815
5385.426270 92.737 -40.2079
5424.451172 92.966 -41.4474
5463.758789 93.180 -42.8979
5503.351562 93.378 -44.5504
5543.230957 93.556 -46.4015
5583.399414 93.710 -48.4326
5623.859375 93.835 -50.6338
5664.611816 93.928 -52.9752
5705.660156 93.985 -55.4334
5747.005859 94.007 -57.9787
5788.650879 93.991 -60.5836
5830.597656 93.937 -63.2164
5872.848633 93.844 -65.8459
5915.405762 93.714 -68.4427
5958.271484 93.545 -70.9732
6001.447266 93.342 -73.4186
6044.936523 93.107 -75.7542
6088.740234 92.841 -77.9652
6132.861816 92.546 -80.0335
6177.303223 92.224 -81.9448
6222.066406 91.877 -83.6841
6267.154297 91.507 -85.2357
6312.568359 91.115 -86.5853
6358.312012 90.703 -87.7139
6404.386719 90.273 -88.6031
6450.795898 89.829 -89.2364
6497.541016 89.373 -89.5953
6544.625000 88.910 -89.6674
6592.049805 88.444 -89.4337
6639.818359 87.983 -88.8966
6687.933594 87.534 -88.0437
6736.396973 87.106 -86.9006
6785.211426 86.709 -85.4725
6834.379883 86.353 -83.8091
6883.904785 86.047 -81.9405
6933.788574 85.798 -79.9316
6984.033691 85.614 -77.8323
7034.642578 85.494 -75.7175
7085.618652 85.448 -73.6548
7136.963867 85.464 -71.7163
7188.681152 85.541 -69.9835
7240.773438 85.664 -68.4968
7293.243164 85.822 -67.3191
7346.092773 86.002 -66.4634
7399.325684 86.193 -65.9696
7452.944336 86.380 -65.8199
7506.951172 86.549 -66.0313
7561.350098 86.688 -66.5387
7616.142578 86.785 -67.3169
7671.332031 86.832 -68.2618
7726.921875 86.820 -69.3000
7782.914551 86.751 -70.3130
7839.312500 86.619 -71.1889
7896.119629 86.439 -71.8354
7953.337891 86.213 -72.1263
8010.971191 85.967 -72.0504
8069.021973 85.719 -71.5278
8127.493164 85.493 -70.6406
8186.388672 85.318 -69.4027
8245.710938 85.207 -67.9421
8305.461914 85.185 -66.3475
8365.647461 85.246 -64.7532
8426.267578 85.401 -63.2886
8487.328125 85.629 -62.0587
8548.831055 85.921 -61.1990
8610.779297 86.253 -60.7472
8673.176758 86.604 -60.7892
8736.026367 86.959 -61.3138
8799.331055 87.301 -62.3482
8863.094727 87.617 -63.8618
8927.320312 87.893 -65.8566
8992.010742 88.116 -68.2603
9057.170898 88.270 -71.0350
9122.802734 88.351 -74.0774
9188.910156 88.352 -77.3184
9255.497070 88.267 -80.6162
9322.566406 88.083 -83.8599
9390.121094 87.807 -86.8868
9458.166016 87.430 -89.5244
9526.704102 86.976 -91.6900
9595.738281 86.458 -93.2412
9665.273438 85.895 -94.1867
9735.311523 85.302 -94.4652
9805.857422 84.707 -94.1463
9876.915039 84.138 -93.2369
9948.487305 83.619 -91.8655
10020.578125 83.185 -90.1216
10093.191406 82.837 -88.1312
10166.331055 82.586 -86.0190
10240.000000 82.426 -83.8792
10314.203125 82.357 -81.8293
10388.944336 82.362 -79.9236
10464.226562 82.425 -78.2483
10540.054688 82.535 -76.8237
10616.432617 82.680 -75.6979
10693.363281 82.847 -74.8740
10770.852539 83.022 -74.3823
10848.902344 83.195 -74.1863
10927.517578 83.351 -74.2795
11006.703125 83.486 -74.5997
11086.461914 83.593 -75.1022
11166.798828 83.675 -75.7283
11247.718750 83.729 -76.4115
11329.223633 83.767 -77.1303
11411.320312 83.794 -77.8243
11494.011719 83.823 -78.5430
11577.301758 83.870 -79.2892
11661.195312 83.930 -80.1438
11745.697266 84.008 -81.1718
11830.811523 84.092 -82.4255
11916.542969 84.174 -83.9780
12002.894531 84.240 -85.8318
12089.873047 84.275 -88.0416
12177.480469 84.261 -90.5232
12265.723633 84.176 -93.2553
12354.606445 84.017 -96.1025
12444.132812 83.771 -98.9602
12534.308594 83.442 -101.7126
12625.136719 83.025 -104.2340
12716.624023 82.530 -106.4493
12808.773438 81.958 -108.2569
12901.591797 81.323 -109.6117
12995.082031 80.633 -110.4540
13089.250000 79.896 -110.7252
13184.099609 79.119 -110.3679
13279.636719 78.314 -109.3203
13375.867188 77.488 -107.5116
13472.793945 76.660 -104.9111
13570.422852 75.836 -101.4467
13668.759766 75.056 -97.1718
13767.809570 74.343 -92.0453
13867.577148 73.758 -86.2801
13968.067383 73.369 -79.9850
14069.285156 73.185 -73.4355
14171.237305 73.252 -66.8754
14273.927734 73.526 -60.5117
14377.362305 73.995 -54.5899
14481.546875 74.608 -49.2379
14586.486328 75.319 -44.6653
14692.185547 76.095 -40.8707
14798.651367 76.888 -37.9561
14905.888672 77.692 -35.8242
15013.902344 78.486 -34.4300
15122.700195 79.273 -33.7132
15232.285156 80.053 -33.5978
15342.664062 80.819 -34.0852
15453.843750 81.569 -35.1475
15565.829102 82.289 -36.8004
15678.625000 82.971 -39.0496
15792.239258 83.601 -41.8969
15906.675781 84.167 -45.3694
16021.942383 84.654 -49.3987
16138.043945 85.041 -53.9705
16254.986328 85.325 -58.9491
16372.777344 85.494 -64.2485
16491.421875 85.547 -69.7046
16610.923828 85.479 -75.1872
16731.294922 85.287 -80.5069
16852.535156 84.965 -85.4799
16974.656250 84.528 -89.9557
17097.662109 83.982 -93.7370
17221.558594 83.350 -96.7789
17346.353516 82.646 -98.9530
17472.052734 81.899 -100.3152
17598.662109 81.130 -100.8268
17726.189453 80.380 -100.6459
17854.640625 79.693 -99.8596
17984.021484 79.080 -98.6456
18114.341797 78.573 -97.1789
18245.605469 78.156 -95.5564
18377.820312 77.831 -93.9202
18510.994141 77.581 -92.3082
18645.132812 77.395 -90.8090
18780.242188 77.254 -89.4103
18916.332031 77.133 -88.1381
19053.408203 77.034 -86.9634
19191.476562 76.947 -85.8664
19330.546875 76.874 -84.8443
19470.623047 76.815 -83.8822
19611.714844 76.770 -82.9968
19753.830078 76.743 -82.1933
19896.974609 76.729 -81.4919
