* Measurement data measured by REW V5.20.13
* Source: C:\Users\kurin\Desktop\Targets and Curves\Resolve\Img\Files\Focal Stellia_SPL.txt
* Format: Comma/Tab/Space delimited data
* Dated: Aug 14, 2023 3:45:36 PM
* REW Settings:
*  C-weighting compensation: Off
*  Target level: 75.0 dB
* Note: ; Measurement imported from C:\Users\kurin\Desktop\Targets and Curves\Resolve\Img\Files\Focal Stellia_SPL.txt Format: Comma/Tab/Space delimited data 623 values loaded, 5 Hz to 39,792 Hz log spaced 
* Measurement: Focal Stellia_SPL
* Smoothing: 1/48 octave
* Frequency Step: 1/96 octave
* Start Frequency: 5.000 Hz
*
* Freq(Hz) SPL(dB) Phase(degrees)
5.000000 93.597 -6.1290
5.036232 93.596 -6.1338
5.072727 93.594 -6.1390
5.109486 93.592 -6.1450
5.146511 93.590 -6.1520
5.183805 93.588 -6.1605
5.221369 93.585 -6.1700
5.259205 93.582 -6.1802
5.297316 93.579 -6.1910
5.335702 93.576 -6.2023
5.374367 93.573 -6.2140
5.413311 93.570 -6.2259
5.452538 93.567 -6.2380
5.492050 93.563 -6.2499
5.531847 93.560 -6.2620
5.571934 93.557 -6.2744
5.612310 93.554 -6.2870
5.652979 93.550 -6.2995
5.693943 93.547 -6.3120
5.735204 93.544 -6.3244
5.776763 93.541 -6.3370
5.818624 93.538 -6.3499
5.860788 93.535 -6.3630
5.903258 93.532 -6.3760
5.946035 93.528 -6.3890
5.989123 93.525 -6.4019
6.032523 93.522 -6.4150
6.076237 93.519 -6.4284
6.120268 93.515 -6.4420
6.164618 93.512 -6.4554
6.209289 93.509 -6.4690
6.254284 93.506 -6.4829
6.299605 93.503 -6.4970
6.345255 93.500 -6.5109
6.391235 93.496 -6.5250
6.437549 93.493 -6.5394
6.484198 93.490 -6.5540
6.531185 93.487 -6.5685
6.578513 93.483 -6.5830
6.626183 93.480 -6.5974
6.674199 93.477 -6.6120
6.722563 93.474 -6.6269
6.771278 93.471 -6.6420
6.820345 93.467 -6.6574
6.869768 93.464 -6.6730
6.919549 93.461 -6.6885
6.969691 93.458 -6.7040
7.020196 93.454 -6.7194
7.071068 93.451 -6.7350
7.122308 93.448 -6.7509
7.173919 93.445 -6.7670
7.225904 93.442 -6.7834
7.278266 93.439 -6.8000
7.331007 93.436 -6.8165
7.384131 93.432 -6.8330
7.437639 93.429 -6.8494
7.491535 93.426 -6.8660
7.545822 93.423 -6.8829
7.600502 93.419 -6.9000
7.655579 93.416 -6.9174
7.711054 93.413 -6.9350
7.766932 93.410 -6.9525
7.823214 93.407 -6.9700
7.879904 93.404 -6.9874
7.937005 93.400 -7.0050
7.994520 93.397 -7.0234
8.052452 93.394 -7.0420
8.110803 93.391 -7.0599
8.169578 93.387 -7.0780
8.228777 93.384 -7.0969
8.288406 93.381 -7.1160
8.348468 93.378 -7.1349
8.408964 93.375 -7.1540
8.469899 93.371 -7.1734
8.531276 93.368 -7.1930
8.593097 93.365 -7.2124
8.655366 93.362 -7.2320
8.718086 93.359 -7.2519
8.781260 93.355 -7.2720
8.844893 93.352 -7.2919
8.908987 93.349 -7.3120
8.973545 93.346 -7.3329
9.038571 93.343 -7.3540
9.104069 93.340 -7.3750
9.170040 93.336 -7.3960
9.236490 93.333 -7.4169
9.303422 93.330 -7.4380
9.370838 93.326 -7.4599
9.438744 93.323 -7.4820
9.507140 93.320 -7.5039
9.576033 93.317 -7.5260
9.645425 93.313 -7.5484
9.715320 93.310 -7.5710
9.785721 93.307 -7.5934
9.856632 93.304 -7.6160
9.928058 93.301 -7.6394
10.000000 93.298 -7.6630
10.072464 93.295 -7.6864
10.145453 93.291 -7.7100
10.218971 93.288 -7.7339
10.293022 93.285 -7.7580
10.367610 93.282 -7.7824
10.442738 93.278 -7.8070
10.518411 93.275 -7.8314
10.594631 93.272 -7.8560
10.671404 93.269 -7.8814
10.748734 93.266 -7.9070
10.826623 93.263 -7.9324
10.905077 93.259 -7.9580
10.984100 93.256 -7.9844
11.063695 93.253 -8.0110
11.143867 93.250 -8.0374
11.224621 93.246 -8.0640
11.305959 93.243 -8.0909
11.387886 93.240 -8.1180
11.470407 93.237 -8.1453
11.553527 93.234 -8.1730
11.637249 93.230 -8.2014
11.721577 93.227 -8.2300
11.806517 93.224 -8.2584
11.892071 93.221 -8.2870
11.978246 93.217 -8.3158
12.065045 93.214 -8.3450
12.152473 93.211 -8.3749
12.240536 93.208 -8.4050
12.329235 93.205 -8.4349
12.418578 93.202 -8.4650
12.508568 93.199 -8.4959
12.599211 93.195 -8.5270
12.690510 93.192 -8.5579
12.782471 93.189 -8.5890
12.875097 93.186 -8.6207
12.968395 93.182 -8.6530
13.062370 93.179 -8.6859
13.157025 93.176 -8.7190
13.252366 93.173 -8.7519
13.348398 93.170 -8.7850
13.445127 93.167 -8.8188
13.542556 93.163 -8.8530
13.640691 93.160 -8.8873
13.739536 93.157 -8.9220
13.839099 93.154 -8.9573
13.939383 93.150 -8.9930
14.040393 93.147 -9.0289
14.142136 93.144 -9.0650
14.244616 93.141 -9.1013
14.347837 93.138 -9.1380
14.451808 93.134 -9.1752
14.556532 93.131 -9.2130
14.662014 93.128 -9.2513
14.768262 93.125 -9.2900
14.875278 93.122 -9.3288
14.983070 93.118 -9.3680
15.091644 93.115 -9.4077
15.201005 93.112 -9.4480
15.311157 93.109 -9.4888
15.422109 93.106 -9.5300
15.533863 93.103 -9.5712
15.646428 93.099 -9.6130
15.759809 93.096 -9.6557
15.874010 93.093 -9.6990
15.989040 93.090 -9.7423
16.104904 93.086 -9.7860
16.221605 93.083 -9.8301
16.339155 93.080 -9.8749
16.457554 93.077 -9.9206
16.576813 93.074 -9.9670
16.696936 93.071 -10.0138
16.817928 93.067 -10.0610
16.939798 93.064 -10.1081
17.062551 93.061 -10.1559
17.186193 93.058 -10.2051
17.310732 93.054 -10.2550
17.436172 93.051 -10.3047
17.562521 93.048 -10.3550
17.689787 93.045 -10.4061
17.817974 93.042 -10.4579
17.947090 93.039 -10.5106
18.077143 93.035 -10.5640
18.208138 93.032 -10.6176
18.340080 93.029 -10.6719
18.472980 93.026 -10.7271
18.606844 93.022 -10.7830
18.741676 93.019 -10.8392
18.877487 93.016 -10.8959
19.014280 93.013 -10.9531
19.152065 93.009 -11.0109
19.290850 93.006 -11.0697
19.430639 93.003 -11.1290
19.571442 93.000 -11.1882
19.713264 92.997 -11.2479
19.856115 92.994 -11.3083
20.000000 92.992 -11.3699
20.144928 92.990 -11.4331
20.290907 92.988 -11.4989
20.437943 92.987 -11.5685
20.586044 92.986 -11.6419
20.735220 92.985 -11.7201
20.885475 92.983 -11.8019
21.036821 92.981 -11.8876
21.189262 92.978 -11.9749
21.342808 92.974 -12.0627
21.497467 92.969 -12.1479
21.653246 92.963 -12.2259
21.810154 92.958 -12.2999
21.968201 92.955 -12.3702
22.127390 92.953 -12.4409
22.287735 92.952 -12.5163
22.449242 92.953 -12.5969
22.611917 92.955 -12.6830
22.775772 92.958 -12.7799
22.940815 92.963 -12.8927
23.107054 92.969 -13.0228
23.274498 92.973 -13.1751
23.443153 92.976 -13.3448
23.613033 92.976 -13.5304
23.784142 92.972 -13.7268
23.956491 92.965 -13.9308
24.130091 92.954 -14.1348
24.304947 92.938 -14.3314
24.481071 92.919 -14.5168
24.658470 92.899 -14.6828
24.837156 92.878 -14.8348
25.017136 92.858 -14.9732
25.198421 92.838 -15.1039
25.381020 92.820 -15.2324
25.564941 92.803 -15.3599
25.750195 92.785 -15.4885
25.936790 92.767 -15.6198
26.124741 92.750 -15.7566
26.314051 92.732 -15.8978
26.504732 92.712 -16.0473
26.696796 92.688 -16.1938
26.890253 92.658 -16.3295
27.085112 92.626 -16.4479
27.281382 92.593 -16.5374
27.479073 92.561 -16.6059
27.678198 92.533 -16.6556
27.878765 92.506 -16.6920
28.080786 92.480 -16.7205
28.284271 92.457 -16.7430
28.489231 92.437 -16.7617
28.695675 92.419 -16.7810
28.903616 92.404 -16.8058
29.113064 92.390 -16.8370
29.324028 92.378 -16.8781
29.536524 92.366 -16.9259
29.750557 92.353 -16.9793
29.966141 92.339 -17.0349
30.183289 92.326 -17.0874
30.402010 92.314 -17.1419
30.622314 92.305 -17.2001
30.844217 92.299 -17.2669
31.067726 92.294 -17.3464
31.292856 92.291 -17.4428
31.519617 92.290 -17.5606
31.748020 92.289 -17.7028
31.978081 92.288 -17.8757
32.209808 92.285 -18.0747
32.443211 92.278 -18.2981
32.678310 92.268 -18.5437
32.915108 92.255 -18.8106
33.153625 92.238 -19.0927
33.393871 92.213 -19.3861
33.635857 92.183 -19.6826
33.879597 92.148 -19.9725
34.125103 92.108 -20.2556
34.372387 92.065 -20.5287
34.621464 92.017 -20.7916
34.872345 91.965 -21.0436
35.125042 91.910 -21.2827
35.379574 91.852 -21.5069
35.635948 91.790 -21.7158
35.894180 91.726 -21.9083
36.154285 91.658 -22.0838
36.416275 91.588 -22.2413
36.680161 91.514 -22.3798
36.945961 91.438 -22.4994
37.213688 91.359 -22.5959
37.483353 91.276 -22.6665
37.754974 91.189 -22.7070
38.028561 91.100 -22.7116
38.304131 91.008 -22.6811
38.581699 90.917 -22.6139
38.861279 90.824 -22.5102
39.142883 90.731 -22.3707
39.426529 90.636 -22.1923
39.712231 90.541 -21.9717
40.000000 90.446 -21.7104
40.289856 90.354 -21.4093
40.581814 90.263 -21.0675
40.875885 90.173 -20.6868
41.172089 90.084 -20.2597
41.470440 89.995 -19.7783
41.770950 89.909 -19.2449
42.073643 89.831 -18.6568
42.378525 89.760 -18.0209
42.685616 89.695 -17.3428
42.994934 89.637 -16.6240
43.306492 89.589 -15.8645
43.620308 89.551 -15.0752
43.936401 89.526 -14.2638
44.254780 89.513 -13.4403
44.575470 89.511 -12.6158
44.898483 89.521 -11.7943
45.223835 89.542 -10.9819
45.551544 89.573 -10.1841
45.881630 89.615 -9.4063
46.214108 89.668 -8.6551
46.548996 89.731 -7.9365
46.886307 89.805 -7.2580
47.226067 89.889 -6.6272
47.568283 89.981 -6.0499
47.912983 90.080 -5.5337
48.260181 90.186 -5.0817
48.609894 90.297 -4.6980
48.962143 90.413 -4.3864
49.316940 90.531 -4.1538
49.674313 90.651 -3.9952
50.034271 90.768 -3.9093
50.396843 90.884 -3.8920
50.762039 90.998 -3.9394
51.129883 91.109 -4.0488
51.500389 91.216 -4.2157
51.873581 91.320 -4.4406
52.249481 91.421 -4.7214
52.628101 91.519 -5.0604
53.009464 91.612 -5.4604
53.393593 91.698 -5.9182
53.780506 91.776 -6.4332
54.170223 91.846 -7.0000
54.562763 91.906 -7.6165
54.958145 91.954 -8.2719
55.356396 91.989 -8.9598
55.757530 92.010 -9.6659
56.161572 92.018 -10.3766
56.568542 92.012 -11.0828
56.978462 91.994 -11.7734
57.391350 91.964 -12.4408
57.807232 91.923 -13.0744
58.226128 91.871 -13.6720
58.648056 91.811 -14.2300
59.073048 91.742 -14.7422
59.501114 91.663 -15.2041
59.932281 91.574 -15.6063
60.366577 91.478 -15.9399
60.804020 91.375 -16.1986
61.244629 91.266 -16.3765
61.688435 91.152 -16.4639
62.135452 91.033 -16.4496
62.585712 90.913 -16.3333
63.039234 90.799 -16.1063
63.496040 90.690 -15.7836
63.956161 90.591 -15.3743
64.419617 90.502 -14.8879
64.886421 90.424 -14.3328
65.356621 90.359 -13.7221
65.830215 90.310 -13.0662
66.307251 90.277 -12.3814
66.787743 90.259 -11.6841
67.271713 90.256 -10.9853
67.759193 90.267 -10.3001
68.250206 90.290 -9.6322
68.744774 90.323 -8.9889
69.242928 90.366 -8.3741
69.744690 90.420 -7.7920
70.250084 90.484 -7.2490
70.759148 90.555 -6.7529
71.271896 90.634 -6.3038
71.788361 90.717 -5.9049
72.308571 90.806 -5.5546
72.832550 90.898 -5.2519
73.360321 90.995 -4.9984
73.891922 91.095 -4.7947
74.427376 91.198 -4.6432
74.966705 91.303 -4.5475
75.509949 91.409 -4.5050
76.057121 91.514 -4.5160
76.608261 91.619 -4.5758
77.163399 91.722 -4.6802
77.722557 91.824 -4.8287
78.285767 91.925 -5.0188
78.853058 92.026 -5.2515
79.424461 92.124 -5.5273
80.000000 92.220 -5.8453
80.579712 92.314 -6.2046
81.163628 92.406 -6.6052
81.751770 92.494 -7.0478
82.344177 92.578 -7.5290
82.940880 92.656 -8.0470
83.541901 92.729 -8.5969
84.147285 92.796 -9.1747
84.757050 92.858 -9.7758
85.371231 92.913 -10.3960
85.989868 92.963 -11.0297
86.612984 93.006 -11.6689
87.240616 93.046 -12.3167
87.872803 93.083 -12.9717
88.509560 93.118 -13.6396
89.150940 93.149 -14.3266
89.796967 93.176 -15.0305
90.447670 93.198 -15.7531
91.103088 93.214 -16.4894
91.763260 93.223 -17.2368
92.428215 93.225 -17.9904
93.097992 93.221 -18.7466
93.772614 93.209 -19.4995
94.452133 93.190 -20.2448
95.136566 93.163 -20.9745
95.825966 93.129 -21.6789
96.520363 93.090 -22.3575
97.219788 93.047 -23.0062
97.924286 93.000 -23.6267
98.633881 92.951 -24.2213
99.348625 92.898 -24.7849
100.068542 92.841 -25.3129
100.793686 92.781 -25.8058
101.524078 92.723 -26.2620
102.259766 92.664 -26.6830
103.000778 92.604 -27.0696
103.747162 92.546 -27.4224
104.498962 92.492 -27.7383
105.256203 92.442 -28.0295
106.018929 92.399 -28.3031
106.787186 92.362 -28.5705
107.561012 92.331 -28.8435
108.340446 92.304 -29.1275
109.125526 92.282 -29.4306
109.916290 92.263 -29.7564
110.712791 92.247 -30.1104
111.515060 92.233 -30.4951
112.323143 92.219 -30.9170
113.137085 92.203 -31.3700
113.956924 92.183 -31.8533
114.782700 92.159 -32.3587
115.614464 92.131 -32.8772
116.452255 92.100 -33.4110
117.296112 92.067 -33.9597
118.146095 92.030 -34.5208
119.002228 91.988 -35.0929
119.864563 91.941 -35.6714
120.733154 91.891 -36.2513
121.608040 91.836 -36.8327
122.489258 91.778 -37.4147
123.376869 91.716 -37.9956
124.270905 91.650 -38.5733
125.171425 91.579 -39.1479
126.078468 91.506 -39.7202
126.992081 91.429 -40.2867
127.912323 91.346 -40.8453
128.839233 91.259 -41.3929
129.772842 91.169 -41.9256
130.713242 91.075 -42.4440
131.660431 90.978 -42.9473
132.614502 90.878 -43.4356
133.575485 90.776 -43.9089
134.543427 90.670 -44.3671
135.518387 90.562 -44.8092
136.500412 90.451 -45.2382
137.489548 90.341 -45.6561
138.485855 90.228 -46.0650
139.489380 90.112 -46.4701
140.500168 89.992 -46.8642
141.518295 89.867 -47.2425
142.543793 89.737 -47.6021
143.576721 89.605 -47.9392
144.617142 89.469 -48.2523
145.665100 89.328 -48.5403
146.720642 89.183 -48.7983
147.783844 89.035 -49.0197
148.854752 88.885 -49.2095
149.933411 88.737 -49.3711
151.019897 88.586 -49.5037
152.114243 88.432 -49.6081
153.216522 88.275 -49.6828
154.326797 88.119 -49.7272
155.445114 87.960 -49.7390
156.571533 87.799 -49.7185
157.706116 87.635 -49.6582
158.848923 87.468 -49.5489
160.000000 87.301 -49.3954
161.159424 87.138 -49.1988
162.327255 86.976 -48.9616
163.503540 86.813 -48.6868
164.688354 86.650 -48.3737
165.881760 86.492 -48.0215
167.083801 86.336 -47.6331
168.294571 86.182 -47.2118
169.514099 86.030 -46.7552
170.742462 85.880 -46.2616
171.979736 85.732 -45.7325
173.225967 85.589 -45.1690
174.481232 85.448 -44.5704
175.745605 85.311 -43.9352
177.019119 85.177 -43.2677
178.301880 85.051 -42.5695
179.593933 84.930 -41.8469
180.895340 84.816 -41.1057
182.206177 84.707 -40.3478
183.526520 84.604 -39.5756
184.856430 84.505 -38.7928
186.195984 84.413 -38.0058
187.545227 84.324 -37.2089
188.904266 84.237 -36.3976
190.273132 84.153 -35.5740
191.651932 84.077 -34.7384
193.040726 84.006 -33.8914
194.439575 83.937 -33.0354
195.848572 83.871 -32.1645
197.267761 83.811 -31.2696
198.697250 83.757 -30.3622
200.137085 83.714 -29.4480
201.587372 83.679 -28.5362
203.048157 83.651 -27.6376
204.519531 83.630 -26.7536
206.001556 83.615 -25.8874
207.494324 83.606 -25.0440
208.997925 83.603 -24.2307
210.512405 83.603 -23.4438
212.037857 83.604 -22.6858
213.574371 83.606 -21.9457
215.122025 83.607 -21.2130
216.680893 83.611 -20.4899
218.251053 83.620 -19.7731
219.832581 83.632 -19.0690
221.425583 83.649 -18.3837
223.030121 83.668 -17.7157
224.646286 83.688 -17.0633
226.274170 83.711 -16.4326
227.913849 83.741 -15.8281
229.565399 83.773 -15.2534
231.228928 83.804 -14.7191
232.904510 83.834 -14.2085
234.592224 83.858 -13.7079
236.292191 83.881 -13.2183
238.004456 83.909 -12.7348
239.729126 83.937 -12.2613
241.466309 83.963 -11.8030
243.216080 83.989 -11.3512
244.978516 84.014 -10.8952
246.753738 84.041 -10.4453
248.541809 84.075 -10.0080
250.342850 84.110 -9.5842
252.156937 84.142 -9.1784
253.984161 84.174 -8.7860
255.824646 84.209 -8.4015
257.678467 84.246 -8.0319
259.545685 84.284 -7.6838
261.426483 84.322 -7.3538
263.320862 84.358 -7.0410
265.229004 84.393 -6.7438
267.150970 84.429 -6.4609
269.086853 84.465 -6.1908
271.036774 84.498 -5.9316
273.000824 84.530 -5.6827
274.979095 84.562 -5.4425
276.971710 84.594 -5.2117
278.978760 84.625 -4.9926
281.000336 84.654 -4.7796
283.036591 84.680 -4.5664
285.087585 84.707 -4.3576
287.153442 84.737 -4.1550
289.234283 84.767 -3.9615
291.330200 84.795 -3.7831
293.441284 84.821 -3.6125
295.567688 84.845 -3.4424
297.709503 84.868 -3.2784
299.866821 84.894 -3.1237
302.039795 84.919 -2.9774
304.228485 84.940 -2.8435
306.433044 84.958 -2.7114
308.653595 84.972 -2.5718
310.890228 84.985 -2.4244
313.143066 84.999 -2.2644
315.412231 85.013 -2.0965
317.697845 85.028 -1.9232
320.000000 85.043 -1.7465
322.318848 85.060 -1.5681
324.654510 85.078 -1.3916
327.007080 85.098 -1.2200
329.376709 85.119 -1.0565
331.763519 85.141 -0.9060
334.167603 85.163 -0.7654
336.589142 85.182 -0.6352
339.028198 85.200 -0.5094
341.484924 85.216 -0.3805
343.959473 85.232 -0.2533
346.451935 85.250 -0.1305
348.962463 85.268 -0.0113
351.491211 85.284 0.1042
354.038239 85.299 0.2157
356.603760 85.315 0.3241
359.187866 85.331 0.4257
361.790680 85.346 0.5135
364.412354 85.359 0.5978
367.053040 85.366 0.6837
369.712860 85.370 0.7797
372.391968 85.373 0.8978
375.090454 85.376 1.0316
377.808533 85.381 1.1805
380.546265 85.389 1.3385
383.303864 85.399 1.5003
386.081451 85.411 1.6625
388.879150 85.426 1.8225
391.697144 85.443 1.9726
394.535522 85.463 2.1041
397.394501 85.484 2.2177
400.274170 85.503 2.3084
403.174744 85.520 2.3848
406.096313 85.533 2.4528
409.039062 85.544 2.5158
412.003113 85.552 2.5780
414.988647 85.558 2.6428
417.995850 85.561 2.7148
421.024811 85.563 2.7947
424.075714 85.564 2.8858
427.148743 85.565 2.9857
430.244049 85.565 3.0934
433.361786 85.565 3.2086
436.502106 85.565 3.3308
439.665161 85.565 3.4596
442.851166 85.565 3.5946
446.060242 85.565 3.7356
449.292572 85.565 3.8820
452.548340 85.565 4.0345
455.827698 85.565 4.1929
459.130798 85.565 4.3585
462.457855 85.565 4.5328
465.809021 85.565 4.7154
469.184448 85.566 4.9063
472.584381 85.568 5.1054
476.008911 85.570 5.3141
479.458252 85.575 5.5283
482.932617 85.584 5.7451
486.432159 85.594 5.9613
489.957031 85.604 6.1712
493.507477 85.615 6.3794
497.083618 85.626 6.5892
500.685699 85.638 6.7993
504.313873 85.652 7.0096
507.968323 85.666 7.2193
511.649292 85.681 7.4274
515.356934 85.696 7.6343
519.091370 85.713 7.8403
522.852966 85.731 8.0443
526.641724 85.749 8.2443
530.458008 85.768 8.4433
534.301941 85.786 8.6458
538.173706 85.806 8.8463
542.073547 85.829 9.0403
546.001648 85.854 9.2294
549.958191 85.876 9.4124
553.943420 85.899 9.5924
557.957520 85.924 9.7756
562.000671 85.951 9.9514
566.073181 85.981 10.1105
570.175171 86.012 10.2555
574.306885 86.040 10.3842
578.468567 86.066 10.5026
582.660400 86.092 10.6159
586.882568 86.116 10.7246
591.135376 86.139 10.8295
595.419006 86.160 10.9346
599.733643 86.179 11.0439
604.079590 86.198 11.1586
608.456970 86.217 11.2832
612.866089 86.237 11.4116
617.307190 86.259 11.5402
621.780457 86.283 11.6646
626.286133 86.308 11.7783
630.824463 86.332 11.8837
635.395691 86.354 11.9799
640.000000 86.375 12.0707
644.637695 86.394 12.1585
649.309021 86.412 12.2467
654.014160 86.428 12.3384
658.753418 86.442 12.4367
663.527039 86.454 12.5454
668.335205 86.466 12.6646
673.178284 86.478 12.7964
678.056396 86.490 12.9375
682.969849 86.503 13.0864
687.918945 86.517 13.2405
692.903870 86.533 13.3962
697.924927 86.548 13.5544
702.982422 86.562 13.7127
708.076477 86.574 13.8774
713.207520 86.585 14.0525
718.375732 86.594 14.2433
723.581360 86.602 14.4541
728.824707 86.609 14.6911
734.106079 86.616 14.9616
739.425720 86.624 15.2659
744.783936 86.636 15.6091
750.180908 86.654 15.9836
755.617065 86.679 16.3875
761.092529 86.712 16.8084
766.607727 86.756 17.2374
772.162903 86.810 17.6625
777.758301 86.874 18.0730
783.394287 86.947 18.4567
789.071045 87.030 18.8015
794.789001 87.121 19.0961
800.548340 87.218 19.3244
806.349487 87.319 19.4875
812.192627 87.418 19.5770
818.078125 87.515 19.6050
824.006226 87.605 19.5778
829.977295 87.691 19.5053
835.991699 87.770 19.3964
842.049622 87.843 19.2605
848.151428 87.909 19.1062
854.297485 87.968 18.9456
860.488098 88.019 18.7941
866.723572 88.067 18.6515
873.004211 88.114 18.5246
879.330322 88.161 18.4074
885.702332 88.206 18.2966
892.120483 88.252 18.1914
898.585144 88.297 18.0917
905.096680 88.344 17.9914
911.655396 88.393 17.8845
918.261597 88.442 17.7704
924.915710 88.489 17.6465
931.618042 88.536 17.5135
938.368896 88.583 17.3728
945.168762 88.631 17.2196
952.017822 88.678 17.0492
958.916504 88.725 16.8627
965.865234 88.769 16.6600
972.864319 88.811 16.4408
979.914062 88.851 16.2040
987.014954 88.889 15.9520
994.167236 88.921 15.6845
1001.371399 88.949 15.4080
1008.627747 88.972 15.1282
1015.936646 88.990 14.8472
1023.298584 89.003 14.5664
1030.713867 89.010 14.2939
1038.182739 89.010 14.0359
1045.705933 89.005 13.7990
1053.283447 88.995 13.5915
1060.916016 88.981 13.4147
1068.603882 88.964 13.2722
1076.347412 88.945 13.1654
1084.147095 88.923 13.0954
1092.003296 88.900 13.0670
1099.916382 88.875 13.0851
1107.886841 88.851 13.1496
1115.915039 88.829 13.2648
1124.001343 88.811 13.4233
1132.146362 88.798 13.6216
1140.350342 88.791 13.8531
1148.613770 88.790 14.1107
1156.937134 88.795 14.3918
1165.320801 88.806 14.6943
1173.765137 88.825 15.0086
1182.270752 88.853 15.3280
1190.838013 88.889 15.6417
1199.467285 88.933 15.9353
1208.159180 88.982 16.2139
1216.913940 89.032 16.4790
1225.732178 89.086 16.7271
1234.614380 89.148 16.9570
1243.560913 89.214 17.1643
1252.572266 89.281 17.3428
1261.648926 89.351 17.4964
1270.791382 89.423 17.6279
1280.000000 89.497 17.7346
1289.275391 89.573 17.8150
1298.618042 89.651 17.8688
1308.028320 89.727 17.8942
1317.506836 89.803 17.8950
1327.054077 89.878 17.8733
1336.670410 89.953 17.8332
1346.356567 90.024 17.7780
1356.112793 90.093 17.7123
1365.939697 90.161 17.6422
1375.837891 90.230 17.5653
1385.807739 90.299 17.4805
1395.849854 90.368 17.3894
1405.964844 90.435 17.2939
1416.152954 90.502 17.1914
1426.415039 90.571 17.0799
1436.751465 90.641 16.9595
1447.162720 90.707 16.8272
1457.649414 90.772 16.6896
1468.212158 90.836 16.5520
1478.851440 90.900 16.4145
1489.567871 90.963 16.2776
1500.361816 91.026 16.1445
1511.234131 91.088 16.0176
1522.185059 91.150 15.8995
1533.215454 91.212 15.7948
1544.325806 91.277 15.7004
1555.516602 91.345 15.6156
1566.788574 91.416 15.5383
1578.142090 91.490 15.4664
1589.578003 91.568 15.3993
1601.096680 91.651 15.3384
1612.698975 91.740 15.2763
1624.385254 91.837 15.2094
1636.156250 91.942 15.1264
1648.012451 92.055 15.0173
1659.954590 92.177 14.8736
1671.983398 92.305 14.6861
1684.099243 92.440 14.4471
1696.302856 92.581 14.1484
1708.594971 92.727 13.7828
1720.976196 92.878 13.3419
1733.447144 93.030 12.8215
1746.008423 93.183 12.2140
1758.660645 93.334 11.5200
1771.404663 93.483 10.7380
1784.240967 93.628 9.8668
1797.170288 93.768 8.9045
1810.193359 93.900 7.8514
1823.310791 94.024 6.7040
1836.523193 94.136 5.4711
1849.831421 94.233 4.1549
1863.236084 94.314 2.7704
1876.737793 94.376 1.3280
1890.337524 94.418 -0.1575
1904.035645 94.440 -1.6754
1917.833008 94.440 -3.2029
1931.730469 94.415 -4.7226
1945.728638 94.367 -6.2077
1959.828125 94.295 -7.6318
1974.029907 94.201 -8.9775
1988.334473 94.089 -10.2240
2002.742798 93.960 -11.3557
2017.255493 93.813 -12.3539
2031.873291 93.655 -13.2079
2046.597168 93.487 -13.9000
2061.427734 93.315 -14.4330
2076.365479 93.143 -14.8004
2091.411865 92.976 -15.0124
2106.566895 92.815 -15.0724
2121.832031 92.666 -14.9946
2137.207764 92.532 -14.7872
2152.694824 92.415 -14.4714
2168.294189 92.320 -14.0638
2184.006592 92.247 -13.5873
2199.832764 92.199 -13.0620
2215.773682 92.174 -12.5133
2231.830078 92.175 -11.9658
2248.002686 92.200 -11.4411
2264.292725 92.248 -10.9637
2280.700684 92.315 -10.5486
2297.227539 92.398 -10.2172
2313.874268 92.496 -9.9748
2330.641602 92.603 -9.8339
2347.530273 92.718 -9.7949
2364.541504 92.838 -9.8650
2381.676025 92.959 -10.0370
2398.934570 93.079 -10.3110
2416.318359 93.194 -10.6732
2433.827881 93.305 -11.1123
2451.464355 93.410 -11.6207
2469.228760 93.510 -12.1905
2487.121826 93.604 -12.8122
2505.144531 93.689 -13.4748
2523.297852 93.770 -14.1757
2541.582764 93.847 -14.9103
2560.000000 93.919 -15.6746
2578.550781 93.983 -16.4655
2597.236084 94.041 -17.2762
2616.056641 94.094 -18.0972
2635.013672 94.144 -18.9334
2654.108154 94.192 -19.7870
2673.340820 94.238 -20.6572
2692.713135 94.278 -21.5434
2712.225586 94.315 -22.4477
2731.879395 94.352 -23.3688
2751.675781 94.387 -24.3165
2771.615479 94.420 -25.3018
2791.699707 94.449 -26.3204
2811.929688 94.470 -27.3729
2832.305908 94.485 -28.4558
2852.830078 94.494 -29.5669
2873.502930 94.496 -30.7030
2894.325439 94.488 -31.8623
2915.298828 94.471 -33.0396
2936.424316 94.445 -34.2293
2957.702881 94.410 -35.4307
2979.135742 94.365 -36.6428
3000.723633 94.309 -37.8607
3022.468262 94.241 -39.0857
3044.370117 94.157 -40.2974
3066.430908 94.055 -41.4910
3088.651611 93.933 -42.6231
3111.033203 93.785 -43.6620
3133.577148 93.618 -44.5671
3156.284180 93.432 -45.2937
3179.156006 93.237 -45.8220
3202.193359 93.036 -46.1100
3225.397949 92.844 -46.1792
3248.770508 92.675 -46.0182
3272.312500 92.539 -45.6848
3296.024902 92.445 -45.1999
3319.909180 92.404 -44.6635
3343.966797 92.436 -44.1456
3368.198486 92.525 -43.7584
3392.605713 92.673 -43.6260
3417.189941 92.853 -43.7835
3441.952393 93.045 -44.3099
3466.894287 93.238 -45.1962
3492.016846 93.421 -46.4728
3517.321289 93.578 -48.0987
3542.809326 93.693 -50.0794
3568.481934 93.755 -52.3053
3594.340576 93.748 -54.6991
3620.386719 93.679 -57.1672
3646.621582 93.553 -59.6094
3673.046387 93.370 -61.9681
3699.662842 93.130 -64.1642
3726.472168 92.843 -66.1633
3753.475586 92.518 -67.9057
3780.675049 92.160 -69.3880
3808.071289 91.776 -70.5835
3835.666016 91.374 -71.5023
3863.460938 90.964 -72.1435
3891.457275 90.548 -72.5129
3919.656250 90.127 -72.6156
3948.059814 89.707 -72.4534
3976.668945 89.295 -72.0262
4005.485596 88.892 -71.3449
4034.510986 88.501 -70.4212
4063.746582 88.126 -69.2522
4093.194336 87.766 -67.8381
4122.855469 87.429 -66.1807
4152.730957 87.118 -64.2721
4182.823730 86.845 -62.1406
4213.133789 86.622 -59.7963
4243.664062 86.452 -57.2852
4274.415527 86.340 -54.6309
4305.389648 86.299 -51.9123
4336.588379 86.347 -49.1933
4368.013184 86.469 -46.5443
4399.665527 86.655 -44.0300
4431.547363 86.909 -41.7316
4463.660156 87.242 -39.7319
4496.005371 87.621 -38.0912
4528.585449 88.021 -36.9083
4561.401367 88.429 -36.1506
4594.455078 88.824 -35.8313
4627.748535 89.202 -35.9097
4661.283203 89.557 -36.3717
4695.060547 89.877 -37.1495
4729.083008 90.145 -38.2018
4763.352051 90.369 -39.4338
4797.869141 90.545 -40.7500
4832.636719 90.683 -42.1111
4867.655762 90.793 -43.4536
4902.928711 90.875 -44.7558
4938.457520 90.929 -45.9752
4974.243652 90.967 -47.1108
5010.289062 91.002 -48.1381
5046.595703 91.034 -49.0864
5083.165527 91.067 -49.9727
5120.000000 91.103 -50.8110
5157.101562 91.143 -51.6165
5194.472168 91.188 -52.4022
5232.113281 91.239 -53.1804
5270.027344 91.298 -53.9680
5308.216309 91.364 -54.7824
5346.681641 91.438 -55.6347
5385.426270 91.516 -56.5368
5424.451172 91.601 -57.5031
5463.758789 91.691 -58.5443
5503.351562 91.785 -59.6832
5543.230957 91.884 -60.9448
5583.399414 91.980 -62.3329
5623.859375 92.065 -63.8641
5664.611816 92.137 -65.5236
5705.660156 92.191 -67.3078
5747.005859 92.225 -69.1980
5788.650879 92.234 -71.1858
5830.597656 92.216 -73.2353
5872.848633 92.165 -75.3211
5915.405762 92.083 -77.4033
5958.271484 91.967 -79.4411
6001.447266 91.822 -81.4121
6044.936523 91.652 -83.2872
6088.740234 91.457 -85.0455
6132.861816 91.236 -86.6615
6177.303223 90.996 -88.1191
6222.066406 90.742 -89.3965
6267.154297 90.476 -90.4860
6312.568359 90.202 -91.3735
6358.312012 89.926 -92.0571
6404.386719 89.653 -92.5217
6450.795898 89.391 -92.7931
6497.541016 89.150 -92.8782
6544.625000 88.934 -92.8186
6592.049805 88.748 -92.6454
6639.818359 88.594 -92.3984
6687.933594 88.476 -92.1123
6736.396973 88.395 -91.8333
6785.211426 88.354 -91.6084
6834.379883 88.346 -91.4704
6883.904785 88.366 -91.4636
6933.788574 88.409 -91.6009
6984.033691 88.470 -91.9051
7034.642578 88.547 -92.3901
7085.618652 88.635 -93.0734
7136.963867 88.730 -93.9670
7188.681152 88.826 -95.0870
7240.773438 88.919 -96.4376
7293.243164 89.003 -98.0300
7346.092773 89.073 -99.8592
7399.325684 89.123 -101.9305
7452.944336 89.146 -104.2249
7506.951172 89.136 -106.7406
7561.350098 89.087 -109.4317
7616.142578 88.990 -112.2601
7671.332031 88.847 -115.1996
7726.921875 88.665 -118.2326
7782.914551 88.428 -121.2952
7839.312500 88.122 -124.3430
7896.119629 87.756 -127.3027
7953.337891 87.337 -130.0981
8010.971191 86.863 -132.6929
8069.021973 86.333 -135.0595
8127.493164 85.744 -137.0972
8186.388672 85.081 -138.7027
8245.710938 84.371 -139.8552
8305.461914 83.635 -140.4924
8365.647461 82.875 -140.6375
8426.267578 82.097 -140.3077
8487.328125 81.304 -139.4609
8548.831055 80.486 -138.0365
8610.779297 79.689 -136.1065
8673.176758 78.968 -133.6999
8736.026367 78.296 -130.8882
8799.331055 77.653 -127.7469
8863.094727 77.066 -124.2940
8927.320312 76.553 -120.5507
8992.010742 76.115 -116.5815
9057.170898 75.759 -112.4510
9122.802734 75.478 -108.1819
9188.910156 75.263 -103.8107
9255.497070 75.127 -99.3592
9322.566406 75.082 -94.8546
9390.121094 75.127 -90.3180
9458.166016 75.252 -85.7439
9526.704102 75.492 -81.2395
9595.738281 75.891 -76.8498
9665.273438 76.417 -72.7576
9735.311523 77.062 -69.1276
9805.857422 77.794 -66.0609
9876.915039 78.585 -63.6872
9948.487305 79.406 -62.0834
10020.578125 80.227 -61.3729
10093.191406 81.019 -61.5456
10166.331055 81.745 -62.6803
10240.000000 82.398 -64.6327
10314.203125 82.958 -67.3342
10388.944336 83.425 -70.6321
10464.226562 83.790 -74.3936
10540.054688 84.056 -78.4869
10616.432617 84.219 -82.7816
10693.363281 84.281 -87.1431
10770.852539 84.239 -91.4268
10848.902344 84.104 -95.5364
10927.517578 83.879 -99.3452
11006.703125 83.578 -102.8024
11086.461914 83.211 -105.8221
11166.798828 82.786 -108.3831
11247.718750 82.310 -110.4288
11329.223633 81.804 -111.9803
11411.320312 81.286 -113.0164
11494.011719 80.774 -113.6099
11577.301758 80.289 -113.8019
11661.195312 79.833 -113.6675
11745.697266 79.417 -113.2763
11830.811523 79.041 -112.6866
11916.542969 78.715 -111.9725
12002.894531 78.428 -111.1568
12089.873047 78.169 -110.2770
12177.480469 77.945 -109.3613
12265.723633 77.763 -108.4418
12354.606445 77.612 -107.5438
12444.132812 77.480 -106.7015
12534.308594 77.371 -105.9200
12625.136719 77.282 -105.2108
12716.624023 77.210 -104.5880
12808.773438 77.151 -104.0687
12901.591797 77.101 -103.6560
12995.082031 77.056 -103.3628
13089.250000 77.010 -103.1767
13184.099609 76.957 -103.0968
13279.636719 76.896 -103.1008
13375.867188 76.824 -103.1711
13472.793945 76.739 -103.2922
13570.422852 76.639 -103.4501
13668.759766 76.524 -103.6230
13767.809570 76.391 -103.7906
13867.577148 76.241 -103.9333
13968.067383 76.077 -104.0423
14069.285156 75.893 -104.0652
14171.237305 75.678 -103.9655
14273.927734 75.444 -103.6860
14377.362305 75.196 -103.1502
14481.546875 74.948 -102.3796
14586.486328 74.717 -101.3532
14692.185547 74.510 -100.1247
14798.651367 74.335 -98.7134
14905.888672 74.204 -97.2029
15013.902344 74.132 -95.6499
15122.700195 74.112 -94.1552
15232.285156 74.150 -92.8298
15342.664062 74.221 -91.7012
15453.843750 74.302 -90.8491
15565.829102 74.384 -90.2258
15678.625000 74.449 -89.8405
15792.239258 74.490 -89.5990
15906.675781 74.489 -89.4394
16021.942383 74.456 -89.2721
16138.043945 74.391 -88.9995
16254.986328 74.306 -88.5829
16372.777344 74.207 -87.9473
16491.421875 74.112 -87.1043
16610.923828 74.037 -86.0196
16731.294922 73.993 -84.7578
16852.535156 74.001 -83.3492
16974.656250 74.060 -81.8641
17097.662109 74.178 -80.3508
17221.558594 74.361 -78.9064
17346.353516 74.624 -77.6088
17472.052734 74.949 -76.5654
17598.662109 75.326 -75.8937
17726.189453 75.736 -75.6421
17854.640625 76.159 -75.8963
17984.021484 76.577 -76.6593
18114.341797 76.969 -77.9801
18245.605469 77.317 -79.8043
18377.820312 77.603 -82.1442
18510.994141 77.813 -84.8475
18645.132812 77.924 -87.8206
18780.242188 77.945 -90.8963
18916.332031 77.874 -93.9151
19053.408203 77.718 -96.7586
19191.476562 77.479 -99.2708
19330.546875 77.179 -101.4066
19470.623047 76.833 -103.0521
19611.714844 76.464 -104.2604
19753.830078 76.094 -105.0161
19896.974609 75.738 -105.4126
