* Measurement data measured by REW V5.20.13
* Source: C:\Users\kurin\Desktop\Targets and Curves\Resolve\Img\Files\stincoo_SPL.txt
* Format: Comma/Tab/Space delimited data
* Dated: Aug 14, 2023 6:58:41 PM
* REW Settings:
*  C-weighting compensation: Off
*  Target level: 75.0 dB
* Note: ; Measurement imported from C:\Users\kurin\Desktop\Targets and Curves\Resolve\Img\Files\stincoo_SPL.txt Format: Comma/Tab/Space delimited data 623 values loaded, 5 Hz to 39,792 Hz log spaced 
* Measurement: stincoo_SPL
* Smoothing: 1/48 octave
* Frequency Step: 1/96 octave
* Start Frequency: 5.000 Hz
*
* Freq(Hz) SPL(dB) Phase(degrees)
5.000000 71.165 85.9870
5.036232 71.194 85.9630
5.072727 71.225 85.9370
5.109486 71.262 85.9061
5.146511 71.304 85.8710
5.183805 71.354 85.8304
5.221369 71.409 85.7870
5.259205 71.466 85.7438
5.297316 71.525 85.6990
5.335702 71.588 85.6509
5.374367 71.653 85.6020
5.413311 71.717 85.5545
5.452538 71.781 85.5070
5.492050 71.845 85.4586
5.531847 71.909 85.4100
5.571934 71.973 85.3616
5.612310 72.037 85.3130
5.652979 72.101 85.2637
5.693943 72.165 85.2140
5.735204 72.229 85.1641
5.776763 72.293 85.1140
5.818624 72.357 85.0637
5.860788 72.421 85.0130
5.903258 72.485 84.9617
5.946035 72.549 84.9100
5.989123 72.613 84.8581
6.032523 72.678 84.8060
6.076237 72.742 84.7537
6.120268 72.806 84.7010
6.164618 72.870 84.6477
6.209289 72.934 84.5940
6.254284 72.998 84.5402
6.299605 73.062 84.4860
6.345255 73.126 84.4313
6.391235 73.190 84.3760
6.437549 73.254 84.3201
6.484198 73.318 84.2640
6.531185 73.382 84.2082
6.578513 73.446 84.1520
6.626183 73.510 84.0948
6.674199 73.574 84.0370
6.722563 73.638 83.9792
6.771278 73.703 83.9210
6.820345 73.767 83.8622
6.869768 73.831 83.8030
6.919549 73.895 83.7438
6.969691 73.959 83.6840
7.020196 74.023 83.6233
7.071068 74.087 83.5620
7.122308 74.151 83.5006
7.173919 74.215 83.4390
7.225904 74.279 83.3773
7.278266 74.343 83.3150
7.331007 74.407 83.2518
7.384131 74.471 83.1880
7.437639 74.535 83.1242
7.491535 74.599 83.0600
7.545822 74.663 82.9953
7.600502 74.727 82.9300
7.655579 74.791 82.8643
7.711054 74.856 82.7980
7.766932 74.920 82.7313
7.823214 74.984 82.6640
7.879904 75.048 82.5963
7.937005 75.112 82.5280
7.994520 75.176 82.4593
8.052452 75.240 82.3900
8.110803 75.304 82.3203
8.169578 75.368 82.2500
8.228777 75.432 82.1793
8.288406 75.496 82.1080
8.348468 75.560 82.0358
8.408964 75.624 81.9630
8.469899 75.688 81.8902
8.531276 75.752 81.8170
8.593097 75.816 81.7433
8.655366 75.881 81.6690
8.718086 75.945 81.5938
8.781260 76.009 81.5180
8.844893 76.073 81.4418
8.908987 76.137 81.3650
8.973545 76.201 81.2878
9.038571 76.265 81.2100
9.104069 76.329 81.1313
9.170040 76.393 81.0520
9.236490 76.457 80.9723
9.303422 76.521 80.8920
9.370838 76.585 80.8113
9.438744 76.649 80.7300
9.507140 76.713 80.6484
9.576033 76.777 80.5660
9.645425 76.841 80.4824
9.715320 76.905 80.3980
9.785721 76.969 80.3138
9.856632 77.034 80.2290
9.928058 77.098 80.1434
10.000000 77.162 80.0570
10.072464 77.226 79.9700
10.145453 77.290 79.8821
10.218971 77.354 79.7934
10.293022 77.418 79.7040
10.367610 77.482 79.6143
10.442738 77.546 79.5240
10.518411 77.610 79.4328
10.594631 77.674 79.3410
10.671404 77.738 79.2489
10.748734 77.802 79.1560
10.826623 77.866 79.0619
10.905077 77.930 78.9671
10.984100 77.994 78.8719
11.063695 78.058 78.7761
11.143867 78.122 78.6795
11.224621 78.187 78.5820
11.305959 78.251 78.4834
11.387886 78.315 78.3841
11.470407 78.379 78.2844
11.553527 78.443 78.1840
11.637249 78.507 78.0830
11.721577 78.571 77.9811
11.806517 78.635 77.8780
11.892071 78.699 77.7741
11.978246 78.763 77.6694
12.065045 78.827 77.5640
12.152473 78.891 77.4579
12.240536 78.955 77.3510
12.329235 79.019 77.2434
12.418578 79.083 77.1351
12.508568 79.147 77.0260
12.599211 79.212 76.9161
12.690510 79.276 76.8051
12.782471 79.340 76.6931
12.875097 79.404 76.5800
12.968395 79.468 76.4661
13.062370 79.532 76.3515
13.157025 79.596 76.2360
13.252366 79.660 76.1195
13.348398 79.724 76.0021
13.445127 79.788 75.8841
13.542556 79.852 75.7651
13.640691 79.916 75.6451
13.739536 79.980 75.5240
13.839099 80.044 75.4020
13.939383 80.108 75.2791
14.040393 80.172 75.1556
14.142136 80.236 75.0310
14.244616 80.300 74.9050
14.347837 80.365 74.7781
14.451808 80.429 74.6506
14.556532 80.493 74.5221
14.662014 80.557 74.3922
14.768262 80.621 74.2611
14.875278 80.685 74.1292
14.983070 80.749 73.9961
15.091644 80.813 73.8621
15.201005 80.877 73.7271
15.311157 80.941 73.5912
15.422109 81.005 73.4541
15.533863 81.069 73.3157
15.646428 81.133 73.1761
15.759809 81.197 73.0356
15.874010 81.261 72.8941
15.989040 81.325 72.7517
16.104904 81.389 72.6081
16.221605 81.453 72.4632
16.339155 81.518 72.3172
16.457554 81.582 72.1702
16.576813 81.646 72.0221
16.696936 81.710 71.8727
16.817928 81.774 71.7221
16.939798 81.838 71.5706
17.062551 81.902 71.4182
17.186193 81.966 71.2647
17.310732 82.030 71.1101
17.436172 82.094 70.9541
17.562521 82.158 70.7971
17.689787 82.222 70.6396
17.817974 82.286 70.4812
17.947090 82.350 70.3216
18.077143 82.414 70.1611
18.208138 82.478 69.9994
18.340080 82.543 69.8372
18.472980 82.607 69.6748
18.606844 82.671 69.5121
18.741676 82.735 69.3488
18.877487 82.799 69.1862
19.014280 82.863 69.0256
19.152065 82.927 68.8662
19.290850 82.992 68.7072
19.430639 83.058 68.5491
19.571442 83.124 68.3933
19.713264 83.191 68.2362
19.856115 83.261 68.0757
20.000000 83.332 67.9092
20.144928 83.404 67.7318
20.290907 83.476 67.5472
20.437943 83.546 67.3590
20.586044 83.618 67.1621
20.735220 83.694 66.9524
20.885475 83.770 66.7303
21.036821 83.842 66.4923
21.189262 83.912 66.2453
21.342808 83.982 65.9979
21.497467 84.052 65.7413
21.653246 84.125 65.4671
21.810154 84.196 65.1824
21.968201 84.258 64.8889
22.127390 84.318 64.5943
22.287735 84.379 64.3079
22.449242 84.438 64.0262
22.611917 84.494 63.7455
22.775772 84.548 63.4763
22.940815 84.597 63.2286
23.107054 84.647 63.0003
23.274498 84.700 62.7943
23.443153 84.756 62.6053
23.613033 84.812 62.4308
23.784142 84.873 62.2641
23.956491 84.941 62.1025
24.130091 85.015 61.9312
24.304947 85.093 61.7336
24.481071 85.174 61.5133
24.658470 85.253 61.2698
24.837156 85.333 60.9994
25.017136 85.417 60.6973
25.198421 85.500 60.3664
25.381020 85.576 60.0032
25.564941 85.648 59.6214
25.750195 85.716 59.2322
25.936790 85.780 58.8395
26.124741 85.840 58.4495
26.314051 85.898 58.0655
26.504732 85.953 57.6925
26.696796 86.007 57.3314
26.890253 86.060 56.9870
27.085112 86.114 56.6534
27.281382 86.171 56.3290
27.479073 86.230 56.0064
27.678198 86.292 55.6797
27.878765 86.356 55.3425
28.080786 86.422 54.9860
28.284271 86.488 54.6115
28.489231 86.553 54.2152
28.695675 86.615 53.8036
28.903616 86.673 53.3799
29.113064 86.729 52.9506
29.324028 86.781 52.5236
29.536524 86.832 52.0985
29.750557 86.883 51.6773
29.966141 86.932 51.2615
30.183289 86.979 50.8549
30.402010 87.026 50.4515
30.622314 87.078 50.0495
30.844217 87.132 49.6395
31.067726 87.185 49.2074
31.292856 87.237 48.7647
31.519617 87.283 48.3171
31.748020 87.327 47.8676
31.978081 87.372 47.4221
32.209808 87.416 46.9776
32.443211 87.459 46.5308
32.678310 87.501 46.0876
32.915108 87.541 45.6572
33.153625 87.583 45.2255
33.393871 87.633 44.7856
33.635857 87.685 44.3257
33.879597 87.736 43.8289
34.125103 87.786 43.3037
34.372387 87.830 42.7526
34.621464 87.871 42.1779
34.872345 87.909 41.5805
35.125042 87.940 40.9678
35.379574 87.961 40.3413
35.635948 87.974 39.7197
35.894180 87.977 39.1192
36.154285 87.973 38.5488
36.416275 87.962 38.0227
36.680161 87.947 37.5427
36.945961 87.931 37.1165
37.213688 87.914 36.7405
37.483353 87.898 36.4161
37.754974 87.885 36.1364
38.028561 87.878 35.8991
38.304131 87.876 35.6923
38.581699 87.882 35.5061
38.861279 87.895 35.3323
39.142883 87.914 35.1606
39.426529 87.939 34.9872
39.712231 87.970 34.8079
40.000000 88.006 34.6133
40.289856 88.049 34.3923
40.581814 88.095 34.1464
40.875885 88.141 33.8717
41.172089 88.188 33.5725
41.470440 88.237 33.2533
41.770950 88.288 32.9096
42.073643 88.340 32.5414
42.378525 88.394 32.1396
42.685616 88.451 31.6929
42.994934 88.507 31.2077
43.306492 88.554 30.6812
43.620308 88.596 30.1308
43.936401 88.631 29.5741
44.254780 88.662 29.0079
44.575470 88.692 28.4337
44.898483 88.719 27.8549
45.223835 88.738 27.2703
45.551544 88.753 26.6948
45.881630 88.763 26.1488
46.214108 88.773 25.6158
46.548996 88.792 25.0918
46.886307 88.813 24.5599
47.226067 88.835 23.9997
47.568283 88.855 23.4180
47.912983 88.872 22.8130
48.260181 88.886 22.1890
48.609894 88.896 21.5476
48.962143 88.902 20.8960
49.316940 88.901 20.2384
49.674313 88.895 19.5850
50.034271 88.883 18.9477
50.396843 88.868 18.3249
50.762039 88.853 17.7218
51.129883 88.838 17.1310
51.500389 88.824 16.5510
51.873581 88.811 15.9700
52.249481 88.803 15.3789
52.628101 88.796 14.7680
53.009464 88.790 14.1264
53.393593 88.783 13.4492
53.780506 88.775 12.7258
54.170223 88.762 11.9633
54.562763 88.739 11.1620
54.958145 88.708 10.3313
55.356396 88.669 9.4781
55.757530 88.620 8.6104
56.161572 88.559 7.7362
56.568542 88.486 6.8624
56.978462 88.403 5.9989
57.391350 88.310 5.1456
57.807232 88.207 4.3026
58.226128 88.092 3.4784
58.648056 87.964 2.6754
59.073048 87.821 1.9122
59.501114 87.661 1.2032
59.932281 87.486 0.5641
60.366577 87.298 0.0083
60.804020 87.095 -0.4433
61.244629 86.874 -0.7711
61.688435 86.641 -0.9578
62.135452 86.400 -0.9805
62.585712 86.154 -0.8374
63.039234 85.907 -0.5179
63.496040 85.662 -0.0250
63.956161 85.425 0.6462
64.419617 85.199 1.4824
64.886421 84.989 2.4801
65.356621 84.799 3.6149
65.830215 84.634 4.8676
66.307251 84.494 6.2193
66.787743 84.379 7.6515
67.271713 84.292 9.1422
67.759193 84.238 10.6736
68.250206 84.214 12.2142
68.744774 84.223 13.7340
69.242928 84.261 15.2103
69.744690 84.326 16.6140
70.250084 84.414 17.9346
70.759148 84.521 19.1539
71.271896 84.646 20.2660
71.788361 84.783 21.2602
72.308571 84.932 22.1325
72.832550 85.088 22.8734
73.360321 85.248 23.4880
73.891922 85.408 23.9711
74.427376 85.566 24.3444
74.966705 85.715 24.6249
75.509949 85.860 24.8217
76.057121 86.002 24.9495
76.608261 86.140 25.0089
77.163399 86.272 25.0010
77.722557 86.398 24.9392
78.285767 86.515 24.8359
78.853058 86.627 24.6953
79.424461 86.735 24.5288
80.000000 86.841 24.3274
80.579712 86.945 24.0831
81.163628 87.043 23.8046
81.751770 87.130 23.4943
82.344177 87.211 23.1627
82.940880 87.287 22.8214
83.541901 87.357 22.4687
84.147285 87.422 22.1047
84.757050 87.482 21.7357
85.371231 87.535 21.3667
85.989868 87.583 21.0027
86.612984 87.627 20.6530
87.240616 87.669 20.3107
87.872803 87.712 19.9740
88.509560 87.753 19.6377
89.150940 87.792 19.2957
89.796967 87.829 18.9477
90.447670 87.865 18.5896
91.103088 87.898 18.2268
91.763260 87.924 17.8616
92.428215 87.946 17.4987
93.097992 87.965 17.1424
93.772614 87.981 16.7957
94.452133 87.992 16.4614
95.136566 87.999 16.1446
95.825966 88.003 15.8518
96.520363 88.006 15.5826
97.219788 88.007 15.3391
97.924286 88.008 15.1204
98.633881 88.009 14.9269
99.348625 88.011 14.7573
100.068542 88.014 14.6122
100.793686 88.020 14.4873
101.524078 88.029 14.3808
102.259766 88.042 14.2852
103.000778 88.060 14.1941
103.747162 88.082 14.1032
104.498962 88.107 14.0072
105.256203 88.135 13.9022
106.018929 88.167 13.7829
106.787186 88.201 13.6473
107.561012 88.236 13.4892
108.340446 88.271 13.3163
109.125526 88.304 13.1336
109.916290 88.336 12.9434
110.712791 88.370 12.7521
111.515060 88.405 12.5514
112.323143 88.444 12.3364
113.137085 88.484 12.1025
113.956924 88.525 11.8435
114.782700 88.566 11.5598
115.614464 88.606 11.2497
116.452255 88.644 10.9137
117.296112 88.680 10.5493
118.146095 88.713 10.1628
119.002228 88.739 9.7555
119.864563 88.759 9.3401
120.733154 88.772 8.9286
121.608040 88.780 8.5259
122.489258 88.785 8.1415
123.376869 88.788 7.7729
124.270905 88.789 7.4211
125.171425 88.789 7.0846
126.078468 88.789 6.7633
126.992081 88.789 6.4537
127.912323 88.789 6.1526
128.839233 88.789 5.8596
129.772842 88.789 5.5731
130.713242 88.789 5.2936
131.660431 88.789 5.0208
132.614502 88.789 4.7547
133.575485 88.789 4.4949
134.543427 88.789 4.2425
135.518387 88.790 3.9991
136.500412 88.791 3.7634
137.489548 88.793 3.5359
138.485855 88.798 3.3136
139.489380 88.805 3.0960
140.500168 88.816 2.8755
141.518295 88.830 2.6458
142.543793 88.847 2.4026
143.576721 88.865 2.1394
144.617142 88.884 1.8567
145.665100 88.903 1.5525
146.720642 88.921 1.2279
147.783844 88.939 0.8818
148.854752 88.954 0.5190
149.933411 88.966 0.1414
151.019897 88.974 -0.2440
152.114243 88.979 -0.6298
153.216522 88.982 -1.0159
154.326797 88.983 -1.3989
155.445114 88.984 -1.7811
156.571533 88.984 -2.1624
157.706116 88.984 -2.5461
158.848923 88.984 -2.9347
160.000000 88.984 -3.3300
161.159424 88.983 -3.7350
162.327255 88.980 -4.1491
163.503540 88.976 -4.5743
164.688354 88.969 -5.0061
165.881760 88.958 -5.4428
167.083801 88.943 -5.8779
168.294571 88.926 -6.3035
169.514099 88.906 -6.7220
170.742462 88.886 -7.1331
171.979736 88.864 -7.5369
173.225967 88.840 -7.9347
174.481232 88.815 -8.3231
175.745605 88.789 -8.6979
177.019119 88.762 -9.0631
178.301880 88.738 -9.4196
179.593933 88.714 -9.7731
180.895340 88.691 -10.1297
182.206177 88.669 -10.4891
183.526520 88.647 -10.8528
184.856430 88.624 -11.2212
186.195984 88.602 -11.5942
187.545227 88.579 -11.9741
188.904266 88.556 -12.3626
190.273132 88.533 -12.7610
191.651932 88.509 -13.1714
193.040726 88.484 -13.5938
194.439575 88.457 -14.0304
195.848572 88.428 -14.4767
197.267761 88.394 -14.9283
198.697250 88.358 -15.3879
200.137085 88.323 -15.8569
201.587372 88.284 -16.3349
203.048157 88.240 -16.8247
204.519531 88.191 -17.3175
206.001556 88.137 -17.8061
207.494324 88.078 -18.2888
208.997925 88.016 -18.7623
210.512405 87.949 -19.2249
212.037857 87.878 -19.6747
213.574371 87.803 -20.1090
215.122025 87.725 -20.5255
216.680893 87.642 -20.9210
218.251053 87.556 -21.2914
219.832581 87.467 -21.6370
221.425583 87.378 -21.9564
223.030121 87.288 -22.2513
224.646286 87.196 -22.5232
226.274170 87.103 -22.7714
227.913849 87.009 -22.9928
229.565399 86.916 -23.1955
231.228928 86.826 -23.3860
232.904510 86.737 -23.5665
234.592224 86.646 -23.7436
236.292191 86.554 -23.9106
238.004456 86.460 -24.0619
239.729126 86.365 -24.2006
241.466309 86.271 -24.3295
243.216080 86.174 -24.4437
244.978516 86.073 -24.5419
246.753738 85.968 -24.6158
248.541809 85.862 -24.6531
250.342850 85.756 -24.6640
252.156937 85.656 -24.6532
253.984161 85.557 -24.6261
255.824646 85.457 -24.5929
257.678467 85.355 -24.5431
259.545685 85.251 -24.4680
261.426483 85.146 -24.3723
263.320862 85.046 -24.2589
265.229004 84.946 -24.1254
267.150970 84.841 -23.9733
269.086853 84.735 -23.7936
271.036774 84.629 -23.5755
273.000824 84.525 -23.3248
274.979095 84.425 -23.0415
276.971710 84.328 -22.7320
278.978760 84.235 -22.3999
281.000336 84.145 -22.0530
283.036591 84.062 -21.6996
285.087585 83.982 -21.3411
287.153442 83.903 -20.9824
289.234283 83.825 -20.6210
291.330200 83.750 -20.2582
293.441284 83.675 -19.8870
295.567688 83.597 -19.5019
297.709503 83.519 -19.0991
299.866821 83.443 -18.6725
302.039795 83.368 -18.2234
304.228485 83.295 -17.7501
306.433044 83.225 -17.2544
308.653595 83.159 -16.7342
310.890228 83.098 -16.1995
313.143066 83.046 -15.6584
315.412231 82.998 -15.1155
317.697845 82.953 -14.5787
320.000000 82.911 -14.0456
322.318848 82.873 -13.5148
324.654510 82.839 -12.9916
327.007080 82.809 -12.4826
329.376709 82.781 -11.9835
331.763519 82.751 -11.4938
334.167603 82.721 -11.0095
336.589142 82.694 -10.5252
339.028198 82.669 -10.0444
341.484924 82.644 -9.5701
343.959473 82.620 -9.0993
346.451935 82.596 -8.6324
348.962463 82.571 -8.1623
351.491211 82.544 -7.6831
354.038239 82.517 -7.1915
356.603760 82.491 -6.6807
359.187866 82.467 -6.1546
361.790680 82.447 -5.6151
364.412354 82.429 -5.0616
367.053040 82.413 -4.4919
369.712860 82.402 -3.9128
372.391968 82.399 -3.3257
375.090454 82.402 -2.7457
377.808533 82.413 -2.1883
380.546265 82.429 -1.6536
383.303864 82.445 -1.1477
386.081451 82.462 -0.6664
388.879150 82.480 -0.2086
391.697144 82.498 0.2297
394.535522 82.514 0.6491
397.394501 82.529 1.0608
400.274170 82.539 1.4770
403.174744 82.550 1.8957
406.096313 82.564 2.3215
409.039062 82.581 2.7467
412.003113 82.599 3.1642
414.988647 82.619 3.5757
417.995850 82.640 3.9814
421.024811 82.662 4.3788
424.075714 82.686 4.7663
427.148743 82.711 5.1408
430.244049 82.738 5.4979
433.361786 82.765 5.8399
436.502106 82.790 6.1662
439.665161 82.813 6.4820
442.851166 82.835 6.7925
446.060242 82.855 7.0981
449.292572 82.874 7.3991
452.548340 82.891 7.7001
455.827698 82.905 8.0025
459.130798 82.916 8.3160
462.457855 82.923 8.6489
465.809021 82.928 9.0058
469.184448 82.933 9.3942
472.584381 82.940 9.8136
476.008911 82.949 10.2687
479.458252 82.962 10.7524
482.932617 82.982 11.2615
486.432159 83.009 11.7903
489.957031 83.041 12.3363
493.507477 83.082 12.8863
497.083618 83.136 13.4325
500.685699 83.201 13.9553
504.313873 83.275 14.4326
507.968323 83.356 14.8637
511.649292 83.439 15.2418
515.356934 83.525 15.5630
519.091370 83.615 15.8198
522.852966 83.705 16.0164
526.641724 83.788 16.1467
530.458008 83.864 16.2348
534.301941 83.929 16.3008
538.173706 83.989 16.3508
542.073547 84.047 16.3977
546.001648 84.101 16.4409
549.958191 84.150 16.4827
553.943420 84.196 16.5268
557.957520 84.240 16.5790
562.000671 84.284 16.6348
566.073181 84.328 16.6926
570.175171 84.371 16.7498
574.306885 84.413 16.8028
578.468567 84.453 16.8538
582.660400 84.492 16.9017
586.882568 84.529 16.9528
591.135376 84.562 17.0127
595.419006 84.594 17.0827
599.733643 84.627 17.1684
604.079590 84.661 17.2627
608.456970 84.698 17.3619
612.866089 84.737 17.4617
617.307190 84.777 17.5572
621.780457 84.818 17.6457
626.286133 84.861 17.7223
630.824463 84.905 17.7888
635.395691 84.946 17.8453
640.000000 84.987 17.8929
644.637695 85.028 17.9328
649.309021 85.069 17.9639
654.014160 85.108 17.9816
658.753418 85.145 17.9969
663.527039 85.175 18.0198
668.335205 85.205 18.0489
673.178284 85.238 18.0890
678.056396 85.273 18.1309
682.969849 85.307 18.1635
687.918945 85.340 18.1959
692.903870 85.369 18.2349
697.924927 85.398 18.2768
702.982422 85.431 18.3228
708.076477 85.464 18.3659
713.207520 85.497 18.3959
718.375732 85.527 18.4229
723.581360 85.552 18.4518
728.824707 85.575 18.4879
734.106079 85.597 18.5369
739.425720 85.617 18.6027
744.783936 85.634 18.6876
750.180908 85.649 18.8025
755.617065 85.661 18.9590
761.092529 85.675 19.1572
766.607727 85.694 19.4057
772.162903 85.720 19.6899
777.758301 85.757 20.0032
783.394287 85.804 20.3298
789.071045 85.862 20.6581
794.789001 85.932 20.9689
800.548340 86.014 21.2424
806.349487 86.106 21.4693
812.192627 86.202 21.6343
818.078125 86.303 21.7358
824.006226 86.406 21.7660
829.977295 86.509 21.7283
835.991699 86.608 21.6160
842.049622 86.700 21.4517
848.151428 86.779 21.2515
854.297485 86.852 21.0279
860.488098 86.920 20.7988
866.723572 86.984 20.5629
873.004211 87.043 20.3207
879.330322 87.098 20.0838
885.702332 87.145 19.8673
892.120483 87.192 19.6617
898.585144 87.245 19.4670
905.096680 87.300 19.2697
911.655396 87.354 19.0533
918.261597 87.406 18.8278
924.915710 87.454 18.5997
931.618042 87.501 18.3649
938.368896 87.551 18.1214
945.168762 87.601 17.8690
952.017822 87.645 17.6026
958.916504 87.687 17.3340
965.865234 87.725 17.0754
972.864319 87.762 16.8199
979.914062 87.803 16.5665
987.014954 87.845 16.3100
994.167236 87.884 16.0442
1001.371399 87.923 15.7720
1008.627747 87.962 15.4955
1015.936646 88.001 15.2102
1023.298584 88.040 14.9106
1030.713867 88.078 14.6010
1038.182739 88.112 14.2846
1045.705933 88.146 13.9594
1053.283447 88.181 13.6265
1060.916016 88.215 13.2805
1068.603882 88.247 12.9136
1076.347412 88.276 12.5336
1084.147095 88.301 12.1455
1092.003296 88.323 11.7493
1099.916382 88.343 11.3471
1107.886841 88.361 10.9377
1115.915039 88.375 10.5191
1124.001343 88.385 10.0976
1132.146362 88.390 9.6792
1140.350342 88.392 9.2636
1148.613770 88.391 8.8518
1156.937134 88.387 8.4457
1165.320801 88.379 8.0459
1173.765137 88.367 7.6567
1182.270752 88.352 7.2831
1190.838013 88.334 6.9234
1199.467285 88.315 6.5791
1208.159180 88.294 6.2463
1216.913940 88.273 5.9222
1225.732178 88.250 5.6061
1234.614380 88.225 5.2964
1243.560913 88.198 4.9931
1252.572266 88.169 4.6944
1261.648926 88.136 4.4041
1270.791382 88.099 4.1215
1280.000000 88.056 3.8590
1289.275391 88.007 3.6264
1298.618042 87.953 3.4307
1308.028320 87.897 3.2830
1317.506836 87.839 3.1803
1327.054077 87.783 3.1241
1336.670410 87.727 3.1120
1346.356567 87.673 3.1447
1356.112793 87.623 3.2147
1365.939697 87.581 3.3187
1375.837891 87.545 3.4435
1385.807739 87.516 3.5752
1395.849854 87.491 3.7115
1405.964844 87.470 3.8466
1416.152954 87.453 3.9765
1426.415039 87.441 4.0975
1436.751465 87.433 4.2036
1447.162720 87.427 4.2871
1457.649414 87.421 4.3498
1468.212158 87.414 4.3883
1478.851440 87.404 4.4099
1489.567871 87.389 4.4160
1500.361816 87.369 4.4210
1511.234131 87.341 4.4369
1522.185059 87.308 4.4728
1533.215454 87.271 4.5415
1544.325806 87.229 4.6435
1555.516602 87.185 4.7805
1566.788574 87.138 4.9611
1578.142090 87.087 5.1902
1589.578003 87.032 5.4806
1601.096680 86.975 5.8452
1612.698975 86.919 6.2890
1624.385254 86.866 6.8178
1636.156250 86.818 7.4420
1648.012451 86.773 8.1779
1659.954590 86.741 9.0147
1671.983398 86.733 9.9616
1684.099243 86.752 10.9737
1696.302856 86.804 12.0271
1708.594971 86.891 13.0674
1720.976196 87.016 14.0478
1733.447144 87.173 14.9205
1746.008423 87.358 15.6280
1758.660645 87.559 16.1523
1771.404663 87.768 16.4520
1784.240967 87.976 16.5401
1797.170288 88.174 16.4023
1810.193359 88.354 16.0796
1823.310791 88.507 15.5902
1836.523193 88.633 14.9885
1849.831421 88.726 14.3201
1863.236084 88.790 13.6311
1876.737793 88.823 12.9655
1890.337524 88.826 12.3753
1904.035645 88.797 11.9172
1917.833008 88.749 11.6208
1931.730469 88.692 11.5402
1945.728638 88.635 11.6581
1959.828125 88.589 11.9884
1974.029907 88.562 12.4915
1988.334473 88.566 13.1547
2002.742798 88.605 13.9098
2017.255493 88.691 14.7078
2031.873291 88.817 15.4791
2046.597168 88.984 16.1469
2061.427734 89.179 16.6830
2076.365479 89.392 17.0314
2091.411865 89.616 17.1987
2106.566895 89.841 17.1632
2121.832031 90.061 16.9552
2137.207764 90.268 16.5867
2152.694824 90.463 16.0912
2168.294189 90.644 15.4987
2184.006592 90.812 14.8322
2199.832764 90.966 14.1217
2215.773682 91.110 13.3751
2231.830078 91.248 12.6132
2248.002686 91.380 11.8273
2264.292725 91.512 11.0168
2280.700684 91.639 10.1777
2297.227539 91.763 9.3084
2313.874268 91.885 8.4008
2330.641602 92.007 7.4512
2347.530273 92.128 6.4445
2364.541504 92.247 5.3625
2381.676025 92.360 4.2104
2398.934570 92.459 2.9851
2416.318359 92.549 1.6939
2433.827881 92.629 0.3384
2451.464355 92.694 -1.0680
2469.228760 92.739 -2.5194
2487.121826 92.765 -3.9917
2505.144531 92.773 -5.4646
2523.297852 92.763 -6.9204
2541.582764 92.734 -8.3389
2560.000000 92.690 -9.7071
2578.550781 92.633 -11.0035
2597.236084 92.566 -12.2345
2616.056641 92.496 -13.3934
2635.013672 92.422 -14.4974
2654.108154 92.349 -15.5589
2673.340820 92.273 -16.5856
2692.713135 92.195 -17.5852
2712.225586 92.115 -18.5704
2731.879395 92.038 -19.5582
2751.675781 91.955 -20.5435
2771.615479 91.860 -21.5356
2791.699707 91.754 -22.5078
2811.929688 91.633 -23.4403
2832.305908 91.501 -24.3200
2852.830078 91.357 -25.1308
2873.502930 91.204 -25.8610
2894.325439 91.041 -26.4959
2915.298828 90.872 -27.0298
2936.424316 90.699 -27.4464
2957.702881 90.528 -27.7628
2979.135742 90.367 -27.9856
3000.723633 90.213 -28.1305
3022.468262 90.063 -28.2129
3044.370117 89.922 -28.2410
3066.430908 89.791 -28.2243
3088.651611 89.669 -28.1743
3111.033203 89.553 -28.1055
3133.577148 89.443 -28.0175
3156.284180 89.337 -27.9146
3179.156006 89.235 -27.7966
3202.193359 89.138 -27.6667
3225.397949 89.042 -27.5188
3248.770508 88.946 -27.3513
3272.312500 88.850 -27.1530
3296.024902 88.755 -26.9096
3319.909180 88.663 -26.6284
3343.966797 88.581 -26.3086
3368.198486 88.505 -25.9597
3392.605713 88.434 -25.5898
3417.189941 88.370 -25.2028
3441.952393 88.316 -24.8028
3466.894287 88.268 -24.3978
3492.016846 88.227 -23.9978
3517.321289 88.191 -23.6018
3542.809326 88.160 -23.2120
3568.481934 88.132 -22.8288
3594.340576 88.109 -22.4541
3620.386719 88.088 -22.0847
3646.621582 88.068 -21.7196
3673.046387 88.050 -21.3547
3699.662842 88.033 -20.9847
3726.472168 88.019 -20.6127
3753.475586 88.009 -20.2429
3780.675049 87.999 -19.8667
3808.071289 87.985 -19.4823
3835.666016 87.970 -19.0730
3863.460938 87.955 -18.6236
3891.457275 87.942 -18.1285
3919.656250 87.932 -17.5751
3948.059814 87.929 -16.9689
3976.668945 87.938 -16.3045
4005.485596 87.962 -15.6025
4034.510986 88.003 -14.8715
4063.746582 88.064 -14.1424
4093.194336 88.148 -13.4431
4122.855469 88.248 -12.7920
4152.730957 88.361 -12.2150
4182.823730 88.485 -11.7182
4213.133789 88.619 -11.3181
4243.664062 88.757 -11.0092
4274.415527 88.893 -10.7978
4305.389648 89.027 -10.6655
4336.588379 89.157 -10.5994
4368.013184 89.282 -10.5889
4399.665527 89.403 -10.6216
4431.547363 89.518 -10.6896
4463.660156 89.630 -10.7836
4496.005371 89.737 -10.8954
4528.585449 89.840 -11.0145
4561.401367 89.941 -11.1384
4594.455078 90.040 -11.2617
4627.748535 90.138 -11.3824
4661.283203 90.235 -11.4985
4695.060547 90.332 -11.6045
4729.083008 90.429 -11.6933
4763.352051 90.529 -11.7677
4797.869141 90.634 -11.8249
4832.636719 90.745 -11.8748
4867.655762 90.865 -11.9262
4902.928711 90.991 -11.9787
4938.457520 91.121 -12.0363
4974.243652 91.257 -12.0947
5010.289062 91.402 -12.1469
5046.595703 91.557 -12.2057
5083.165527 91.728 -12.2762
5120.000000 91.914 -12.3754
5157.101562 92.117 -12.5157
5194.472168 92.339 -12.7168
5232.113281 92.579 -12.9891
5270.027344 92.840 -13.3727
5308.216309 93.124 -13.8975
5346.681641 93.424 -14.6050
5385.426270 93.734 -15.5472
5424.451172 94.044 -16.7227
5463.758789 94.339 -18.1560
5503.351562 94.617 -19.8203
5543.230957 94.869 -21.7093
5583.399414 95.092 -23.7854
5623.859375 95.279 -26.0295
5664.611816 95.427 -28.3803
5705.660156 95.533 -30.7865
5747.005859 95.601 -33.1986
5788.650879 95.632 -35.5560
5830.597656 95.634 -37.8395
5872.848633 95.613 -40.0093
5915.405762 95.573 -42.0677
5958.271484 95.521 -43.9988
6001.447266 95.459 -45.8169
6044.936523 95.395 -47.5282
6088.740234 95.327 -49.1421
6132.861816 95.258 -50.6655
6177.303223 95.191 -52.1119
6222.066406 95.130 -53.4904
6267.154297 95.074 -54.8214
6312.568359 95.025 -56.1261
6358.312012 94.981 -57.4116
6404.386719 94.939 -58.6892
6450.795898 94.901 -59.9664
6497.541016 94.868 -61.2529
6544.625000 94.836 -62.5524
6592.049805 94.803 -63.8754
6639.818359 94.767 -65.2111
6687.933594 94.726 -66.5551
6736.396973 94.681 -67.8981
6785.211426 94.633 -69.2317
6834.379883 94.581 -70.5493
6883.904785 94.526 -71.8379
6933.788574 94.472 -73.1075
6984.033691 94.425 -74.3571
7034.642578 94.384 -75.6067
7085.618652 94.350 -76.8693
7136.963867 94.324 -78.1654
7188.681152 94.308 -79.5149
7240.773438 94.296 -80.9327
7293.243164 94.287 -82.4418
7346.092773 94.276 -84.0368
7399.325684 94.258 -85.7196
7452.944336 94.235 -87.4899
7506.951172 94.207 -89.3476
7561.350098 94.170 -91.2937
7616.142578 94.121 -93.3351
7671.332031 94.057 -95.4539
7726.921875 93.972 -97.6349
7782.914551 93.872 -99.8763
7839.312500 93.759 -102.1688
7896.119629 93.631 -104.5214
7953.337891 93.484 -106.9391
8010.971191 93.317 -109.4247
8069.021973 93.130 -111.9860
8127.493164 92.917 -114.6129
8186.388672 92.673 -117.3056
8245.710938 92.396 -120.0405
8305.461914 92.082 -122.8139
8365.647461 91.724 -125.5666
8426.267578 91.309 -128.2595
8487.328125 90.840 -130.8269
8548.831055 90.317 -133.2093
8610.779297 89.736 -135.3475
8673.176758 89.093 -137.2018
8736.026367 88.387 -138.6534
8799.331055 87.610 -139.6135
8863.094727 86.774 -139.9511
8927.320312 85.882 -139.5377
8992.010742 84.950 -138.2771
9057.170898 83.986 -136.0259
9122.802734 83.020 -132.7977
9188.910156 82.061 -128.5114
9255.497070 81.174 -123.3104
9322.566406 80.404 -117.2162
9390.121094 79.823 -110.5176
9458.166016 79.525 -103.4019
9526.704102 79.495 -96.2008
9595.738281 79.775 -89.2412
9665.273438 80.290 -82.7258
9735.311523 80.995 -76.9119
9805.857422 81.844 -71.9602
9876.915039 82.802 -68.1255
9948.487305 83.791 -65.3818
10020.578125 84.719 -63.8507
10093.191406 85.595 -63.3382
10166.331055 86.398 -63.7123
10240.000000 87.133 -64.9037
10314.203125 87.807 -66.8500
10388.944336 88.395 -69.4016
10464.226562 88.870 -72.4454
10540.054688 89.252 -75.8054
10616.432617 89.549 -79.2890
10693.363281 89.770 -82.8329
10770.852539 89.922 -86.3303
10848.902344 90.014 -89.7250
10927.517578 90.051 -92.9239
11006.703125 90.051 -95.9333
11086.461914 90.029 -98.7151
11166.798828 89.992 -101.3101
11247.718750 89.950 -103.7263
11329.223633 89.913 -106.0244
11411.320312 89.894 -108.2381
11494.011719 89.890 -110.4568
11577.301758 89.910 -112.7633
11661.195312 89.939 -115.2119
11745.697266 89.968 -117.8859
11830.811523 89.985 -120.7817
11916.542969 89.976 -123.9310
12002.894531 89.933 -127.3086
12089.873047 89.852 -130.9484
12177.480469 89.705 -134.7055
12265.723633 89.460 -138.5049
12354.606445 89.131 -142.1688
12444.132812 88.718 -145.5253
12534.308594 88.228 -148.4793
12625.136719 87.663 -150.9027
12716.624023 87.035 -152.7231
12808.773438 86.340 -153.7853
12901.591797 85.635 -154.2113
12995.082031 84.973 -153.9964
13089.250000 84.372 -153.3689
13184.099609 83.874 -152.5135
13279.636719 83.463 -151.5619
13375.867188 83.140 -150.6716
13472.793945 82.896 -149.9484
13570.422852 82.745 -149.5655
13668.759766 82.622 -149.4786
13767.809570 82.468 -149.7565
13867.577148 82.284 -150.2299
13968.067383 82.054 -150.8046
14069.285156 81.770 -151.3195
14171.237305 81.407 -151.6189
14273.927734 80.993 -151.5922
14377.362305 80.539 -151.0639
14481.546875 80.072 -150.0743
14586.486328 79.622 -148.5838
14692.185547 79.203 -146.6604
14798.651367 78.831 -144.3264
14905.888672 78.534 -141.6801
15013.902344 78.346 -138.7800
15122.700195 78.267 -135.7692
15232.285156 78.315 -132.7772
15342.664062 78.478 -129.9059
15453.843750 78.750 -127.2639
15565.829102 79.123 -124.9604
15678.625000 79.599 -123.1173
15792.239258 80.140 -121.8035
15906.675781 80.712 -121.1171
16021.942383 81.306 -121.0922
16138.043945 81.909 -121.7933
16254.986328 82.491 -123.2265
16372.777344 83.024 -125.4604
16491.421875 83.491 -128.3741
16610.923828 83.863 -131.9083
16731.294922 84.150 -135.9403
16852.535156 84.353 -140.3718
16974.656250 84.459 -145.0700
17097.662109 84.449 -149.9196
17221.558594 84.337 -154.7669
17346.353516 84.122 -159.4339
17472.052734 83.821 -163.8759
17598.662109 83.453 -168.0062
17726.189453 83.013 -171.7743
17854.640625 82.490 -175.1112
17984.021484 81.911 -177.9854
18114.341797 81.295 179.6772
18245.605469 80.656 177.8163
18377.820312 80.018 176.4036
18510.994141 79.376 175.4146
18645.132812 78.726 174.8209
18780.242188 78.088 174.6062
18916.332031 77.479 174.7672
19053.408203 76.903 175.2356
19191.476562 76.373 175.9612
19330.546875 75.888 176.8846
19470.623047 75.447 177.9424
19611.714844 75.054 179.0953
19753.830078 74.710 -179.7032
19896.974609 74.412 -178.4953
