* Measurement data measured by REW V5.20.13
* Source: C:\Users\kurin\Desktop\Targets and Curves\Resolve\Img\Files\Meze Empyrean Elite_SPL.txt
* Format: Comma/Tab/Space delimited data
* Dated: Aug 14, 2023 6:18:57 PM
* REW Settings:
*  C-weighting compensation: Off
*  Target level: 75.0 dB
* Note: ; Measurement imported from C:\Users\kurin\Desktop\Targets and Curves\Resolve\Img\Files\Meze Empyrean Elite_SPL.txt Format: Comma/Tab/Space delimited data 623 values loaded, 5 Hz to 39,792 Hz log spaced 
* Measurement: Meze Empyrean Elite_SPL
* Smoothing: 1/48 octave
* Frequency Step: 1/96 octave
* Start Frequency: 5.000 Hz
*
* Freq(Hz) SPL(dB) Phase(degrees)
5.000000 85.392 0.8560
5.036232 85.392 0.8589
5.072727 85.392 0.8620
5.109486 85.392 0.8657
5.146511 85.392 0.8700
5.183805 85.392 0.8747
5.221369 85.392 0.8800
5.259205 85.392 0.8858
5.297316 85.392 0.8920
5.335702 85.392 0.8984
5.374367 85.392 0.9050
5.413311 85.392 0.9115
5.452538 85.392 0.9180
5.492050 85.392 0.9244
5.531847 85.392 0.9310
5.571934 85.392 0.9379
5.612310 85.392 0.9450
5.652979 85.392 0.9520
5.693943 85.392 0.9590
5.735204 85.392 0.9660
5.776763 85.392 0.9730
5.818624 85.392 0.9800
5.860788 85.392 0.9870
5.903258 85.392 0.9939
5.946035 85.392 1.0010
5.989123 85.392 1.0084
6.032523 85.392 1.0160
6.076237 85.392 1.0235
6.120268 85.392 1.0310
6.164618 85.392 1.0385
6.209289 85.392 1.0460
6.254284 85.392 1.0534
6.299605 85.392 1.0610
6.345255 85.392 1.0690
6.391235 85.392 1.0770
6.437549 85.392 1.0845
6.484198 85.392 1.0920
6.531185 85.392 1.0999
6.578513 85.392 1.1080
6.626183 85.392 1.1165
6.674199 85.392 1.1250
6.722563 85.392 1.1330
6.771278 85.392 1.1410
6.820345 85.392 1.1494
6.869768 85.392 1.1580
6.919549 85.392 1.1665
6.969691 85.392 1.1750
7.020196 85.392 1.1835
7.071068 85.392 1.1920
7.122308 85.392 1.2004
7.173919 85.392 1.2090
7.225904 85.392 1.2179
7.278266 85.392 1.2270
7.331007 85.392 1.2360
7.384131 85.392 1.2450
7.437639 85.392 1.2539
7.491535 85.392 1.2630
7.545822 85.392 1.2725
7.600502 85.392 1.2820
7.655579 85.392 1.2910
7.711054 85.392 1.3000
7.766932 85.392 1.3094
7.823214 85.392 1.3190
7.879904 85.392 1.3290
7.937005 85.392 1.3390
7.994520 85.392 1.3485
8.052452 85.392 1.3580
8.110803 85.392 1.3679
8.169578 85.392 1.3780
8.228777 85.392 1.3879
8.288406 85.392 1.3980
8.348468 85.392 1.4084
8.408964 85.392 1.4190
8.469899 85.392 1.4295
8.531276 85.392 1.4400
8.593097 85.392 1.4505
8.655366 85.392 1.4610
8.718086 85.392 1.4714
8.781260 85.392 1.4820
8.844893 85.392 1.4929
8.908987 85.392 1.5040
8.973545 85.392 1.5150
9.038571 85.392 1.5260
9.104069 85.392 1.5369
9.170040 85.392 1.5480
9.236490 85.392 1.5594
9.303422 85.392 1.5710
9.370838 85.392 1.5825
9.438744 85.392 1.5940
9.507140 85.392 1.6054
9.576033 85.392 1.6170
9.645425 85.392 1.6289
9.715320 85.392 1.6410
9.785721 85.392 1.6529
9.856632 85.392 1.6650
9.928058 85.392 1.6774
10.000000 85.392 1.6900
10.072464 85.392 1.7025
10.145453 85.392 1.7150
10.218971 85.392 1.7275
10.293022 85.392 1.7400
10.367610 85.392 1.7524
10.442738 85.392 1.7650
10.518411 85.392 1.7779
10.594631 85.392 1.7910
10.671404 85.392 1.8045
10.748734 85.392 1.8180
10.826623 85.392 1.8310
10.905077 85.392 1.8440
10.984100 85.392 1.8574
11.063695 85.392 1.8710
11.143867 85.392 1.8849
11.224621 85.392 1.8990
11.305959 85.392 1.9130
11.387886 85.392 1.9270
11.470407 85.392 1.9409
11.553527 85.392 1.9550
11.637249 85.392 1.9694
11.721577 85.392 1.9840
11.806517 85.392 1.9984
11.892071 85.392 2.0130
11.978246 85.392 2.0279
12.065045 85.392 2.0430
12.152473 85.392 2.0580
12.240536 85.392 2.0730
12.329235 85.392 2.0879
12.418578 85.392 2.1030
12.508568 85.392 2.1184
12.599211 85.392 2.1340
12.690510 85.392 2.1499
12.782471 85.392 2.1660
12.875097 85.392 2.1820
12.968395 85.392 2.1980
13.062370 85.392 2.2139
13.157025 85.392 2.2300
13.252366 85.392 2.2464
13.348398 85.392 2.2630
13.445127 85.392 2.2794
13.542556 85.392 2.2960
13.640691 85.392 2.3129
13.739536 85.392 2.3300
13.839099 85.392 2.3475
13.939383 85.392 2.3650
14.040393 85.392 2.3819
14.142136 85.392 2.3990
14.244616 85.392 2.4169
14.347837 85.392 2.4350
14.451808 85.392 2.4530
14.556532 85.392 2.4710
14.662014 85.392 2.4889
14.768262 85.392 2.5070
14.875278 85.392 2.5254
14.983070 85.392 2.5440
15.091644 85.392 2.5624
15.201005 85.392 2.5810
15.311157 85.392 2.5999
15.422109 85.392 2.6190
15.533863 85.392 2.6384
15.646428 85.392 2.6580
15.759809 85.392 2.6775
15.874010 85.392 2.6970
15.989040 85.392 2.7164
16.104904 85.392 2.7360
16.221605 85.392 2.7559
16.339155 85.392 2.7760
16.457554 85.392 2.7964
16.576813 85.392 2.8170
16.696936 85.392 2.8374
16.817928 85.392 2.8580
16.939798 85.392 2.8789
17.062551 85.392 2.9000
17.186193 85.392 2.9209
17.310732 85.392 2.9420
17.436172 85.392 2.9634
17.562521 85.392 2.9850
17.689787 85.392 3.0070
17.817974 85.392 3.0290
17.947090 85.392 3.0504
18.077143 85.392 3.0720
18.208138 85.392 3.0944
18.340080 85.392 3.1170
18.472980 85.392 3.1395
18.606844 85.392 3.1620
18.741676 85.392 3.1845
18.877487 85.392 3.2070
19.014280 85.392 3.2294
19.152065 85.392 3.2520
19.290850 85.392 3.2749
19.430639 85.392 3.2980
19.571442 85.392 3.3215
19.713264 85.392 3.3450
19.856115 85.392 3.3680
20.000000 85.392 3.3910
20.144928 85.392 3.4144
20.290907 85.392 3.4380
20.437943 85.392 3.4615
20.586044 85.392 3.4850
20.735220 85.392 3.5085
20.885475 85.392 3.5320
21.036821 85.392 3.5550
21.189262 85.392 3.5780
21.342808 85.392 3.6010
21.497467 85.392 3.6240
21.653246 85.392 3.6466
21.810154 85.392 3.6690
21.968201 85.392 3.6912
22.127390 85.392 3.7130
22.287735 85.392 3.7342
22.449242 85.392 3.7550
22.611917 85.392 3.7754
22.775772 85.392 3.7950
22.940815 85.392 3.8132
23.107054 85.392 3.8300
23.274498 85.392 3.8452
23.443153 85.392 3.8580
23.613033 85.392 3.8677
23.784142 85.392 3.8740
23.956491 85.391 3.8761
24.130091 85.390 3.8740
24.304947 85.388 3.8661
24.481071 85.384 3.8560
24.658470 85.378 3.8454
24.837156 85.370 3.8390
25.017136 85.359 3.8416
25.198421 85.346 3.8550
25.381020 85.333 3.8830
25.564941 85.320 3.9250
25.750195 85.306 3.9821
25.936790 85.293 4.0529
26.124741 85.281 4.1379
26.314051 85.271 4.2329
26.504732 85.264 4.3350
26.696796 85.259 4.4399
26.890253 85.255 4.5421
27.085112 85.253 4.6419
27.281382 85.252 4.7372
27.479073 85.252 4.8289
27.678198 85.252 4.9168
27.878765 85.252 5.0019
28.080786 85.252 5.0850
28.284271 85.252 5.1669
28.489231 85.252 5.2483
28.695675 85.252 5.3299
28.903616 85.252 5.4124
29.113064 85.252 5.4959
29.324028 85.252 5.5807
29.536524 85.253 5.6669
29.750557 85.254 5.7547
29.966141 85.255 5.8439
30.183289 85.257 5.9352
30.402010 85.260 6.0269
30.622314 85.264 6.1176
30.844217 85.268 6.2069
31.067726 85.273 6.2940
31.292856 85.279 6.3779
31.519617 85.286 6.4574
31.748020 85.293 6.5319
31.978081 85.301 6.6007
32.209808 85.309 6.6629
32.443211 85.317 6.7180
32.678310 85.325 6.7649
32.915108 85.333 6.8025
33.153625 85.341 6.8310
33.393871 85.348 6.8499
33.635857 85.354 6.8600
33.879597 85.358 6.8602
34.125103 85.359 6.8560
34.372387 85.356 6.8502
34.621464 85.350 6.8500
34.872345 85.341 6.8637
35.125042 85.330 6.8910
35.379574 85.319 6.9344
35.635948 85.307 6.9939
35.894180 85.294 7.0709
36.154285 85.282 7.1639
36.416275 85.271 7.2743
36.680161 85.263 7.3948
36.945961 85.258 7.5191
37.213688 85.255 7.6448
37.483353 85.253 7.7675
37.754974 85.252 7.8878
38.028561 85.252 8.0049
38.304131 85.252 8.1189
38.581699 85.252 8.2293
38.861279 85.252 8.3368
39.142883 85.252 8.4420
39.426529 85.252 8.5449
39.712231 85.252 8.6457
40.000000 85.251 8.7439
40.289856 85.250 8.8382
40.581814 85.247 8.9309
40.875885 85.242 9.0221
41.172089 85.236 9.1159
41.470440 85.228 9.2149
41.770950 85.217 9.3228
42.073643 85.204 9.4433
42.378525 85.190 9.5788
42.685616 85.174 9.7318
42.994934 85.156 9.9057
43.306492 85.138 10.1042
43.620308 85.119 10.3286
43.936401 85.101 10.5821
44.254780 85.084 10.8635
44.575470 85.069 11.1740
44.898483 85.057 11.5104
45.223835 85.049 11.8724
45.551544 85.046 12.2534
45.881630 85.049 12.6489
46.214108 85.057 13.0534
46.548996 85.070 13.4620
46.886307 85.089 13.8694
47.226067 85.113 14.2694
47.568283 85.142 14.6594
47.912983 85.174 15.0341
48.260181 85.208 15.3954
48.609894 85.243 15.7418
48.962143 85.280 16.0785
49.316940 85.317 16.4084
49.674313 85.355 16.7365
50.034271 85.393 17.0675
50.396843 85.432 17.4045
50.762039 85.472 17.7521
51.129883 85.516 18.1094
51.500389 85.564 18.4795
51.873581 85.618 18.8554
52.249481 85.678 19.2334
52.628101 85.746 19.6054
53.009464 85.821 19.9644
53.393593 85.903 20.3025
53.780506 85.993 20.6114
54.170223 86.089 20.8846
54.562763 86.190 21.1134
54.958145 86.296 21.2957
55.356396 86.404 21.4263
55.757530 86.514 21.5069
56.161572 86.625 21.5380
56.568542 86.736 21.5191
56.978462 86.848 21.4500
57.391350 86.959 21.3303
57.807232 87.069 21.1594
58.226128 87.177 20.9364
58.648056 87.283 20.6596
59.073048 87.385 20.3306
59.501114 87.482 19.9484
59.932281 87.572 19.5198
60.366577 87.654 19.0487
60.804020 87.729 18.5429
61.244629 87.795 18.0086
61.688435 87.851 17.4550
62.135452 87.897 16.8895
62.585712 87.933 16.3230
63.039234 87.959 15.7672
63.496040 87.977 15.2269
63.956161 87.989 14.7104
64.419617 87.995 14.2189
64.886421 87.995 13.7561
65.356621 87.991 13.3227
65.830215 87.984 12.9217
66.307251 87.975 12.5497
66.787743 87.965 12.2055
67.271713 87.954 11.8856
67.759193 87.943 11.5865
68.250206 87.931 11.3065
68.744774 87.919 11.0426
69.242928 87.906 10.7954
69.744690 87.892 10.5645
70.250084 87.878 10.3504
70.759148 87.864 10.1534
71.271896 87.850 9.9733
71.788361 87.836 9.8107
72.308571 87.823 9.6633
72.832550 87.811 9.5301
73.360321 87.800 9.4082
73.891922 87.792 9.2953
74.427376 87.785 9.1882
74.966705 87.780 9.0838
75.509949 87.777 8.9792
76.057121 87.775 8.8706
76.608261 87.773 8.7582
77.163399 87.772 8.6408
77.722557 87.770 8.5193
78.285767 87.768 8.3932
78.853058 87.765 8.2653
79.424461 87.760 8.1373
80.000000 87.754 8.0112
80.579712 87.747 7.8893
81.163628 87.738 7.7732
81.751770 87.728 7.6650
82.344177 87.718 7.5662
82.940880 87.707 7.4795
83.541901 87.695 7.4041
84.147285 87.684 7.3406
84.757050 87.674 7.2871
85.371231 87.664 7.2430
85.989868 87.656 7.2061
86.612984 87.649 7.1742
87.240616 87.644 7.1461
87.872803 87.640 7.1198
88.509560 87.637 7.0941
89.150940 87.635 7.0668
89.796967 87.634 7.0381
90.447670 87.633 7.0071
91.103088 87.633 6.9741
91.763260 87.633 6.9389
92.428215 87.633 6.9021
93.097992 87.633 6.8640
93.772614 87.633 6.8251
94.452133 87.633 6.7862
95.136566 87.633 6.7471
95.825966 87.633 6.7076
96.520363 87.633 6.6681
97.219788 87.633 6.6285
97.924286 87.633 6.5891
98.633881 87.633 6.5504
99.348625 87.633 6.5121
100.068542 87.633 6.4739
100.793686 87.633 6.4361
101.524078 87.633 6.3988
102.259766 87.633 6.3621
103.000778 87.633 6.3259
103.747162 87.633 6.2901
104.498962 87.633 6.2544
105.256203 87.633 6.2191
106.018929 87.633 6.1843
106.787186 87.633 6.1501
107.561012 87.633 6.1168
108.340446 87.633 6.0841
109.125526 87.633 6.0514
109.916290 87.633 6.0191
110.712791 87.633 5.9873
111.515060 87.633 5.9561
112.323143 87.633 5.9254
113.137085 87.633 5.8951
113.956924 87.633 5.8650
114.782700 87.633 5.8351
115.614464 87.633 5.8050
116.452255 87.633 5.7751
117.296112 87.633 5.7456
118.146095 87.633 5.7161
119.002228 87.633 5.6864
119.864563 87.633 5.6561
120.733154 87.633 5.6251
121.608040 87.633 5.5921
122.489258 87.633 5.5555
123.376869 87.633 5.5161
124.270905 87.632 5.4738
125.171425 87.630 5.4291
126.078468 87.627 5.3805
126.992081 87.622 5.3331
127.912323 87.614 5.2893
128.839233 87.603 5.2551
129.772842 87.590 5.2374
130.713242 87.576 5.2360
131.660431 87.563 5.2526
132.614502 87.550 5.2879
133.575485 87.536 5.3434
134.543427 87.523 5.4188
135.518387 87.512 5.5164
136.500412 87.505 5.6298
137.489548 87.502 5.7550
138.485855 87.504 5.8877
139.489380 87.509 6.0237
140.500168 87.518 6.1577
141.518295 87.532 6.2852
142.543793 87.551 6.3987
143.576721 87.574 6.4899
144.617142 87.600 6.5569
145.665100 87.626 6.5941
146.720642 87.653 6.6040
147.783844 87.679 6.5856
148.854752 87.703 6.5431
149.933411 87.724 6.4778
151.019897 87.742 6.3982
152.114243 87.754 6.3117
153.216522 87.763 6.2242
154.326797 87.768 6.1442
155.445114 87.771 6.0722
156.571533 87.772 6.0120
157.706116 87.773 5.9621
158.848923 87.773 5.9226
160.000000 87.773 5.8921
161.159424 87.773 5.8690
162.327255 87.773 5.8530
163.503540 87.773 5.8432
164.688354 87.773 5.8400
165.881760 87.773 5.8435
167.083801 87.773 5.8540
168.294571 87.773 5.8711
169.514099 87.774 5.8959
170.742462 87.775 5.9293
171.979736 87.776 5.9709
173.225967 87.779 6.0215
174.481232 87.783 6.0789
175.745605 87.789 6.1415
177.019119 87.797 6.2078
178.301880 87.807 6.2762
179.593933 87.819 6.3448
180.895340 87.833 6.4124
182.206177 87.849 6.4759
183.526520 87.868 6.5326
184.856430 87.889 6.5799
186.195984 87.912 6.6151
187.545227 87.936 6.6350
188.904266 87.961 6.6336
190.273132 87.986 6.6161
191.651932 88.007 6.5822
193.040726 88.026 6.5411
194.439575 88.042 6.5015
195.848572 88.057 6.4651
197.267761 88.071 6.4365
198.697250 88.085 6.4160
200.137085 88.098 6.4074
201.587372 88.113 6.4050
203.048157 88.132 6.4071
204.519531 88.153 6.4060
206.001556 88.177 6.3942
207.494324 88.203 6.3701
208.997925 88.229 6.3291
210.512405 88.256 6.2722
212.037857 88.282 6.1972
213.574371 88.306 6.1092
215.122025 88.328 6.0111
216.680893 88.348 5.9073
218.251053 88.365 5.8023
219.832581 88.381 5.6983
221.425583 88.396 5.5981
223.030121 88.410 5.5042
224.646286 88.422 5.4211
226.274170 88.434 5.3452
227.913849 88.449 5.2764
229.565399 88.465 5.2092
231.228928 88.483 5.1367
232.904510 88.501 5.0622
234.592224 88.518 4.9878
236.292191 88.537 4.9102
238.004456 88.559 4.8302
239.729126 88.584 4.7373
241.466309 88.610 4.6187
243.216080 88.636 4.4824
244.978516 88.656 4.3301
246.753738 88.674 4.1675
248.541809 88.692 4.0011
250.342850 88.708 3.8305
252.156937 88.721 3.6563
253.984161 88.731 3.4825
255.824646 88.740 3.3119
257.678467 88.746 3.1484
259.545685 88.750 2.9963
261.426483 88.752 2.8563
263.320862 88.754 2.7311
265.229004 88.757 2.6193
267.150970 88.761 2.5213
269.086853 88.766 2.4342
271.036774 88.773 2.3558
273.000824 88.781 2.2842
274.979095 88.791 2.2174
276.971710 88.804 2.1532
278.978760 88.819 2.0889
281.000336 88.837 2.0232
283.036591 88.856 1.9558
285.087585 88.879 1.8802
287.153442 88.907 1.7925
289.234283 88.938 1.6853
291.330200 88.971 1.5483
293.441284 89.004 1.3875
295.567688 89.034 1.2041
297.709503 89.062 1.0026
299.866821 89.090 0.7856
302.039795 89.116 0.5587
304.228485 89.137 0.3254
306.433044 89.156 0.0946
308.653595 89.174 -0.1219
310.890228 89.193 -0.3284
313.143066 89.215 -0.5208
315.412231 89.242 -0.7124
317.697845 89.276 -0.9090
320.000000 89.317 -1.1293
322.318848 89.366 -1.3918
324.654510 89.419 -1.7029
327.007080 89.472 -2.0762
329.376709 89.526 -2.5086
331.763519 89.578 -3.0013
334.167603 89.628 -3.5551
336.589142 89.674 -4.1733
339.028198 89.714 -4.8500
341.484924 89.745 -5.5834
343.959473 89.768 -6.3638
346.451935 89.781 -7.1804
348.962463 89.785 -8.0346
351.491211 89.782 -8.9249
354.038239 89.768 -9.8493
356.603760 89.742 -10.8098
359.187866 89.701 -11.7920
361.790680 89.644 -12.7878
364.412354 89.570 -13.7802
367.053040 89.479 -14.7539
369.712860 89.371 -15.6951
372.391968 89.247 -16.5912
375.090454 89.105 -17.4237
377.808533 88.946 -18.1749
380.546265 88.773 -18.8302
383.303864 88.586 -19.3695
386.081451 88.390 -19.7910
388.879150 88.188 -20.0844
391.697144 87.983 -20.2557
394.535522 87.778 -20.3063
397.394501 87.574 -20.2394
400.274170 87.371 -20.0577
403.174744 87.173 -19.7641
406.096313 86.981 -19.3577
409.039062 86.800 -18.8527
412.003113 86.630 -18.2593
414.988647 86.472 -17.5883
417.995850 86.326 -16.8548
421.024811 86.190 -16.0566
424.075714 86.065 -15.1913
427.148743 85.955 -14.2740
430.244049 85.865 -13.3133
433.361786 85.792 -12.3262
436.502106 85.735 -11.3304
439.665161 85.693 -10.3321
442.851166 85.668 -9.3373
446.060242 85.660 -8.3650
449.292572 85.669 -7.4346
452.548340 85.692 -6.5507
455.827698 85.723 -5.7240
459.130798 85.763 -4.9554
462.457855 85.812 -4.2489
465.809021 85.868 -3.6059
469.184448 85.926 -3.0342
472.584381 85.986 -2.5185
476.008911 86.042 -2.0470
479.458252 86.100 -1.6173
482.932617 86.162 -1.2188
486.432159 86.228 -0.8640
489.957031 86.297 -0.5623
493.507477 86.368 -0.3127
497.083618 86.436 -0.1199
500.685699 86.502 0.0236
504.313873 86.564 0.1232
507.968323 86.623 0.1809
511.649292 86.679 0.1970
515.356934 86.730 0.1811
519.091370 86.772 0.1384
522.852966 86.808 0.0822
526.641724 86.837 0.0269
530.458008 86.861 -0.0258
534.301941 86.883 -0.0682
538.173706 86.904 -0.1049
542.073547 86.924 -0.1375
546.001648 86.942 -0.1679
549.958191 86.959 -0.1983
553.943420 86.975 -0.2289
557.957520 86.990 -0.2601
562.000671 87.005 -0.2929
566.073181 87.018 -0.3286
570.175171 87.030 -0.3659
574.306885 87.040 -0.4045
578.468567 87.049 -0.4429
582.660400 87.057 -0.4798
586.882568 87.063 -0.5139
591.135376 87.067 -0.5443
595.419006 87.070 -0.5689
599.733643 87.071 -0.5853
604.079590 87.072 -0.5940
608.456970 87.073 -0.5946
612.866089 87.073 -0.5870
617.307190 87.073 -0.5709
621.780457 87.073 -0.5461
626.286133 87.073 -0.5121
630.824463 87.074 -0.4692
635.395691 87.075 -0.4169
640.000000 87.078 -0.3562
644.637695 87.082 -0.2869
649.309021 87.088 -0.2123
654.014160 87.097 -0.1341
658.753418 87.109 -0.0563
663.527039 87.123 0.0168
668.335205 87.139 0.0858
673.178284 87.156 0.1512
678.056396 87.176 0.2088
682.969849 87.200 0.2566
687.918945 87.227 0.2879
692.903870 87.256 0.2947
697.924927 87.287 0.2791
702.982422 87.316 0.2403
708.076477 87.345 0.1793
713.207520 87.375 0.0966
718.375732 87.405 -0.0076
723.581360 87.432 -0.1340
728.824707 87.458 -0.2804
734.106079 87.482 -0.4452
739.425720 87.505 -0.6283
744.783936 87.526 -0.8294
750.180908 87.545 -1.0482
755.617065 87.561 -1.2823
761.092529 87.576 -1.5370
766.607727 87.591 -1.8158
772.162903 87.603 -2.1219
777.758301 87.611 -2.4609
783.394287 87.613 -2.8297
789.071045 87.609 -3.2308
794.789001 87.596 -3.6525
800.548340 87.570 -4.0898
806.349487 87.532 -4.5245
812.192627 87.482 -4.9406
818.078125 87.419 -5.3267
824.006226 87.346 -5.6718
829.977295 87.260 -5.9581
835.991699 87.162 -6.1696
842.049622 87.053 -6.2897
848.151428 86.938 -6.2945
854.297485 86.820 -6.1896
860.488098 86.707 -5.9689
866.723572 86.599 -5.6444
873.004211 86.499 -5.2231
879.330322 86.408 -4.7140
885.702332 86.330 -4.1215
892.120483 86.267 -3.4654
898.585144 86.224 -2.7605
905.096680 86.198 -2.0267
911.655396 86.191 -1.2826
918.261597 86.202 -0.5477
924.915710 86.233 0.1579
931.618042 86.281 0.8177
938.368896 86.343 1.4105
945.168762 86.418 1.9302
952.017822 86.501 2.3645
958.916504 86.590 2.7118
965.865234 86.682 2.9650
972.864319 86.776 3.1286
979.914062 86.867 3.2002
987.014954 86.955 3.1932
994.167236 87.034 3.1145
1001.371399 87.106 2.9806
1008.627747 87.169 2.8074
1015.936646 87.225 2.6039
1023.298584 87.273 2.3835
1030.713867 87.316 2.1488
1038.182739 87.354 1.9050
1045.705933 87.387 1.6571
1053.283447 87.414 1.4123
1060.916016 87.439 1.1690
1068.603882 87.464 0.9305
1076.347412 87.488 0.6900
1084.147095 87.511 0.4429
1092.003296 87.533 0.1859
1099.916382 87.556 -0.0840
1107.886841 87.580 -0.3727
1115.915039 87.603 -0.6864
1124.001343 87.625 -1.0277
1132.146362 87.646 -1.4000
1140.350342 87.664 -1.8064
1148.613770 87.679 -2.2519
1156.937134 87.690 -2.7339
1165.320801 87.693 -3.2514
1173.765137 87.690 -3.8045
1182.270752 87.681 -4.3940
1190.838013 87.664 -5.0164
1199.467285 87.635 -5.6723
1208.159180 87.593 -6.3493
1216.913940 87.537 -7.0375
1225.732178 87.467 -7.7295
1234.614380 87.384 -8.4204
1243.560913 87.283 -9.0925
1252.572266 87.162 -9.7363
1261.648926 87.022 -10.3228
1270.791382 86.861 -10.8289
1280.000000 86.681 -11.2277
1289.275391 86.482 -11.4914
1298.618042 86.268 -11.5989
1308.028320 86.040 -11.5199
1317.506836 85.807 -11.2546
1327.054077 85.576 -10.7891
1336.670410 85.350 -10.1359
1346.356567 85.132 -9.2948
1356.112793 84.932 -8.2900
1365.939697 84.756 -7.1313
1375.837891 84.608 -5.8625
1385.807739 84.493 -4.5208
1395.849854 84.407 -3.1355
1405.964844 84.349 -1.7425
1416.152954 84.316 -0.3601
1426.415039 84.309 0.9858
1436.751465 84.323 2.2831
1447.162720 84.354 3.5107
1457.649414 84.400 4.6705
1468.212158 84.455 5.7558
1478.851440 84.518 6.7712
1489.567871 84.587 7.7187
1500.361816 84.663 8.5997
1511.234131 84.742 9.4136
1522.185059 84.825 10.1697
1533.215454 84.906 10.8758
1544.325806 84.989 11.5362
1555.516602 85.074 12.1596
1566.788574 85.161 12.7406
1578.142090 85.251 13.2760
1589.578003 85.342 13.7680
1601.096680 85.432 14.2176
1612.698975 85.522 14.6254
1624.385254 85.613 14.9928
1636.156250 85.704 15.3177
1648.012451 85.792 15.5946
1659.954590 85.876 15.8342
1671.983398 85.953 16.0429
1684.099243 86.025 16.2273
1696.302856 86.094 16.3929
1708.594971 86.159 16.5483
1720.976196 86.215 16.7017
1733.447144 86.266 16.8593
1746.008423 86.316 17.0329
1758.660645 86.364 17.2142
1771.404663 86.412 17.3969
1784.240967 86.457 17.5872
1797.170288 86.496 17.7865
1810.193359 86.533 18.0031
1823.310791 86.568 18.2457
1836.523193 86.601 18.5149
1849.831421 86.634 18.8100
1863.236084 86.666 19.1424
1876.737793 86.695 19.5247
1890.337524 86.727 19.9530
1904.035645 86.768 20.4339
1917.833008 86.819 20.9489
1931.730469 86.879 21.4863
1945.728638 86.951 22.0327
1959.828125 87.034 22.5750
1974.029907 87.127 23.1008
1988.334473 87.229 23.5932
2002.742798 87.339 24.0522
2017.255493 87.451 24.4694
2031.873291 87.566 24.8535
2046.597168 87.681 25.2101
2061.427734 87.799 25.5406
2076.365479 87.922 25.8457
2091.411865 88.045 26.1328
2106.566895 88.168 26.4101
2121.832031 88.293 26.6769
2137.207764 88.426 26.9393
2152.694824 88.565 27.1851
2168.294189 88.711 27.4051
2184.006592 88.863 27.5962
2199.832764 89.020 27.7542
2215.773682 89.183 27.8726
2231.830078 89.354 27.9464
2248.002686 89.530 27.9670
2264.292725 89.711 27.9251
2280.700684 89.895 27.8186
2297.227539 90.082 27.6428
2313.874268 90.269 27.3962
2330.641602 90.457 27.0764
2347.530273 90.643 26.6809
2364.541504 90.829 26.2050
2381.676025 91.010 25.6517
2398.934570 91.186 25.0189
2416.318359 91.354 24.3163
2433.827881 91.513 23.5509
2451.464355 91.662 22.7285
2469.228760 91.804 21.8525
2487.121826 91.933 20.9380
2505.144531 92.047 19.9977
2523.297852 92.150 19.0424
2541.582764 92.245 18.0870
2560.000000 92.332 17.1312
2578.550781 92.410 16.1780
2597.236084 92.482 15.2323
2616.056641 92.545 14.3032
2635.013672 92.605 13.3819
2654.108154 92.665 12.4640
2673.340820 92.721 11.5450
2692.713135 92.770 10.6170
2712.225586 92.813 9.6864
2731.879395 92.849 8.7569
2751.675781 92.880 7.8293
2771.615479 92.905 6.9026
2791.699707 92.923 5.9850
2811.929688 92.931 5.0817
2832.305908 92.932 4.2011
2852.830078 92.926 3.3515
2873.502930 92.913 2.5394
2894.325439 92.893 1.7730
2915.298828 92.869 1.0561
2936.424316 92.843 0.3966
2957.702881 92.816 -0.2095
2979.135742 92.790 -0.7622
3000.723633 92.765 -1.2649
3022.468262 92.743 -1.7174
3044.370117 92.726 -2.1302
3066.430908 92.718 -2.5088
3088.651611 92.717 -2.8684
3111.033203 92.724 -3.2259
3133.577148 92.737 -3.5823
3156.284180 92.752 -3.9429
3179.156006 92.772 -4.3122
3202.193359 92.800 -4.6945
3225.397949 92.832 -5.0950
3248.770508 92.865 -5.5233
3272.312500 92.899 -5.9710
3296.024902 92.932 -6.4323
3319.909180 92.967 -6.9088
3343.966797 93.005 -7.3999
3368.198486 93.044 -7.9056
3392.605713 93.081 -8.4244
3417.189941 93.121 -8.9595
3441.952393 93.165 -9.5106
3466.894287 93.213 -10.0863
3492.016846 93.261 -10.6957
3517.321289 93.311 -11.3379
3542.809326 93.360 -12.0136
3568.481934 93.410 -12.7286
3594.340576 93.461 -13.4894
3620.386719 93.510 -14.2951
3646.621582 93.553 -15.1508
3673.046387 93.590 -16.0437
3699.662842 93.620 -16.9649
3726.472168 93.644 -17.9076
3753.475586 93.661 -18.8635
3780.675049 93.673 -19.8287
3808.071289 93.679 -20.7953
3835.666016 93.681 -21.7674
3863.460938 93.681 -22.7453
3891.457275 93.678 -23.7313
3919.656250 93.670 -24.7251
3948.059814 93.660 -25.7343
3976.668945 93.651 -26.7662
4005.485596 93.638 -27.8218
4034.510986 93.616 -28.9074
4063.746582 93.586 -30.0137
4093.194336 93.550 -31.1354
4122.855469 93.504 -32.2665
4152.730957 93.448 -33.4048
4182.823730 93.380 -34.5337
4213.133789 93.300 -35.6373
4243.664062 93.210 -36.7110
4274.415527 93.114 -37.7446
4305.389648 93.012 -38.7392
4336.588379 92.902 -39.6941
4368.013184 92.787 -40.6048
4399.665527 92.666 -41.4644
4431.547363 92.542 -42.2791
4463.660156 92.418 -43.0526
4496.005371 92.292 -43.7854
4528.585449 92.161 -44.4794
4561.401367 92.029 -45.1340
4594.455078 91.897 -45.7478
4627.748535 91.765 -46.3253
4661.283203 91.631 -46.8705
4695.060547 91.496 -47.3836
4729.083008 91.361 -47.8662
4763.352051 91.225 -48.3169
4797.869141 91.086 -48.7377
4832.636719 90.945 -49.1202
4867.655762 90.799 -49.4604
4902.928711 90.651 -49.7467
4938.457520 90.499 -49.9696
4974.243652 90.346 -50.1195
5010.289062 90.190 -50.1822
5046.595703 90.038 -50.1623
5083.165527 89.893 -50.0571
5120.000000 89.757 -49.8741
5157.101562 89.628 -49.6180
5194.472168 89.511 -49.2947
5232.113281 89.408 -48.9038
5270.027344 89.323 -48.4693
5308.216309 89.262 -48.0091
5346.681641 89.221 -47.5423
5385.426270 89.198 -47.0899
5424.451172 89.193 -46.6630
5463.758789 89.208 -46.2703
5503.351562 89.244 -45.9394
5543.230957 89.302 -45.6950
5583.399414 89.378 -45.5554
5623.859375 89.466 -45.5440
5664.611816 89.564 -45.6710
5705.660156 89.672 -45.9519
5747.005859 89.783 -46.3933
5788.650879 89.894 -47.0103
5830.597656 89.997 -47.7925
5872.848633 90.089 -48.7388
5915.405762 90.168 -49.8360
5958.271484 90.230 -51.0763
6001.447266 90.273 -52.4417
6044.936523 90.291 -53.9216
6088.740234 90.283 -55.4850
6132.861816 90.244 -57.1079
6177.303223 90.174 -58.7577
6222.066406 90.075 -60.4029
6267.154297 89.946 -62.0160
6312.568359 89.786 -63.5708
6358.312012 89.597 -65.0330
6404.386719 89.377 -66.3687
6450.795898 89.131 -67.5494
6497.541016 88.864 -68.5365
6544.625000 88.582 -69.3246
6592.049805 88.292 -69.8905
6639.818359 87.999 -70.2487
6687.933594 87.710 -70.3982
6736.396973 87.431 -70.3626
6785.211426 87.168 -70.1538
6834.379883 86.926 -69.8071
6883.904785 86.713 -69.3507
6933.788574 86.526 -68.8189
6984.033691 86.367 -68.2479
7034.642578 86.236 -67.6600
7085.618652 86.130 -67.0854
7136.963867 86.048 -66.5357
7188.681152 85.986 -66.0284
7240.773438 85.944 -65.5751
7293.243164 85.922 -65.1876
7346.092773 85.919 -64.8833
7399.325684 85.934 -64.6763
7452.944336 85.967 -64.5881
7506.951172 86.016 -64.6369
7561.350098 86.078 -64.8465
7616.142578 86.152 -65.2406
7671.332031 86.232 -65.8384
7726.921875 86.314 -66.6639
7782.914551 86.392 -67.7249
7839.312500 86.459 -69.0399
7896.119629 86.510 -70.6011
7953.337891 86.537 -72.4141
8010.971191 86.533 -74.4576
8069.021973 86.492 -76.7218
8127.493164 86.410 -79.1766
8186.388672 86.279 -81.8046
8245.710938 86.096 -84.5582
8305.461914 85.853 -87.4017
8365.647461 85.548 -90.2808
8426.267578 85.181 -93.1622
8487.328125 84.741 -95.9457
8548.831055 84.216 -98.5707
8610.779297 83.607 -100.8828
8673.176758 82.910 -102.7452
8736.026367 82.132 -104.0437
8799.331055 81.279 -104.6562
8863.094727 80.351 -104.4703
8927.320312 79.336 -103.3432
8992.010742 78.273 -101.2438
9057.170898 77.175 -98.0419
9122.802734 76.101 -93.8923
9188.910156 75.101 -88.8421
9255.497070 74.207 -83.0897
9322.566406 73.458 -76.7827
9390.121094 72.884 -70.1228
9458.166016 72.539 -63.2951
9526.704102 72.395 -56.4985
9595.738281 72.455 -49.9636
9665.273438 72.670 -43.7795
9735.311523 73.000 -38.1050
9805.857422 73.423 -32.9594
9876.915039 73.911 -28.4203
9948.487305 74.439 -24.4698
10020.578125 74.975 -21.1392
10093.191406 75.508 -18.3557
10166.331055 76.018 -16.0791
10240.000000 76.504 -14.2407
10314.203125 76.964 -12.7792
10388.944336 77.395 -11.6318
10464.226562 77.792 -10.7389
10540.054688 78.163 -10.0288
10616.432617 78.506 -9.4142
10693.363281 78.837 -8.8830
10770.852539 79.170 -8.3800
10848.902344 79.509 -7.9481
10927.517578 79.863 -7.5984
11006.703125 80.228 -7.3728
11086.461914 80.602 -7.3004
11166.798828 80.984 -7.4316
11247.718750 81.376 -7.8189
11329.223633 81.762 -8.4868
11411.320312 82.129 -9.4901
11494.011719 82.466 -10.7892
11577.301758 82.760 -12.3760
11661.195312 83.010 -14.2092
11745.697266 83.217 -16.2645
11830.811523 83.369 -18.4826
11916.542969 83.457 -20.8308
12002.894531 83.479 -23.2039
12089.873047 83.428 -25.5161
12177.480469 83.312 -27.6763
12265.723633 83.134 -29.5959
12354.606445 82.898 -31.1815
12444.132812 82.600 -32.3269
12534.308594 82.264 -32.9829
12625.136719 81.904 -33.0394
12716.624023 81.554 -32.5728
12808.773438 81.243 -31.5747
12901.591797 80.992 -30.1937
12995.082031 80.831 -28.5161
13089.250000 80.765 -26.7220
13184.099609 80.819 -24.9698
13279.636719 80.961 -23.4142
13375.867188 81.180 -22.2540
13472.793945 81.436 -21.5159
13570.422852 81.690 -21.3303
13668.759766 81.919 -21.5833
13767.809570 82.087 -22.2643
13867.577148 82.191 -23.1892
13968.067383 82.212 -24.2408
14069.285156 82.154 -25.2041
14171.237305 81.999 -25.8689
14273.927734 81.785 -26.1022
14377.362305 81.529 -25.6800
14481.546875 81.280 -24.6668
14586.486328 81.081 -22.9914
14692.185547 80.969 -20.8416
14798.651367 80.992 -18.2970
14905.888672 81.160 -15.6156
15013.902344 81.513 -13.0064
15122.700195 82.001 -10.6998
15232.285156 82.599 -8.9680
15342.664062 83.258 -7.8943
15453.843750 83.929 -7.6629
15565.829102 84.590 -8.2416
15678.625000 85.208 -9.7067
15792.239258 85.765 -11.9102
15906.675781 86.229 -14.7871
16021.942383 86.606 -18.1626
16138.043945 86.891 -21.8715
16254.986328 87.091 -25.8176
16372.777344 87.212 -29.8775
16491.421875 87.252 -33.9704
16610.923828 87.210 -37.9923
16731.294922 87.096 -41.8889
16852.535156 86.918 -45.5769
16974.656250 86.684 -49.0378
17097.662109 86.399 -52.2283
17221.558594 86.070 -55.1382
17346.353516 85.703 -57.7373
17472.052734 85.306 -60.0429
17598.662109 84.893 -62.0541
17726.189453 84.465 -63.7956
17854.640625 84.026 -65.2900
17984.021484 83.578 -66.5437
18114.341797 83.122 -67.5753
18245.605469 82.660 -68.3712
18377.820312 82.191 -68.9316
18510.994141 81.716 -69.2330
18645.132812 81.232 -69.2598
18780.242188 80.745 -68.9883
18916.332031 80.254 -68.3853
19053.408203 79.773 -67.4641
19191.476562 79.310 -66.2038
19330.546875 78.879 -64.6739
19470.623047 78.499 -62.9140
19611.714844 78.170 -60.9962
19753.830078 77.898 -58.9854
19896.974609 77.682 -56.9434
