* Measurement data measured by REW V5.20.13
* Source: C:\Users\kurin\Desktop\Targets and Curves\Resolve\Img\Files\Focal Radiance_SPL.txt
* Format: Comma/Tab/Space delimited data
* Dated: Aug 14, 2023 3:43:12 PM
* REW Settings:
*  C-weighting compensation: Off
*  Target level: 75.0 dB
* Note: ; Measurement imported from C:\Users\kurin\Desktop\Targets and Curves\Resolve\Img\Files\Focal Radiance_SPL.txt Format: Comma/Tab/Space delimited data 623 values loaded, 5 Hz to 39,792 Hz log spaced 
* Measurement: Focal Radiance_SPL
* Smoothing: 1/48 octave
* Frequency Step: 1/96 octave
* Start Frequency: 5.000 Hz
*
* Freq(Hz) SPL(dB) Phase(degrees)
5.000000 88.034 34.2300
5.036232 88.046 34.2151
5.072727 88.059 34.1990
5.109486 88.074 34.1799
5.146511 88.091 34.1580
5.183805 88.111 34.1325
5.221369 88.134 34.1050
5.259205 88.158 34.0771
5.297316 88.183 34.0480
5.335702 88.209 34.0168
5.374367 88.236 33.9850
5.413311 88.262 33.9541
5.452538 88.289 33.9230
5.492050 88.315 33.8911
5.531847 88.342 33.8590
5.571934 88.368 33.8271
5.612310 88.395 33.7950
5.652979 88.422 33.7626
5.693943 88.449 33.7300
5.735204 88.476 33.6971
5.776763 88.502 33.6640
5.818624 88.528 33.6306
5.860788 88.555 33.5970
5.903258 88.581 33.5631
5.946035 88.608 33.5290
5.989123 88.634 33.4946
6.032523 88.661 33.4600
6.076237 88.688 33.4251
6.120268 88.715 33.3900
6.164618 88.742 33.3546
6.209289 88.768 33.3190
6.254284 88.794 33.2831
6.299605 88.821 33.2470
6.345255 88.847 33.2111
6.391235 88.874 33.1750
6.437549 88.900 33.1383
6.484198 88.927 33.1010
6.531185 88.954 33.0631
6.578513 88.981 33.0250
6.626183 89.008 32.9871
6.674199 89.034 32.9490
6.722563 89.060 32.9106
6.771278 89.087 32.8720
6.820345 89.113 32.8332
6.869768 89.140 32.7940
6.919549 89.166 32.7542
6.969691 89.193 32.7140
7.020196 89.220 32.6736
7.071068 89.247 32.6330
7.122308 89.274 32.5921
7.173919 89.300 32.5510
7.225904 89.326 32.5097
7.278266 89.353 32.4680
7.331007 89.379 32.4256
7.384131 89.406 32.3830
7.437639 89.432 32.3406
7.491535 89.459 32.2980
7.545822 89.486 32.2548
7.600502 89.513 32.2110
7.655579 89.540 32.1666
7.711054 89.566 32.1220
7.766932 89.592 32.0776
7.823214 89.619 32.0330
7.879904 89.645 31.9878
7.937005 89.672 31.9420
7.994520 89.698 31.8957
8.052452 89.725 31.8490
8.110803 89.752 31.8021
8.169578 89.779 31.7550
8.228777 89.806 31.7077
8.288406 89.832 31.6600
8.348468 89.858 31.6117
8.408964 89.885 31.5630
8.469899 89.911 31.5142
8.531276 89.938 31.4650
8.593097 89.964 31.4152
8.655366 89.991 31.3650
8.718086 90.018 31.3147
8.781260 90.045 31.2640
8.844893 90.072 31.2128
8.908987 90.098 31.1610
8.973545 90.124 31.1087
9.038571 90.151 31.0560
9.104069 90.177 31.0032
9.170040 90.204 30.9500
9.236490 90.230 30.8962
9.303422 90.257 30.8420
9.370838 90.283 30.7877
9.438744 90.310 30.7330
9.507140 90.337 30.6778
9.576033 90.364 30.6220
9.645425 90.391 30.5658
9.715320 90.417 30.5090
9.785721 90.443 30.4518
9.856632 90.470 30.3940
9.928058 90.496 30.3357
10.000000 90.523 30.2770
10.072464 90.549 30.2183
10.145453 90.576 30.1591
10.218971 90.603 30.0988
10.293022 90.630 30.0380
10.367610 90.657 29.9772
10.442738 90.683 29.9160
10.518411 90.709 29.8543
10.594631 90.736 29.7920
10.671404 90.762 29.7288
10.748734 90.789 29.6650
10.826623 90.815 29.6013
10.905077 90.842 29.5371
10.984100 90.869 29.4718
11.063695 90.896 29.4060
11.143867 90.923 29.3403
11.224621 90.949 29.2740
11.305959 90.975 29.2069
11.387886 91.002 29.1391
11.470407 91.028 29.0708
11.553527 91.055 29.0020
11.637249 91.081 28.9323
11.721577 91.108 28.8621
11.806517 91.135 28.7919
11.892071 91.162 28.7211
11.978246 91.189 28.6489
12.065045 91.215 28.5760
12.152473 91.241 28.5033
12.240536 91.268 28.4300
12.329235 91.294 28.3559
12.418578 91.321 28.2811
12.508568 91.347 28.2054
12.599211 91.374 28.1290
12.690510 91.401 28.0524
12.782471 91.428 27.9751
12.875097 91.455 27.8969
12.968395 91.481 27.8181
13.062370 91.507 27.7384
13.157025 91.534 27.6580
13.252366 91.560 27.5774
13.348398 91.587 27.4961
13.445127 91.613 27.4140
13.542556 91.640 27.3311
13.640691 91.667 27.2475
13.739536 91.694 27.1630
13.839099 91.721 27.0774
13.939383 91.747 26.9911
14.040393 91.773 26.9044
14.142136 91.800 26.8170
14.244616 91.826 26.7290
14.347837 91.853 26.6400
14.451808 91.879 26.5500
14.556532 91.906 26.4590
14.662014 91.933 26.3675
14.768262 91.960 26.2751
14.875278 91.987 26.1815
14.983070 92.013 26.0871
15.091644 92.039 25.9920
15.201005 92.066 25.8961
15.311157 92.092 25.7991
15.422109 92.119 25.7011
15.533863 92.145 25.6020
15.646428 92.172 25.5021
15.759809 92.199 25.4016
15.874010 92.226 25.3001
15.989040 92.253 25.1971
16.104904 92.279 25.0931
16.221605 92.305 24.9886
16.339155 92.332 24.8831
16.457554 92.358 24.7762
16.576813 92.385 24.6681
16.696936 92.411 24.5591
16.817928 92.438 24.4491
16.939798 92.465 24.3377
17.062551 92.492 24.2251
17.186193 92.519 24.1117
17.310732 92.545 23.9971
17.436172 92.571 23.8807
17.562521 92.598 23.7631
17.689787 92.624 23.6447
17.817974 92.651 23.5251
17.947090 92.677 23.4038
18.077143 92.704 23.2811
18.208138 92.731 23.1574
18.340080 92.758 23.0321
18.472980 92.785 22.9049
18.606844 92.811 22.7761
18.741676 92.837 22.6460
18.877487 92.864 22.5141
19.014280 92.891 22.3797
19.152065 92.917 22.2432
19.290850 92.943 22.1047
19.430639 92.969 21.9651
19.571442 92.995 21.8246
19.713264 93.020 21.6842
19.856115 93.045 21.5441
20.000000 93.069 21.4061
20.144928 93.094 21.2733
20.290907 93.119 21.1421
20.437943 93.146 21.0107
20.586044 93.173 20.8781
20.735220 93.201 20.7429
20.885475 93.229 20.6052
21.036821 93.258 20.4655
21.189262 93.289 20.3202
21.342808 93.321 20.1661
21.497467 93.354 20.0022
21.653246 93.387 19.8257
21.810154 93.419 19.6393
21.968201 93.450 19.4446
22.127390 93.480 19.2422
22.287735 93.510 19.0336
22.449242 93.540 18.8182
22.611917 93.568 18.5954
22.775772 93.595 18.3673
22.940815 93.621 18.1357
23.107054 93.646 17.9003
23.274498 93.671 17.6619
23.443153 93.696 17.4193
23.613033 93.720 17.1713
23.784142 93.742 16.9192
23.956491 93.763 16.6637
24.130091 93.783 16.4053
24.304947 93.801 16.1446
24.481071 93.819 15.8823
24.658470 93.836 15.6200
24.837156 93.852 15.3564
25.017136 93.867 15.0899
25.198421 93.880 14.8233
25.381020 93.891 14.5586
25.564941 93.901 14.2962
25.750195 93.911 14.0371
25.936790 93.920 13.7813
26.124741 93.927 13.5283
26.314051 93.932 13.2813
26.504732 93.936 13.0433
26.696796 93.940 12.8143
26.890253 93.944 12.5967
27.085112 93.949 12.3862
27.281382 93.955 12.1800
27.479073 93.963 11.9753
27.678198 93.971 11.7684
27.878765 93.980 11.5593
28.080786 93.989 11.3464
28.284271 93.997 11.1303
28.489231 94.005 10.9104
28.695675 94.013 10.6893
28.903616 94.019 10.4681
29.113064 94.025 10.2503
29.324028 94.029 10.0402
29.536524 94.033 9.8362
29.750557 94.040 9.6402
29.966141 94.048 9.4462
30.183289 94.058 9.2505
30.402010 94.070 9.0483
30.622314 94.084 8.8345
30.844217 94.100 8.6053
31.067726 94.116 8.3547
31.292856 94.132 8.0844
31.519617 94.146 7.7922
31.748020 94.158 7.4834
31.978081 94.165 7.1599
32.209808 94.169 6.8294
32.443211 94.168 6.4992
32.678310 94.164 6.1724
32.915108 94.156 5.8536
33.153625 94.146 5.5454
33.393871 94.133 5.2517
33.635857 94.119 4.9734
33.879597 94.104 4.7151
34.125103 94.090 4.4693
34.372387 94.078 4.2316
34.621464 94.067 3.9984
34.872345 94.056 3.7648
35.125042 94.046 3.5303
35.379574 94.037 3.2932
35.635948 94.028 3.0513
35.894180 94.018 2.8004
36.154285 94.007 2.5444
36.416275 93.993 2.2846
36.680161 93.977 2.0244
36.945961 93.960 1.7667
37.213688 93.940 1.5144
37.483353 93.916 1.2702
37.754974 93.891 1.0373
38.028561 93.865 0.8212
38.304131 93.839 0.6173
38.581699 93.813 0.4228
38.861279 93.788 0.2373
39.142883 93.762 0.0600
39.426529 93.737 -0.1108
39.712231 93.712 -0.2776
40.000000 93.687 -0.4388
40.289856 93.660 -0.5940
40.581814 93.633 -0.7418
40.875885 93.607 -0.8802
41.172089 93.580 -1.0108
41.470440 93.553 -1.1352
41.770950 93.526 -1.2518
42.073643 93.499 -1.3591
42.378525 93.473 -1.4589
42.685616 93.448 -1.5517
42.994934 93.424 -1.6399
43.306492 93.401 -1.7257
43.620308 93.378 -1.8089
43.936401 93.356 -1.8897
44.254780 93.335 -1.9689
44.575470 93.314 -2.0465
44.898483 93.294 -2.1249
45.223835 93.275 -2.2057
45.551544 93.257 -2.2909
45.881630 93.239 -2.3835
46.214108 93.221 -2.4818
46.548996 93.202 -2.5846
46.886307 93.182 -2.6938
47.226067 93.162 -2.8126
47.568283 93.140 -2.9358
47.912983 93.114 -3.0615
48.260181 93.085 -3.1838
48.609894 93.053 -3.2968
48.962143 93.019 -3.3989
49.316940 92.983 -3.4879
49.674313 92.944 -3.5599
50.034271 92.904 -3.6101
50.396843 92.862 -3.6390
50.762039 92.821 -3.6441
51.129883 92.780 -3.6290
51.500389 92.741 -3.5954
51.873581 92.703 -3.5461
52.249481 92.667 -3.4845
52.628101 92.632 -3.4101
53.009464 92.597 -3.3231
53.393593 92.564 -3.2252
53.780506 92.534 -3.1179
54.170223 92.505 -3.0022
54.562763 92.476 -2.8803
54.958145 92.448 -2.7492
55.356396 92.420 -2.6063
55.757530 92.394 -2.4523
56.161572 92.370 -2.2867
56.568542 92.347 -2.1103
56.978462 92.325 -1.9237
57.391350 92.305 -1.7274
57.807232 92.288 -1.5211
58.226128 92.274 -1.3074
58.648056 92.262 -1.0886
59.073048 92.252 -0.8644
59.501114 92.243 -0.6349
59.932281 92.237 -0.4014
60.366577 92.234 -0.1656
60.804020 92.234 0.0736
61.244629 92.234 0.3161
61.688435 92.236 0.5636
62.135452 92.241 0.8176
62.585712 92.248 1.0775
63.039234 92.258 1.3435
63.496040 92.271 1.6145
63.956161 92.288 1.8911
64.419617 92.310 2.1685
64.886421 92.337 2.4441
65.356621 92.369 2.7125
65.830215 92.406 2.9688
66.307251 92.447 3.2095
66.787743 92.493 3.4304
67.271713 92.543 3.6297
67.759193 92.595 3.8045
68.250206 92.651 3.9537
68.744774 92.710 4.0754
69.242928 92.771 4.1689
69.744690 92.833 4.2321
70.250084 92.896 4.2670
70.759148 92.959 4.2748
71.271896 93.022 4.2551
71.788361 93.087 4.2074
72.308571 93.151 4.1332
72.832550 93.213 4.0326
73.360321 93.275 3.9083
73.891922 93.336 3.7630
74.427376 93.396 3.5953
74.966705 93.456 3.4042
75.509949 93.515 3.1904
76.057121 93.572 2.9540
76.608261 93.627 2.6965
77.163399 93.681 2.4203
77.722557 93.733 2.1236
78.285767 93.784 1.8046
78.853058 93.832 1.4667
79.424461 93.876 1.1116
80.000000 93.917 0.7437
80.579712 93.955 0.3687
81.163628 93.991 -0.0153
81.751770 94.026 -0.4080
82.344177 94.059 -0.8102
82.940880 94.089 -1.2227
83.541901 94.118 -1.6442
84.147285 94.145 -2.0720
84.757050 94.171 -2.5111
85.371231 94.196 -2.9668
85.989868 94.219 -3.4360
86.612984 94.237 -3.9190
87.240616 94.253 -4.4120
87.872803 94.266 -4.9109
88.509560 94.277 -5.4180
89.150940 94.285 -5.9343
89.796967 94.291 -6.4589
90.447670 94.294 -6.9902
91.103088 94.294 -7.5308
91.763260 94.293 -8.0821
92.428215 94.289 -8.6458
93.097992 94.282 -9.2256
93.772614 94.270 -9.8178
94.452133 94.253 -10.4208
95.136566 94.230 -11.0317
95.825966 94.202 -11.6492
96.520363 94.168 -12.2667
97.219788 94.126 -12.8796
97.924286 94.077 -13.4807
98.633881 94.021 -14.0627
99.348625 93.958 -14.6209
100.068542 93.890 -15.1496
100.793686 93.817 -15.6448
101.524078 93.738 -16.1013
102.259766 93.656 -16.5170
103.000778 93.572 -16.8878
103.747162 93.487 -17.2154
104.498962 93.402 -17.4990
105.256203 93.317 -17.7426
106.018929 93.235 -17.9467
106.787186 93.156 -18.1207
107.561012 93.082 -18.2714
108.340446 93.013 -18.4068
109.125526 92.948 -18.5355
109.916290 92.887 -18.6628
110.712791 92.829 -18.7960
111.515060 92.774 -18.9377
112.323143 92.720 -19.0940
113.137085 92.666 -19.2616
113.956924 92.610 -19.4400
114.782700 92.553 -19.6265
115.614464 92.494 -19.8196
116.452255 92.433 -20.0156
117.296112 92.369 -20.2112
118.146095 92.302 -20.4036
119.002228 92.233 -20.5887
119.864563 92.161 -20.7665
120.733154 92.087 -20.9373
121.608040 92.010 -21.0967
122.489258 91.930 -21.2409
123.376869 91.847 -21.3687
124.270905 91.764 -21.4773
125.171425 91.678 -21.5669
126.078468 91.590 -21.6370
126.992081 91.501 -21.6859
127.912323 91.411 -21.7106
128.839233 91.321 -21.7140
129.772842 91.233 -21.6975
130.713242 91.144 -21.6631
131.660431 91.055 -21.6138
132.614502 90.965 -21.5482
133.575485 90.876 -21.4657
134.543427 90.787 -21.3672
135.518387 90.699 -21.2542
136.500412 90.610 -21.1253
137.489548 90.520 -20.9802
138.485855 90.430 -20.8174
139.489380 90.341 -20.6353
140.500168 90.251 -20.4345
141.518295 90.162 -20.2158
142.543793 90.072 -19.9776
143.576721 89.983 -19.7188
144.617142 89.893 -19.4387
145.665100 89.804 -19.1373
146.720642 89.715 -18.8119
147.783844 89.626 -18.4599
148.854752 89.538 -18.0800
149.933411 89.451 -17.6702
151.019897 89.366 -17.2311
152.114243 89.284 -16.7614
153.216522 89.205 -16.2654
154.326797 89.131 -15.7457
155.445114 89.061 -15.2063
156.571533 88.995 -14.6509
157.706116 88.933 -14.0823
158.848923 88.876 -13.5037
160.000000 88.823 -12.9174
161.159424 88.774 -12.3278
162.327255 88.728 -11.7323
163.503540 88.684 -11.1304
164.688354 88.643 -10.5213
165.881760 88.605 -9.9032
167.083801 88.570 -9.2787
168.294571 88.539 -8.6499
169.514099 88.511 -8.0166
170.742462 88.486 -7.3795
171.979736 88.463 -6.7367
173.225967 88.443 -6.0856
174.481232 88.426 -5.4285
175.745605 88.413 -4.7683
177.019119 88.404 -4.1016
178.301880 88.396 -3.4265
179.593933 88.392 -2.7418
180.895340 88.392 -2.0433
182.206177 88.398 -1.3387
183.526520 88.412 -0.6331
184.856430 88.432 0.0694
186.195984 88.457 0.7646
187.545227 88.488 1.4474
188.904266 88.527 2.1133
190.273132 88.572 2.7565
191.651932 88.622 3.3689
193.040726 88.675 3.9524
194.439575 88.730 4.5058
195.848572 88.788 5.0306
197.267761 88.849 5.5273
198.697250 88.911 5.9969
200.137085 88.973 6.4390
201.587372 89.037 6.8570
203.048157 89.101 7.2550
204.519531 89.166 7.6309
206.001556 89.234 7.9842
207.494324 89.303 8.3142
208.997925 89.371 8.6194
210.512405 89.440 8.9024
212.037857 89.508 9.1659
213.574371 89.577 9.4084
215.122025 89.647 9.6295
216.680893 89.717 9.8285
218.251053 89.787 10.0040
219.832581 89.856 10.1586
221.425583 89.924 10.2942
223.030121 89.991 10.4107
224.646286 90.058 10.5095
226.274170 90.124 10.5888
227.913849 90.190 10.6474
229.565399 90.256 10.6849
231.228928 90.320 10.6996
232.904510 90.382 10.6950
234.592224 90.440 10.6743
236.292191 90.497 10.6381
238.004456 90.552 10.5882
239.729126 90.606 10.5242
241.466309 90.657 10.4457
243.216080 90.705 10.3553
244.978516 90.750 10.2544
246.753738 90.792 10.1463
248.541809 90.831 10.0341
250.342850 90.867 9.9193
252.156937 90.901 9.8043
253.984161 90.932 9.6893
255.824646 90.961 9.5745
257.678467 90.988 9.4623
259.545685 91.013 9.3556
261.426483 91.036 9.2533
263.320862 91.058 9.1548
265.229004 91.079 9.0613
267.150970 91.098 8.9731
269.086853 91.115 8.8912
271.036774 91.132 8.8175
273.000824 91.149 8.7492
274.979095 91.166 8.6834
276.971710 91.183 8.6232
278.978760 91.197 8.5711
281.000336 91.211 8.5251
283.036591 91.228 8.4862
285.087585 91.247 8.4481
287.153442 91.266 8.4044
289.234283 91.285 8.3561
291.330200 91.304 8.3019
293.441284 91.323 8.2422
295.567688 91.341 8.1767
297.709503 91.359 8.1062
299.866821 91.376 8.0301
302.039795 91.391 7.9522
304.228485 91.403 7.8758
306.433044 91.414 7.8022
308.653595 91.425 7.7342
310.890228 91.436 7.6702
313.143066 91.447 7.6095
315.412231 91.457 7.5522
317.697845 91.467 7.4985
320.000000 91.477 7.4471
322.318848 91.488 7.3982
324.654510 91.499 7.3482
327.007080 91.511 7.2937
329.376709 91.523 7.2352
331.763519 91.534 7.1715
334.167603 91.545 7.1042
336.589142 91.555 7.0346
339.028198 91.564 6.9622
341.484924 91.573 6.8870
343.959473 91.582 6.8092
346.451935 91.589 6.7277
348.962463 91.594 6.6462
351.491211 91.597 6.5682
354.038239 91.599 6.4942
356.603760 91.600 6.4264
359.187866 91.601 6.3642
361.790680 91.601 6.3080
364.412354 91.601 6.2571
367.053040 91.601 6.2115
369.712860 91.601 6.1701
372.391968 91.601 6.1320
375.090454 91.601 6.0971
377.808533 91.601 6.0649
380.546265 91.601 6.0351
383.303864 91.601 6.0070
386.081451 91.601 5.9811
388.879150 91.601 5.9576
391.697144 91.601 5.9361
394.535522 91.601 5.9157
397.394501 91.601 5.8971
400.274170 91.601 5.8804
403.174744 91.601 5.8650
406.096313 91.601 5.8504
409.039062 91.601 5.8370
412.003113 91.601 5.8255
414.988647 91.601 5.8150
417.995850 91.601 5.8051
421.024811 91.601 5.7960
424.075714 91.601 5.7881
427.148743 91.601 5.7810
430.244049 91.601 5.7746
433.361786 91.601 5.7690
436.502106 91.601 5.7643
439.665161 91.601 5.7600
442.851166 91.601 5.7555
446.060242 91.601 5.7510
449.292572 91.601 5.7471
452.548340 91.601 5.7430
455.827698 91.601 5.7386
459.130798 91.601 5.7330
462.457855 91.601 5.7255
465.809021 91.601 5.7160
469.184448 91.600 5.7041
472.584381 91.599 5.6900
476.008911 91.597 5.6730
479.458252 91.594 5.6561
482.932617 91.589 5.6409
486.432159 91.582 5.6310
489.957031 91.573 5.6309
493.507477 91.564 5.6400
497.083618 91.555 5.6590
500.685699 91.547 5.6879
504.313873 91.538 5.7273
507.968323 91.530 5.7758
511.649292 91.523 5.8337
515.356934 91.518 5.8968
519.091370 91.515 5.9613
522.852966 91.513 6.0258
526.641724 91.512 6.0873
530.458008 91.511 6.1468
534.301941 91.511 6.2044
538.173706 91.511 6.2598
542.073547 91.511 6.3125
546.001648 91.511 6.3638
549.958191 91.511 6.4151
553.943420 91.511 6.4658
557.957520 91.511 6.5160
562.000671 91.511 6.5658
566.073181 91.511 6.6154
570.175171 91.511 6.6648
574.306885 91.511 6.7144
578.468567 91.511 6.7638
582.660400 91.511 6.8133
586.882568 91.511 6.8618
591.135376 91.511 6.9086
595.419006 91.511 6.9538
599.733643 91.511 6.9976
604.079590 91.510 7.0399
608.456970 91.509 7.0799
612.866089 91.506 7.1199
617.307190 91.502 7.1604
621.780457 91.496 7.2048
626.286133 91.489 7.2566
630.824463 91.481 7.3168
635.395691 91.473 7.3879
640.000000 91.464 7.4697
644.637695 91.455 7.5633
649.309021 91.447 7.6676
654.014160 91.439 7.7828
658.753418 91.433 7.9066
663.527039 91.428 8.0374
668.335205 91.425 8.1725
673.178284 91.423 8.3089
678.056396 91.422 8.4465
682.969849 91.421 8.5843
687.918945 91.421 8.7235
692.903870 91.421 8.8644
697.924927 91.421 9.0085
702.982422 91.421 9.1571
708.076477 91.421 9.3114
713.207520 91.422 9.4726
718.375732 91.423 9.6414
723.581360 91.425 9.8197
728.824707 91.428 10.0053
734.106079 91.434 10.1976
739.425720 91.442 10.3933
744.783936 91.452 10.5893
750.180908 91.464 10.7843
755.617065 91.478 10.9768
761.092529 91.495 11.1643
766.607727 91.513 11.3441
772.162903 91.533 11.5164
777.758301 91.552 11.6801
783.394287 91.572 11.8375
789.071045 91.593 11.9913
794.789001 91.614 12.1395
800.548340 91.636 12.2801
806.349487 91.659 12.4145
812.192627 91.681 12.5434
818.078125 91.704 12.6666
824.006226 91.727 12.7845
829.977295 91.751 12.8956
835.991699 91.774 12.9970
842.049622 91.797 13.0927
848.151428 91.818 13.1849
854.297485 91.838 13.2757
860.488098 91.858 13.3675
866.723572 91.877 13.4607
873.004211 91.896 13.5555
879.330322 91.914 13.6536
885.702332 91.932 13.7577
892.120483 91.950 13.8656
898.585144 91.970 13.9760
905.096680 91.990 14.0886
911.655396 92.010 14.2025
918.261597 92.031 14.3176
924.915710 92.052 14.4334
931.618042 92.074 14.5496
938.368896 92.097 14.6657
945.168762 92.120 14.7816
952.017822 92.144 14.8967
958.916504 92.169 15.0116
965.865234 92.194 15.1268
972.864319 92.219 15.2416
979.914062 92.245 15.3557
987.014954 92.272 15.4686
994.167236 92.300 15.5789
1001.371399 92.328 15.6886
1008.627747 92.356 15.8005
1015.936646 92.385 15.9115
1023.298584 92.417 16.0205
1030.713867 92.451 16.1247
1038.182739 92.484 16.2211
1045.705933 92.519 16.3096
1053.283447 92.555 16.3899
1060.916016 92.592 16.4597
1068.603882 92.629 16.5160
1076.347412 92.666 16.5608
1084.147095 92.701 16.5951
1092.003296 92.736 16.6199
1099.916382 92.771 16.6361
1107.886841 92.804 16.6450
1115.915039 92.834 16.6469
1124.001343 92.862 16.6460
1132.146362 92.889 16.6473
1140.350342 92.914 16.6490
1148.613770 92.938 16.6494
1156.937134 92.961 16.6530
1165.320801 92.980 16.6620
1173.765137 92.997 16.6819
1182.270752 93.011 16.7191
1190.838013 93.025 16.7727
1199.467285 93.039 16.8440
1208.159180 93.054 16.9336
1216.913940 93.068 17.0432
1225.732178 93.083 17.1715
1234.614380 93.101 17.3198
1243.560913 93.122 17.4814
1252.572266 93.147 17.6511
1261.648926 93.175 17.8253
1270.791382 93.205 17.9984
1280.000000 93.238 18.1713
1289.275391 93.272 18.3426
1298.618042 93.307 18.5133
1308.028320 93.344 18.6840
1317.506836 93.382 18.8553
1327.054077 93.421 19.0282
1336.670410 93.462 19.2023
1346.356567 93.505 19.3776
1356.112793 93.551 19.5534
1365.939697 93.597 19.7287
1375.837891 93.645 19.9043
1385.807739 93.695 20.0819
1395.849854 93.748 20.2573
1405.964844 93.804 20.4268
1416.152954 93.863 20.5904
1426.415039 93.922 20.7459
1436.751465 93.982 20.8964
1447.162720 94.043 21.0445
1457.649414 94.107 21.1894
1468.212158 94.172 21.3309
1478.851440 94.239 21.4695
1489.567871 94.307 21.6051
1500.361816 94.378 21.7385
1511.234131 94.450 21.8710
1522.185059 94.526 22.0004
1533.215454 94.604 22.1254
1544.325806 94.686 22.2455
1555.516602 94.770 22.3615
1566.788574 94.859 22.4686
1578.142090 94.952 22.5638
1589.578003 95.051 22.6417
1601.096680 95.152 22.6964
1612.698975 95.258 22.7269
1624.385254 95.366 22.7300
1636.156250 95.477 22.7072
1648.012451 95.587 22.6602
1659.954590 95.701 22.5853
1671.983398 95.819 22.4803
1684.099243 95.940 22.3426
1696.302856 96.061 22.1685
1708.594971 96.183 21.9590
1720.976196 96.308 21.7164
1733.447144 96.433 21.4333
1746.008423 96.561 21.1042
1758.660645 96.689 20.7267
1771.404663 96.815 20.2957
1784.240967 96.939 19.8141
1797.170288 97.061 19.2825
1810.193359 97.180 18.7014
1823.310791 97.293 18.0699
1836.523193 97.401 17.3928
1849.831421 97.501 16.6741
1863.236084 97.596 15.9155
1876.737793 97.683 15.1178
1890.337524 97.763 14.2867
1904.035645 97.831 13.4252
1917.833008 97.889 12.5425
1931.730469 97.936 11.6465
1945.728638 97.972 10.7449
1959.828125 97.995 9.8430
1974.029907 98.006 8.9557
1988.334473 98.003 8.0944
2002.742798 97.986 7.2752
2017.255493 97.956 6.5144
2031.873291 97.916 5.8236
2046.597168 97.867 5.2175
2061.427734 97.811 4.7031
2076.365479 97.750 4.2915
2091.411865 97.687 3.9850
2106.566895 97.625 3.7929
2121.832031 97.568 3.7052
2137.207764 97.521 3.7201
2152.694824 97.486 3.8224
2168.294189 97.465 4.0036
2184.006592 97.460 4.2418
2199.832764 97.476 4.5201
2215.773682 97.511 4.8148
2231.830078 97.565 5.1007
2248.002686 97.637 5.3650
2264.292725 97.723 5.5901
2280.700684 97.824 5.7654
2297.227539 97.938 5.8749
2313.874268 98.061 5.9160
2330.641602 98.190 5.8791
2347.530273 98.323 5.7696
2364.541504 98.460 5.5883
2381.676025 98.598 5.3393
2398.934570 98.738 5.0249
2416.318359 98.877 4.6508
2433.827881 99.016 4.2233
2451.464355 99.153 3.7431
2469.228760 99.292 3.2133
2487.121826 99.430 2.6336
2505.144531 99.568 2.0043
2523.297852 99.705 1.3262
2541.582764 99.842 0.6018
2560.000000 99.978 -0.1744
2578.550781 100.116 -1.0057
2597.236084 100.253 -1.8967
2616.056641 100.388 -2.8547
2635.013672 100.518 -3.8755
2654.108154 100.644 -4.9583
2673.340820 100.763 -6.0999
2692.713135 100.878 -7.2982
2712.225586 100.986 -8.5490
2731.879395 101.084 -9.8507
2751.675781 101.175 -11.1937
2771.615479 101.256 -12.5685
2791.699707 101.330 -13.9727
2811.929688 101.398 -15.3993
2832.305908 101.460 -16.8531
2852.830078 101.516 -18.3339
2873.502930 101.568 -19.8493
2894.325439 101.617 -21.4035
2915.298828 101.661 -23.0066
2936.424316 101.699 -24.6673
2957.702881 101.730 -26.3933
2979.135742 101.753 -28.1931
3000.723633 101.764 -30.0726
3022.468262 101.762 -32.0446
3044.370117 101.741 -34.0953
3066.430908 101.694 -36.2282
3088.651611 101.617 -38.4072
3111.033203 101.508 -40.6185
3133.577148 101.359 -42.7978
3156.284180 101.164 -44.9080
3179.156006 100.923 -46.8523
3202.193359 100.630 -48.5445
3225.397949 100.299 -49.9144
3248.770508 99.935 -50.8601
3272.312500 99.560 -51.3896
3296.024902 99.189 -51.4451
3319.909180 98.849 -51.1233
3343.966797 98.567 -50.4495
3368.198486 98.357 -49.5814
3392.605713 98.247 -48.6355
3417.189941 98.223 -47.7617
3441.952393 98.288 -47.1233
3466.894287 98.412 -46.7976
3492.016846 98.575 -46.9238
3517.321289 98.748 -47.4784
3542.809326 98.902 -48.5188
3568.481934 99.024 -49.9396
3594.340576 99.089 -51.6957
3620.386719 99.098 -53.6623
3646.621582 99.038 -55.7289
3673.046387 98.919 -57.8072
3699.662842 98.742 -59.7868
3726.472168 98.515 -61.6239
3753.475586 98.244 -63.2452
3780.675049 97.937 -64.6304
3808.071289 97.602 -65.7329
3835.666016 97.248 -66.5597
3863.460938 96.885 -67.0950
3891.457275 96.520 -67.3614
3919.656250 96.159 -67.3703
3948.059814 95.808 -67.1406
3976.668945 95.470 -66.6877
4005.485596 95.150 -66.0337
4034.510986 94.853 -65.1992
4063.746582 94.581 -64.2041
4093.194336 94.335 -63.0740
4122.855469 94.115 -61.8115
4152.730957 93.919 -60.4252
4182.823730 93.754 -58.9214
4213.133789 93.623 -57.2948
4243.664062 93.534 -55.5872
4274.415527 93.498 -53.8154
4305.389648 93.517 -52.0505
4336.588379 93.598 -50.3443
4368.013184 93.735 -48.7730
4399.665527 93.930 -47.4109
4431.547363 94.166 -46.3166
4463.660156 94.434 -45.5723
4496.005371 94.716 -45.1820
4528.585449 94.989 -45.1953
4561.401367 95.245 -45.5565
4594.455078 95.468 -46.2528
4627.748535 95.655 -47.2029
4661.283203 95.795 -48.3480
4695.060547 95.891 -49.6067
4729.083008 95.940 -50.8918
4763.352051 95.953 -52.1601
4797.869141 95.935 -53.3419
4832.636719 95.892 -54.4308
4867.655762 95.832 -55.3945
4902.928711 95.760 -56.2421
4938.457520 95.683 -56.9656
4974.243652 95.604 -57.5853
5010.289062 95.529 -58.1147
5046.595703 95.457 -58.5669
5083.165527 95.389 -58.9575
5120.000000 95.324 -59.2915
5157.101562 95.266 -59.5782
5194.472168 95.213 -59.8209
5232.113281 95.165 -60.0256
5270.027344 95.124 -60.1932
5308.216309 95.091 -60.3226
5346.681641 95.068 -60.4255
5385.426270 95.058 -60.5060
5424.451172 95.062 -60.5876
5463.758789 95.084 -60.6867
5503.351562 95.122 -60.8292
5543.230957 95.176 -61.0381
5583.399414 95.244 -61.3373
5623.859375 95.323 -61.7552
5664.611816 95.409 -62.3010
5705.660156 95.493 -62.9978
5747.005859 95.573 -63.8324
5788.650879 95.640 -64.8077
5830.597656 95.692 -65.8961
5872.848633 95.723 -67.0831
5915.405762 95.731 -68.3315
5958.271484 95.713 -69.6100
6001.447266 95.672 -70.8855
6044.936523 95.607 -72.1213
6088.740234 95.522 -73.2963
6132.861816 95.420 -74.3798
6177.303223 95.306 -75.3633
6222.066406 95.181 -76.2258
6267.154297 95.054 -76.9745
6312.568359 94.928 -77.6031
6358.312012 94.810 -78.1326
6404.386719 94.703 -78.5723
6450.795898 94.609 -78.9522
6497.541016 94.534 -79.2959
6544.625000 94.474 -79.6323
6592.049805 94.433 -79.9911
6639.818359 94.405 -80.3928
6687.933594 94.390 -80.8677
6736.396973 94.381 -81.4150
6785.211426 94.373 -82.0495
6834.379883 94.363 -82.7542
6883.904785 94.346 -83.5238
6933.788574 94.323 -84.3367
6984.033691 94.291 -85.1748
7034.642578 94.252 -86.0218
7085.618652 94.208 -86.8539
7136.963867 94.163 -87.6749
7188.681152 94.122 -88.4725
7240.773438 94.088 -89.2719
7293.243164 94.068 -90.0798
7346.092773 94.062 -90.9405
7399.325684 94.077 -91.8849
7452.944336 94.107 -92.9612
7506.951172 94.152 -94.2162
7561.350098 94.205 -95.6848
7616.142578 94.258 -97.4118
7671.332031 94.302 -99.4149
7726.921875 94.330 -101.7382
7782.914551 94.326 -104.3468
7839.312500 94.274 -107.2483
7896.119629 94.167 -110.3611
7953.337891 93.994 -113.6553
8010.971191 93.744 -116.9825
8069.021973 93.397 -120.2402
8127.493164 92.961 -123.2589
8186.388672 92.431 -125.8624
8245.710938 91.821 -127.9674
8305.461914 91.140 -129.4431
8365.647461 90.400 -130.2585
8426.267578 89.604 -130.3094
8487.328125 88.800 -129.6850
8548.831055 88.025 -128.3698
8610.779297 87.311 -126.5775
8673.176758 86.706 -124.4669
8736.026367 86.197 -122.1915
8799.331055 85.786 -119.9299
8863.094727 85.462 -117.7650
8927.320312 85.226 -115.8478
8992.010742 85.033 -114.1504
9057.170898 84.841 -112.7528
9122.802734 84.632 -111.4796
9188.910156 84.374 -110.2470
9255.497070 84.072 -108.8563
9322.566406 83.706 -107.1175
9390.121094 83.311 -104.9181
9458.166016 82.891 -102.0464
9526.704102 82.511 -98.6106
9595.738281 82.227 -94.5622
9665.273438 82.071 -90.1638
9735.311523 82.100 -85.5783
9805.857422 82.294 -81.0629
9876.915039 82.675 -76.8580
9948.487305 83.180 -73.1781
10020.578125 83.777 -70.3129
10093.191406 84.401 -68.2766
10166.331055 84.982 -67.2519
10240.000000 85.502 -67.0203
10314.203125 85.921 -67.5081
10388.944336 86.245 -68.4577
10464.226562 86.465 -69.6534
10540.054688 86.596 -70.8919
10616.432617 86.639 -71.9280
10693.363281 86.627 -72.6727
10770.852539 86.581 -72.9326
10848.902344 86.539 -72.7789
10927.517578 86.541 -72.1713
11006.703125 86.605 -71.2566
11086.461914 86.760 -70.1071
11166.798828 87.011 -68.9095
11247.718750 87.385 -67.8230
11329.223633 87.845 -67.0042
11411.320312 88.376 -66.6444
11494.011719 88.947 -66.7986
11577.301758 89.528 -67.5863
11661.195312 90.102 -69.0043
11745.697266 90.649 -71.1105
11830.811523 91.150 -73.8396
11916.542969 91.584 -77.1804
12002.894531 91.947 -81.0254
12089.873047 92.231 -85.2869
12177.480469 92.437 -89.8940
12265.723633 92.565 -94.7718
12354.606445 92.608 -99.8451
12444.132812 92.558 -105.0433
12534.308594 92.417 -110.2777
12625.136719 92.188 -115.4735
12716.624023 91.865 -120.5189
12808.773438 91.441 -125.3343
12901.591797 90.914 -129.7484
12995.082031 90.278 -133.6076
13089.250000 89.545 -136.7751
13184.099609 88.721 -139.0778
13279.636719 87.822 -140.4733
13375.867188 86.854 -140.8402
13472.793945 85.858 -140.2431
13570.422852 84.855 -138.6376
13668.759766 83.904 -136.2304
13767.809570 83.068 -133.1407
13867.577148 82.362 -129.5916
13968.067383 81.827 -125.8010
14069.285156 81.447 -121.9061
14171.237305 81.229 -118.0935
14273.927734 81.143 -114.4318
14377.362305 81.167 -111.0502
14481.546875 81.280 -107.9512
14586.486328 81.453 -105.1795
14692.185547 81.687 -102.7352
14798.651367 81.976 -100.6186
14905.888672 82.312 -98.8770
15013.902344 82.693 -97.5418
15122.700195 83.100 -96.6606
15232.285156 83.521 -96.2933
15342.664062 83.935 -96.4346
15453.843750 84.319 -97.1241
15565.829102 84.662 -98.2875
15678.625000 84.949 -99.9024
15792.239258 85.175 -101.8487
15906.675781 85.329 -104.0379
16021.942383 85.418 -106.3513
16138.043945 85.438 -108.6597
16254.986328 85.405 -110.9053
16372.777344 85.328 -112.9851
16491.421875 85.221 -114.9058
16610.923828 85.097 -116.6228
16731.294922 84.966 -118.1883
16852.535156 84.842 -119.6178
16974.656250 84.728 -120.9779
17097.662109 84.630 -122.3221
17221.558594 84.543 -123.7044
17346.353516 84.470 -125.1857
17472.052734 84.400 -126.7987
17598.662109 84.330 -128.5984
17726.189453 84.245 -130.5780
17854.640625 84.133 -132.7711
17984.021484 83.984 -135.1097
18114.341797 83.784 -137.5697
18245.605469 83.528 -140.0510
18377.820312 83.209 -142.4893
18510.994141 82.823 -144.7526
18645.132812 82.357 -146.7246
18780.242188 81.826 -148.2928
18916.332031 81.232 -149.2997
19053.408203 80.602 -149.7650
19191.476562 79.958 -149.6263
19330.546875 79.317 -148.9738
19470.623047 78.699 -147.8447
19611.714844 78.125 -146.3395
19753.830078 77.621 -144.5238
19896.974609 77.197 -142.5393
