* Measurement data measured by REW V5.20.13
* Source: C:\Users\kurin\Desktop\Targets and Curves\Resolve\Img\Files\focal elegia_SPL.txt
* Format: Comma/Tab/Space delimited data
* Dated: Aug 14, 2023 3:39:32 PM
* REW Settings:
*  C-weighting compensation: Off
*  Target level: 75.0 dB
* Note: ; Measurement imported from C:\Users\kurin\Desktop\Targets and Curves\Resolve\Img\Files\focal elegia_SPL.txt Format: Comma/Tab/Space delimited data 623 values loaded, 5 Hz to 39,792 Hz log spaced 
* Measurement: focal elegia_SPL
* Smoothing: 1/48 octave
* Frequency Step: 1/96 octave
* Start Frequency: 5.000 Hz
*
* Freq(Hz) SPL(dB) Phase(degrees)
5.000000 80.420 -5.5820
5.036232 80.418 -5.5729
5.072727 80.415 -5.5630
5.109486 80.412 -5.5514
5.146511 80.408 -5.5380
5.183805 80.404 -5.5218
5.221369 80.399 -5.5040
5.259205 80.394 -5.4859
5.297316 80.388 -5.4670
5.335702 80.382 -5.4468
5.374367 80.377 -5.4260
5.413311 80.372 -5.4056
5.452538 80.366 -5.3850
5.492050 80.360 -5.3636
5.531847 80.354 -5.3420
5.571934 80.349 -5.3211
5.612310 80.343 -5.3000
5.652979 80.337 -5.2781
5.693943 80.331 -5.2560
5.735204 80.326 -5.2340
5.776763 80.320 -5.2120
5.818624 80.314 -5.1901
5.860788 80.308 -5.1680
5.903258 80.302 -5.1451
5.946035 80.297 -5.1220
5.989123 80.291 -5.0990
6.032523 80.285 -5.0760
6.076237 80.280 -5.0531
6.120268 80.274 -5.0300
6.164618 80.268 -5.0061
6.209289 80.262 -4.9820
6.254284 80.257 -4.9580
6.299605 80.251 -4.9340
6.345255 80.245 -4.9101
6.391235 80.239 -4.8860
6.437549 80.233 -4.8611
6.484198 80.228 -4.8360
6.531185 80.222 -4.8111
6.578513 80.216 -4.7860
6.626183 80.210 -4.7606
6.674199 80.205 -4.7350
6.722563 80.200 -4.7091
6.771278 80.194 -4.6830
6.820345 80.188 -4.6566
6.869768 80.182 -4.6300
6.919549 80.176 -4.6036
6.969691 80.171 -4.5770
7.020196 80.165 -4.5496
7.071068 80.159 -4.5220
7.122308 80.154 -4.4946
7.173919 80.148 -4.4670
7.225904 80.142 -4.4391
7.278266 80.136 -4.4110
7.331007 80.131 -4.3831
7.384131 80.125 -4.3550
7.437639 80.119 -4.3261
7.491535 80.113 -4.2970
7.545822 80.107 -4.2681
7.600502 80.102 -4.2390
7.655579 80.096 -4.2091
7.711054 80.090 -4.1790
7.766932 80.085 -4.1491
7.823214 80.079 -4.1190
7.879904 80.073 -4.0881
7.937005 80.067 -4.0570
7.994520 80.062 -4.0261
8.052452 80.056 -3.9950
8.110803 80.050 -3.9636
8.169578 80.044 -3.9320
8.228777 80.038 -3.9002
8.288406 80.033 -3.8680
8.348468 80.027 -3.8351
8.408964 80.021 -3.8020
8.469899 80.015 -3.7691
8.531276 80.010 -3.7360
8.593097 80.005 -3.7027
8.655366 79.999 -3.6690
8.718086 79.993 -3.6346
8.781260 79.987 -3.6000
8.844893 79.981 -3.5656
8.908987 79.976 -3.5310
8.973545 79.970 -3.4956
9.038571 79.964 -3.4600
9.104069 79.959 -3.4246
9.170040 79.953 -3.3890
9.236490 79.947 -3.3527
9.303422 79.941 -3.3160
9.370838 79.936 -3.2792
9.438744 79.930 -3.2420
9.507140 79.924 -3.2041
9.576033 79.918 -3.1660
9.645425 79.912 -3.1281
9.715320 79.907 -3.0900
9.785721 79.901 -3.0512
9.856632 79.895 -3.0120
9.928058 79.890 -2.9726
10.000000 79.884 -2.9330
10.072464 79.878 -2.8932
10.145453 79.872 -2.8530
10.218971 79.867 -2.8127
10.293022 79.861 -2.7720
10.367610 79.855 -2.7308
10.442738 79.849 -2.6890
10.518411 79.843 -2.6466
10.594631 79.838 -2.6040
10.671404 79.832 -2.5616
10.748734 79.826 -2.5190
10.826623 79.820 -2.4758
10.905077 79.815 -2.4320
10.984100 79.810 -2.3877
11.063695 79.804 -2.3430
11.143867 79.798 -2.2982
11.224621 79.792 -2.2530
11.305959 79.786 -2.2072
11.387886 79.781 -2.1610
11.470407 79.775 -2.1146
11.553527 79.769 -2.0680
11.637249 79.764 -2.0213
11.721577 79.758 -1.9740
11.806517 79.752 -1.9258
11.892071 79.746 -1.8770
11.978246 79.741 -1.8282
12.065045 79.735 -1.7790
12.152473 79.729 -1.7298
12.240536 79.723 -1.6800
12.329235 79.717 -1.6293
12.418578 79.712 -1.5780
12.508568 79.706 -1.5267
12.599211 79.700 -1.4750
12.690510 79.695 -1.4228
12.782471 79.689 -1.3701
12.875097 79.683 -1.3167
12.968395 79.677 -1.2630
13.062370 79.672 -1.2093
13.157025 79.666 -1.1550
13.252366 79.660 -1.0998
13.348398 79.654 -1.0440
13.445127 79.649 -0.9877
13.542556 79.643 -0.9311
13.640691 79.637 -0.8743
13.739536 79.631 -0.8170
13.839099 79.625 -0.7588
13.939383 79.620 -0.7001
14.040393 79.615 -0.6408
14.142136 79.609 -0.5810
14.244616 79.603 -0.5208
14.347837 79.597 -0.4600
14.451808 79.591 -0.3988
14.556532 79.586 -0.3370
14.662014 79.580 -0.2744
14.768262 79.574 -0.2111
14.875278 79.569 -0.1473
14.983070 79.563 -0.0831
15.091644 79.557 -0.0184
15.201005 79.551 0.0470
15.311157 79.546 0.1131
15.422109 79.540 0.1800
15.533863 79.534 0.2471
15.646428 79.528 0.3150
15.759809 79.522 0.3836
15.874010 79.517 0.4529
15.989040 79.511 0.5226
16.104904 79.505 0.5929
16.221605 79.500 0.6640
16.339155 79.494 0.7359
16.457554 79.488 0.8085
16.576813 79.482 0.8819
16.696936 79.477 0.9561
16.817928 79.471 1.0310
16.939798 79.465 1.1066
17.062551 79.459 1.1829
17.186193 79.453 1.2595
17.310732 79.448 1.3370
17.436172 79.443 1.4155
17.562521 79.437 1.4949
17.689787 79.431 1.5750
17.817974 79.425 1.6559
17.947090 79.420 1.7380
18.077143 79.414 1.8210
18.208138 79.408 1.9046
18.340080 79.402 1.9889
18.472980 79.397 2.0739
18.606844 79.391 2.1599
18.741676 79.385 2.2474
18.877487 79.379 2.3359
19.014280 79.374 2.4253
19.152065 79.368 2.5159
19.290850 79.362 2.6082
19.430639 79.356 2.7019
19.571442 79.351 2.7968
19.713264 79.345 2.8939
19.856115 79.339 2.9936
20.000000 79.333 3.0979
20.144928 79.327 3.2088
20.290907 79.322 3.3259
20.437943 79.319 3.4511
20.586044 79.318 3.5799
20.735220 79.320 3.7132
20.885475 79.326 3.8369
21.036821 79.340 3.9442
21.189262 79.360 4.0139
21.342808 79.386 4.0231
21.497467 79.411 3.9701
21.653246 79.430 3.8408
21.810154 79.441 3.6503
21.968201 79.441 3.3996
22.127390 79.426 3.1163
22.287735 79.390 2.8131
22.449242 79.332 2.5352
22.611917 79.249 2.3208
22.775772 79.147 2.2041
22.940815 79.029 2.2287
23.107054 78.901 2.4046
23.274498 78.768 2.7604
23.443153 78.639 3.2832
23.613033 78.522 3.9815
23.784142 78.424 4.8202
23.956491 78.352 5.7815
24.130091 78.308 6.8208
24.304947 78.299 7.9020
24.481071 78.322 8.9816
24.658470 78.379 10.0160
24.837156 78.464 10.9698
25.017136 78.576 11.8001
25.198421 78.706 12.4854
25.381020 78.849 12.9876
25.564941 78.997 13.3128
25.750195 79.139 13.4456
25.936790 79.271 13.4121
26.124741 79.386 13.2199
26.314051 79.480 12.9085
26.504732 79.547 12.5034
26.696796 79.587 12.0546
26.890253 79.596 11.6074
27.085112 79.579 11.2014
27.281382 79.537 10.8844
27.479073 79.477 10.6762
27.678198 79.402 10.6135
27.878765 79.320 10.6938
28.080786 79.239 10.9346
28.284271 79.163 11.3124
28.489231 79.101 11.8194
28.695675 79.053 12.4251
28.903616 79.026 13.1053
29.113064 79.017 13.8339
29.324028 79.029 14.5815
29.536524 79.059 15.3341
29.750557 79.104 16.0691
29.966141 79.164 16.7832
30.183289 79.236 17.4673
30.402010 79.320 18.1172
30.622314 79.417 18.7292
30.844217 79.527 19.2934
31.067726 79.649 19.8044
31.292856 79.785 20.2444
31.519617 79.935 20.6009
31.748020 80.097 20.8518
31.978081 80.269 20.9737
32.209808 80.445 20.9581
32.443211 80.620 20.7866
32.678310 80.791 20.4655
32.915108 80.952 19.9892
33.153625 81.099 19.3758
33.393871 81.227 18.6317
33.635857 81.334 17.7863
33.879597 81.416 16.8612
34.125103 81.474 15.8863
34.372387 81.506 14.8918
34.621464 81.514 13.8995
34.872345 81.498 12.9360
35.125042 81.460 12.0171
35.379574 81.402 11.1617
35.635948 81.324 10.3869
35.894180 81.227 9.7108
36.154285 81.113 9.1487
36.416275 80.987 8.7182
36.680161 80.850 8.4313
36.945961 80.703 8.3033
37.213688 80.552 8.3428
37.483353 80.401 8.5678
37.754974 80.257 8.9653
38.028561 80.127 9.5390
38.304131 80.016 10.2560
38.581699 79.933 11.0994
38.861279 79.880 12.0236
39.142883 79.862 12.9931
39.426529 79.878 13.9607
39.712231 79.931 14.8800
40.000000 80.013 15.7128
40.289856 80.121 16.4084
40.581814 80.245 16.9583
40.875885 80.376 17.3317
41.172089 80.509 17.5458
41.470440 80.635 17.6002
41.770950 80.753 17.5172
42.073643 80.858 17.3088
42.378525 80.948 17.0055
42.685616 81.017 16.6334
42.994934 81.068 16.2176
43.306492 81.102 15.7876
43.620308 81.121 15.3566
43.936401 81.125 14.9441
44.254780 81.115 14.5616
44.575470 81.092 14.2249
44.898483 81.058 13.9414
45.223835 81.016 13.7215
45.551544 80.967 13.5712
45.881630 80.911 13.4985
46.214108 80.852 13.5079
46.548996 80.791 13.6078
46.886307 80.731 13.7936
47.226067 80.677 14.0677
47.568283 80.630 14.4174
47.912983 80.594 14.8365
48.260181 80.569 15.3082
48.609894 80.558 15.8202
48.962143 80.562 16.3522
49.316940 80.582 16.8851
49.674313 80.617 17.4022
50.034271 80.665 17.8833
50.396843 80.724 18.3204
50.762039 80.791 18.6993
51.129883 80.863 19.0185
51.500389 80.939 19.2700
51.873581 81.016 19.4587
52.249481 81.092 19.5842
52.628101 81.165 19.6549
53.009464 81.234 19.6753
53.393593 81.297 19.6571
53.780506 81.353 19.6100
54.170223 81.403 19.5441
54.562763 81.446 19.4706
54.958145 81.483 19.3961
55.356396 81.515 19.3282
55.757530 81.541 19.2761
56.161572 81.561 19.2505
56.568542 81.579 19.2540
56.978462 81.597 19.2943
57.391350 81.616 19.3668
57.807232 81.637 19.4709
58.226128 81.661 19.6018
58.648056 81.690 19.7580
59.073048 81.726 19.9287
59.501114 81.770 20.1066
59.932281 81.821 20.2797
60.366577 81.879 20.4352
60.804020 81.944 20.5678
61.244629 82.013 20.6696
61.688435 82.086 20.7359
62.135452 82.163 20.7596
62.585712 82.243 20.7401
63.039234 82.321 20.6728
63.496040 82.399 20.5632
63.956161 82.474 20.4137
64.419617 82.546 20.2284
64.886421 82.614 20.0100
65.356621 82.678 19.7644
65.830215 82.737 19.4968
66.307251 82.791 19.2126
66.787743 82.840 18.9174
67.271713 82.885 18.6166
67.759193 82.924 18.3153
68.250206 82.959 18.0185
68.744774 82.991 17.7336
69.242928 83.020 17.4585
69.744690 83.049 17.1947
70.250084 83.077 16.9395
70.759148 83.105 16.6915
71.271896 83.133 16.4475
71.788361 83.162 16.2054
72.308571 83.192 15.9595
72.832550 83.223 15.7041
73.360321 83.255 15.4365
73.891922 83.287 15.1515
74.427376 83.317 14.8506
74.966705 83.345 14.5320
75.509949 83.370 14.1996
76.057121 83.392 13.8551
76.608261 83.410 13.5027
77.163399 83.424 13.1458
77.722557 83.434 12.7887
78.285767 83.440 12.4362
78.853058 83.443 12.0907
79.424461 83.442 11.7564
80.000000 83.439 11.4326
80.579712 83.435 11.1216
81.163628 83.429 10.8196
81.751770 83.423 10.5240
82.344177 83.416 10.2336
82.940880 83.407 9.9444
83.541901 83.396 9.6616
84.147285 83.381 9.3877
84.757050 83.363 9.1265
85.371231 83.343 8.8817
85.989868 83.320 8.6554
86.612984 83.296 8.4503
87.240616 83.271 8.2693
87.872803 83.244 8.1180
88.509560 83.218 7.9922
89.150940 83.196 7.8925
89.796967 83.176 7.8112
90.447670 83.160 7.7423
91.103088 83.147 7.6811
91.763260 83.138 7.6226
92.428215 83.132 7.5621
93.097992 83.129 7.4943
93.772614 83.129 7.4162
94.452133 83.131 7.3236
95.136566 83.134 7.2152
95.825966 83.138 7.0877
96.520363 83.141 6.9423
97.219788 83.143 6.7786
97.924286 83.143 6.5994
98.633881 83.141 6.4063
99.348625 83.137 6.2024
100.068542 83.129 5.9892
100.793686 83.118 5.7735
101.524078 83.102 5.5620
102.259766 83.082 5.3575
103.000778 83.060 5.1645
103.747162 83.035 4.9843
104.498962 83.009 4.8202
105.256203 82.981 4.6713
106.018929 82.953 4.5385
106.787186 82.924 4.4192
107.561012 82.895 4.3111
108.340446 82.866 4.2142
109.125526 82.837 4.1286
109.916290 82.808 4.0521
110.712791 82.781 3.9821
111.515060 82.753 3.9191
112.323143 82.724 3.8619
113.137085 82.694 3.8131
113.956924 82.664 3.7755
114.782700 82.634 3.7481
115.614464 82.605 3.7310
116.452255 82.576 3.7230
117.296112 82.547 3.7234
118.146095 82.519 3.7310
119.002228 82.492 3.7442
119.864563 82.466 3.7629
120.733154 82.440 3.7870
121.608040 82.414 3.8149
122.489258 82.390 3.8457
123.376869 82.367 3.8779
124.270905 82.343 3.9088
125.171425 82.318 3.9419
126.078468 82.293 3.9797
126.992081 82.267 4.0229
127.912323 82.242 4.0733
128.839233 82.216 4.1299
129.772842 82.190 4.1920
130.713242 82.164 4.2609
131.660431 82.138 4.3371
132.614502 82.111 4.4217
133.575485 82.085 4.5159
134.543427 82.059 4.6198
135.518387 82.033 4.7343
136.500412 82.008 4.8578
137.489548 81.984 4.9893
138.485855 81.962 5.1276
139.489380 81.941 5.2715
140.500168 81.921 5.4207
141.518295 81.902 5.5749
142.543793 81.883 5.7326
143.576721 81.866 5.8922
144.617142 81.850 6.0526
145.665100 81.835 6.2119
146.720642 81.821 6.3716
147.783844 81.806 6.5319
148.854752 81.791 6.6946
149.933411 81.776 6.8606
151.019897 81.761 7.0316
152.114243 81.746 7.2096
153.216522 81.732 7.3935
154.326797 81.718 7.5822
155.445114 81.705 7.7765
156.571533 81.692 7.9764
157.706116 81.679 8.1835
158.848923 81.666 8.4003
160.000000 81.655 8.6244
161.159424 81.646 8.8548
162.327255 81.638 9.0905
163.503540 81.630 9.3299
164.688354 81.623 9.5745
165.881760 81.618 9.8257
167.083801 81.614 10.0813
168.294571 81.612 10.3393
169.514099 81.610 10.6004
170.742462 81.609 10.8640
171.979736 81.609 11.1323
173.225967 81.610 11.4071
174.481232 81.612 11.6883
175.745605 81.616 11.9771
177.019119 81.621 12.2723
178.301880 81.628 12.5739
179.593933 81.638 12.8802
180.895340 81.650 13.1908
182.206177 81.666 13.5023
183.526520 81.685 13.8118
184.856430 81.707 14.1163
186.195984 81.732 14.4121
187.545227 81.759 14.6983
188.904266 81.788 14.9733
190.273132 81.819 15.2364
191.651932 81.851 15.4861
193.040726 81.884 15.7234
194.439575 81.918 15.9479
195.848572 81.952 16.1614
197.267761 81.986 16.3653
198.697250 82.020 16.5605
200.137085 82.054 16.7478
201.587372 82.088 16.9286
203.048157 82.121 17.1043
204.519531 82.155 17.2765
206.001556 82.188 17.4470
207.494324 82.222 17.6156
208.997925 82.256 17.7822
210.512405 82.290 17.9476
212.037857 82.325 18.1124
213.574371 82.360 18.2766
215.122025 82.396 18.4411
216.680893 82.433 18.6046
218.251053 82.472 18.7662
219.832581 82.512 18.9245
221.425583 82.553 19.0779
223.030121 82.596 19.2266
224.646286 82.640 19.3712
226.274170 82.685 19.5097
227.913849 82.732 19.6411
229.565399 82.780 19.7627
231.228928 82.831 19.8712
232.904510 82.883 19.9667
234.592224 82.935 20.0480
236.292191 82.987 20.1158
238.004456 83.041 20.1712
239.729126 83.095 20.2119
241.466309 83.149 20.2356
243.216080 83.203 20.2440
244.978516 83.256 20.2379
246.753738 83.309 20.2181
248.541809 83.361 20.1859
250.342850 83.412 20.1411
252.156937 83.463 20.0841
253.984161 83.513 20.0142
255.824646 83.562 19.9305
257.678467 83.609 19.8343
259.545685 83.655 19.7256
261.426483 83.699 19.6073
263.320862 83.740 19.4815
265.229004 83.778 19.3504
267.150970 83.815 19.2162
269.086853 83.850 19.0804
271.036774 83.882 18.9442
273.000824 83.912 18.8104
274.979095 83.940 18.6828
276.971710 83.968 18.5594
278.978760 83.995 18.4396
281.000336 84.022 18.3233
283.036591 84.048 18.2095
285.087585 84.073 18.0993
287.153442 84.097 17.9942
289.234283 84.120 17.8923
291.330200 84.145 17.7921
293.441284 84.169 17.6943
295.567688 84.192 17.5983
297.709503 84.214 17.5062
299.866821 84.237 17.4213
302.039795 84.260 17.3392
304.228485 84.284 17.2570
306.433044 84.309 17.1742
308.653595 84.333 17.0892
310.890228 84.358 17.0032
313.143066 84.383 16.9177
315.412231 84.408 16.8312
317.697845 84.434 16.7431
320.000000 84.460 16.6523
322.318848 84.486 16.5574
324.654510 84.512 16.4583
327.007080 84.538 16.3541
329.376709 84.565 16.2453
331.763519 84.591 16.1324
334.167603 84.617 16.0154
336.589142 84.642 15.8949
339.028198 84.667 15.7694
341.484924 84.693 15.6366
343.959473 84.718 15.4984
346.451935 84.740 15.3553
348.962463 84.762 15.2094
351.491211 84.784 15.0635
354.038239 84.805 14.9154
356.603760 84.826 14.7633
359.187866 84.846 14.6085
361.790680 84.864 14.4512
364.412354 84.881 14.2925
367.053040 84.898 14.1330
369.712860 84.914 13.9735
372.391968 84.928 13.8145
375.090454 84.940 13.6575
377.808533 84.952 13.5043
380.546265 84.964 13.3534
383.303864 84.976 13.2033
386.081451 84.987 13.0554
388.879150 84.996 12.9104
391.697144 85.004 12.7694
394.535522 85.013 12.6346
397.394501 85.022 12.5034
400.274170 85.031 12.3740
403.174744 85.039 12.2464
406.096313 85.048 12.1200
409.039062 85.056 11.9944
412.003113 85.064 11.8691
414.988647 85.071 11.7444
417.995850 85.078 11.6200
421.024811 85.085 11.4964
424.075714 85.091 11.3732
427.148743 85.096 11.2524
430.244049 85.100 11.1351
433.361786 85.103 11.0234
436.502106 85.105 10.9193
439.665161 85.107 10.8233
442.851166 85.109 10.7371
446.060242 85.112 10.6582
449.292572 85.116 10.5855
452.548340 85.121 10.5162
455.827698 85.127 10.4470
459.130798 85.134 10.3782
462.457855 85.141 10.3089
465.809021 85.149 10.2392
469.184448 85.157 10.1696
472.584381 85.166 10.0982
476.008911 85.176 10.0229
479.458252 85.185 9.9452
482.932617 85.193 9.8656
486.432159 85.201 9.7853
489.957031 85.209 9.7059
493.507477 85.217 9.6272
497.083618 85.225 9.5497
500.685699 85.234 9.4723
504.313873 85.243 9.3934
507.968323 85.251 9.3143
511.649292 85.259 9.2354
515.356934 85.267 9.1573
519.091370 85.275 9.0803
522.852966 85.283 9.0042
526.641724 85.291 8.9295
530.458008 85.300 8.8542
534.301941 85.310 8.7769
538.173706 85.320 8.6973
542.073547 85.329 8.6140
546.001648 85.338 8.5293
549.958191 85.346 8.4446
553.943420 85.354 8.3603
557.957520 85.362 8.2773
562.000671 85.370 8.1953
566.073181 85.378 8.1137
570.175171 85.385 8.0333
574.306885 85.392 7.9545
578.468567 85.400 7.8773
582.660400 85.408 7.8016
586.882568 85.416 7.7273
591.135376 85.424 7.6546
595.419006 85.433 7.5813
599.733643 85.443 7.5054
604.079590 85.454 7.4263
608.456970 85.464 7.3416
612.866089 85.474 7.2543
617.307190 85.483 7.1665
621.780457 85.491 7.0783
626.286133 85.500 6.9909
630.824463 85.509 6.9033
635.395691 85.518 6.8149
640.000000 85.528 6.7253
644.637695 85.537 6.6336
649.309021 85.546 6.5413
654.014160 85.554 6.4504
658.753418 85.563 6.3583
663.527039 85.573 6.2640
668.335205 85.584 6.1653
673.178284 85.595 6.0591
678.056396 85.605 5.9474
682.969849 85.614 5.8307
687.918945 85.622 5.7104
692.903870 85.630 5.5885
697.924927 85.637 5.4644
702.982422 85.643 5.3376
708.076477 85.647 5.2105
713.207520 85.650 5.0851
718.375732 85.653 4.9624
723.581360 85.654 4.8443
728.824707 85.655 4.7304
734.106079 85.655 4.6212
739.425720 85.655 4.5164
744.783936 85.655 4.4160
750.180908 85.655 4.3193
755.617065 85.655 4.2259
761.092529 85.655 4.1353
766.607727 85.655 4.0471
772.162903 85.655 3.9613
777.758301 85.655 3.8782
783.394287 85.655 3.7973
789.071045 85.655 3.7183
794.789001 85.655 3.6413
800.548340 85.655 3.5663
806.349487 85.655 3.4933
812.192627 85.655 3.4222
818.078125 85.655 3.3532
824.006226 85.655 3.2866
829.977295 85.655 3.2222
835.991699 85.655 3.1600
842.049622 85.655 3.1002
848.151428 85.655 3.0431
854.297485 85.655 2.9892
860.488098 85.655 2.9389
866.723572 85.655 2.8922
873.004211 85.656 2.8492
879.330322 85.657 2.8101
885.702332 85.659 2.7760
892.120483 85.661 2.7441
898.585144 85.665 2.7130
905.096680 85.670 2.6801
911.655396 85.676 2.6423
918.261597 85.683 2.6002
924.915710 85.689 2.5531
931.618042 85.696 2.5012
938.368896 85.703 2.4442
945.168762 85.709 2.3832
952.017822 85.715 2.3181
958.916504 85.719 2.2523
965.865234 85.721 2.1887
972.864319 85.722 2.1292
979.914062 85.723 2.0764
987.014954 85.724 2.0302
994.167236 85.725 1.9913
1001.371399 85.726 1.9591
1008.627747 85.727 1.9338
1015.936646 85.729 1.9131
1023.298584 85.733 1.8959
1030.713867 85.739 1.8791
1038.182739 85.745 1.8589
1045.705933 85.752 1.8361
1053.283447 85.758 1.8101
1060.916016 85.765 1.7811
1068.603882 85.772 1.7491
1076.347412 85.778 1.7151
1084.147095 85.783 1.6792
1092.003296 85.787 1.6451
1099.916382 85.789 1.6163
1107.886841 85.791 1.5941
1115.915039 85.792 1.5805
1124.001343 85.793 1.5770
1132.146362 85.793 1.5856
1140.350342 85.793 1.6069
1148.613770 85.793 1.6416
1156.937134 85.794 1.6908
1165.320801 85.796 1.7557
1173.765137 85.800 1.8356
1182.270752 85.806 1.9309
1190.838013 85.814 2.0385
1199.467285 85.826 2.1566
1208.159180 85.842 2.2815
1216.913940 85.862 2.4101
1225.732178 85.885 2.5395
1234.614380 85.911 2.6674
1243.560913 85.942 2.7896
1252.572266 85.977 2.9019
1261.648926 86.016 3.0026
1270.791382 86.056 3.0887
1280.000000 86.099 3.1598
1289.275391 86.144 3.2146
1298.618042 86.192 3.2529
1308.028320 86.240 3.2733
1317.506836 86.289 3.2770
1327.054077 86.338 3.2643
1336.670410 86.388 3.2371
1346.356567 86.438 3.1967
1356.112793 86.489 3.1452
1365.939697 86.538 3.0843
1375.837891 86.587 3.0163
1385.807739 86.636 2.9450
1395.849854 86.687 2.8683
1405.964844 86.739 2.7857
1416.152954 86.793 2.6963
1426.415039 86.848 2.6003
1436.751465 86.905 2.4944
1447.162720 86.965 2.3769
1457.649414 87.027 2.2436
1468.212158 87.091 2.0890
1478.851440 87.156 1.9147
1489.567871 87.220 1.7206
1500.361816 87.286 1.5069
1511.234131 87.353 1.2741
1522.185059 87.421 1.0202
1533.215454 87.489 0.7432
1544.325806 87.557 0.4434
1555.516602 87.625 0.1209
1566.788574 87.694 -0.2255
1578.142090 87.763 -0.5966
1589.578003 87.832 -0.9943
1601.096680 87.900 -1.4211
1612.698975 87.967 -1.8760
1624.385254 88.032 -2.3590
1636.156250 88.095 -2.8697
1648.012451 88.156 -3.4083
1659.954590 88.216 -3.9739
1671.983398 88.272 -4.5656
1684.099243 88.326 -5.1834
1696.302856 88.378 -5.8260
1708.594971 88.427 -6.4959
1720.976196 88.473 -7.1943
1733.447144 88.516 -7.9237
1746.008423 88.556 -8.6869
1758.660645 88.591 -9.4847
1771.404663 88.620 -10.3202
1784.240967 88.643 -11.1904
1797.170288 88.658 -12.0952
1810.193359 88.663 -13.0282
1823.310791 88.658 -13.9865
1836.523193 88.641 -14.9601
1849.831421 88.610 -15.9423
1863.236084 88.566 -16.9206
1876.737793 88.509 -17.8851
1890.337524 88.436 -18.8210
1904.035645 88.348 -19.7165
1917.833008 88.245 -20.5528
1931.730469 88.127 -21.3118
1945.728638 87.997 -21.9794
1959.828125 87.855 -22.5386
1974.029907 87.706 -22.9804
1988.334473 87.549 -23.2909
2002.742798 87.390 -23.4676
2017.255493 87.231 -23.4990
2031.873291 87.079 -23.3977
2046.597168 86.937 -23.1658
2061.427734 86.810 -22.8237
2076.365479 86.699 -22.3845
2091.411865 86.607 -21.8723
2106.566895 86.538 -21.3086
2121.832031 86.490 -20.7145
2137.207764 86.462 -20.1135
2152.694824 86.452 -19.5193
2168.294189 86.461 -18.9504
2184.006592 86.487 -18.4153
2199.832764 86.526 -17.9280
2215.773682 86.578 -17.4917
2231.830078 86.639 -17.1139
2248.002686 86.710 -16.7962
2264.292725 86.788 -16.5426
2280.700684 86.873 -16.3537
2297.227539 86.962 -16.2320
2313.874268 87.055 -16.1751
2330.641602 87.149 -16.1816
2347.530273 87.246 -16.2506
2364.541504 87.343 -16.3816
2381.676025 87.442 -16.5720
2398.934570 87.539 -16.8205
2416.318359 87.635 -17.1225
2433.827881 87.728 -17.4734
2451.464355 87.820 -17.8722
2469.228760 87.910 -18.3170
2487.121826 87.998 -18.8058
2505.144531 88.082 -19.3371
2523.297852 88.163 -19.9083
2541.582764 88.241 -20.5162
2560.000000 88.317 -21.1611
2578.550781 88.389 -21.8428
2597.236084 88.459 -22.5596
2616.056641 88.524 -23.3102
2635.013672 88.585 -24.0926
2654.108154 88.642 -24.9044
2673.340820 88.695 -25.7453
2692.713135 88.744 -26.6140
2712.225586 88.789 -27.5117
2731.879395 88.831 -28.4392
2751.675781 88.869 -29.3965
2771.615479 88.902 -30.3828
2791.699707 88.931 -31.4014
2811.929688 88.957 -32.4539
2832.305908 88.978 -33.5448
2852.830078 88.993 -34.6793
2873.502930 89.002 -35.8568
2894.325439 89.003 -37.0778
2915.298828 88.995 -38.3431
2936.424316 88.978 -39.6550
2957.702881 88.949 -41.0100
2979.135742 88.906 -42.4092
3000.723633 88.845 -43.8407
3022.468262 88.767 -45.3014
3044.370117 88.667 -46.7643
3066.430908 88.539 -48.2170
3088.651611 88.385 -49.6129
3111.033203 88.200 -50.9203
3133.577148 87.985 -52.0809
3156.284180 87.738 -53.0402
3179.156006 87.469 -53.7553
3202.193359 87.183 -54.1611
3225.397949 86.896 -54.2702
3248.770508 86.621 -54.0489
3272.312500 86.376 -53.5707
3296.024902 86.180 -52.8606
3319.909180 86.041 -52.0320
3343.966797 85.976 -51.1690
3368.198486 85.975 -50.3844
3392.605713 86.042 -49.7990
3417.189941 86.154 -49.4738
3441.952393 86.295 -49.5140
3466.894287 86.445 -49.9074
3492.016846 86.584 -50.6996
3517.321289 86.699 -51.8211
3542.809326 86.769 -53.2472
3568.481934 86.794 -54.8880
3594.340576 86.766 -56.6704
3620.386719 86.686 -58.5182
3646.621582 86.548 -60.3493
3673.046387 86.361 -62.1079
3699.662842 86.127 -63.7199
3726.472168 85.853 -65.1588
3753.475586 85.545 -66.3797
3780.675049 85.206 -67.3651
3808.071289 84.841 -68.0899
3835.666016 84.456 -68.5336
3863.460938 84.052 -68.6700
3891.457275 83.639 -68.4916
3919.656250 83.226 -67.9788
3948.059814 82.820 -67.1426
3976.668945 82.426 -65.9790
4005.485596 82.056 -64.5149
4034.510986 81.719 -62.7567
4063.746582 81.427 -60.7610
4093.194336 81.192 -58.5629
4122.855469 81.018 -56.2346
4152.730957 80.913 -53.8363
4182.823730 80.875 -51.4403
4213.133789 80.906 -49.1194
4243.664062 80.996 -46.9300
4274.415527 81.142 -44.9439
4305.389648 81.329 -43.1880
4336.588379 81.546 -41.7136
4368.013184 81.784 -40.5190
4399.665527 82.030 -39.6269
4431.547363 82.277 -39.0143
4463.660156 82.515 -38.6788
4496.005371 82.739 -38.5819
4528.585449 82.942 -38.6984
4561.401367 83.123 -38.9863
4594.455078 83.279 -39.4066
4627.748535 83.411 -39.9243
4661.283203 83.519 -40.5000
4695.060547 83.605 -41.1080
4729.083008 83.670 -41.7137
4763.352051 83.719 -42.3043
4797.869141 83.754 -42.8559
4832.636719 83.779 -43.3675
4867.655762 83.798 -43.8283
4902.928711 83.812 -44.2441
4938.457520 83.825 -44.6155
4974.243652 83.837 -44.9485
5010.289062 83.851 -45.2464
5046.595703 83.868 -45.5177
5083.165527 83.889 -45.7694
5120.000000 83.915 -46.0088
5157.101562 83.946 -46.2426
5194.472168 83.984 -46.4798
5232.113281 84.029 -46.7274
5270.027344 84.081 -46.9986
5308.216309 84.141 -47.3042
5346.681641 84.208 -47.6581
5385.426270 84.281 -48.0743
5424.451172 84.359 -48.5624
5463.758789 84.438 -49.1372
5503.351562 84.517 -49.7976
5543.230957 84.590 -50.5504
5583.399414 84.657 -51.3867
5623.859375 84.714 -52.3045
5664.611816 84.759 -53.2890
5705.660156 84.790 -54.3313
5747.005859 84.806 -55.4114
5788.650879 84.805 -56.5114
5830.597656 84.788 -57.6143
5872.848633 84.756 -58.7005
5915.405762 84.711 -59.7606
5958.271484 84.655 -60.7803
6001.447266 84.589 -61.7561
6044.936523 84.516 -62.6799
6088.740234 84.435 -63.5518
6132.861816 84.351 -64.3666
6177.303223 84.263 -65.1313
6222.066406 84.177 -65.8482
6267.154297 84.090 -66.5257
6312.568359 84.006 -67.1715
6358.312012 83.922 -67.7900
6404.386719 83.839 -68.3865
6450.795898 83.757 -68.9660
6497.541016 83.678 -69.5356
6544.625000 83.599 -70.0942
6592.049805 83.518 -70.6442
6639.818359 83.436 -71.1833
6687.933594 83.355 -71.7095
6736.396973 83.272 -72.2234
6785.211426 83.189 -72.7258
6834.379883 83.104 -73.2135
6883.904785 83.019 -73.6861
6933.788574 82.931 -74.1367
6984.033691 82.842 -74.5611
7034.642578 82.751 -74.9521
7085.618652 82.661 -75.3027
7136.963867 82.571 -75.6086
7188.681152 82.485 -75.8608
7240.773438 82.405 -76.0671
7293.243164 82.336 -76.2253
7346.092773 82.280 -76.3564
7399.325684 82.242 -76.4697
7452.944336 82.222 -76.5973
7506.951172 82.225 -76.7611
7561.350098 82.249 -77.0015
7616.142578 82.297 -77.3554
7671.332031 82.362 -77.8550
7726.921875 82.438 -78.5407
7782.914551 82.521 -79.4249
7839.312500 82.602 -80.5344
7896.119629 82.676 -81.8664
7953.337891 82.734 -83.4329
8010.971191 82.770 -85.2150
8069.021973 82.776 -87.2130
8127.493164 82.746 -89.3811
8186.388672 82.671 -91.6928
8245.710938 82.549 -94.0902
8305.461914 82.377 -96.5330
8365.647461 82.149 -98.9425
8426.267578 81.858 -101.2513
8487.328125 81.510 -103.3834
8548.831055 81.109 -105.2505
8610.779297 80.661 -106.8206
8673.176758 80.173 -108.0406
8736.026367 79.651 -108.8855
8799.331055 79.097 -109.3098
8863.094727 78.530 -109.3220
8927.320312 77.966 -108.8950
8992.010742 77.418 -108.0922
9057.170898 76.906 -106.9502
9122.802734 76.428 -105.5242
9188.910156 75.989 -103.8661
9255.497070 75.595 -102.0224
9322.566406 75.257 -100.0446
9390.121094 74.968 -97.9702
9458.166016 74.724 -95.8463
9526.704102 74.523 -93.6944
9595.738281 74.367 -91.5462
9665.273438 74.250 -89.4172
9735.311523 74.166 -87.3282
9805.857422 74.118 -85.2938
9876.915039 74.104 -83.3259
9948.487305 74.123 -81.4528
10020.578125 74.174 -79.6993
10093.191406 74.253 -78.0883
10166.331055 74.353 -76.6513
10240.000000 74.468 -75.3882
10314.203125 74.591 -74.3171
10388.944336 74.714 -73.4139
10464.226562 74.832 -72.6739
10540.054688 74.941 -72.0564
10616.432617 75.037 -71.5300
10693.363281 75.124 -71.0617
10770.852539 75.202 -70.6091
10848.902344 75.281 -70.1674
10927.517578 75.363 -69.7080
11006.703125 75.455 -69.2594
11086.461914 75.567 -68.8264
11166.798828 75.695 -68.4519
11247.718750 75.845 -68.1699
11329.223633 76.010 -68.0114
11411.320312 76.187 -68.0158
11494.011719 76.370 -68.1916
11577.301758 76.552 -68.5656
11661.195312 76.726 -69.1224
11745.697266 76.886 -69.8650
11830.811523 77.030 -70.7637
11916.542969 77.152 -71.7976
12002.894531 77.254 -72.9424
12089.873047 77.336 -74.1679
12177.480469 77.401 -75.4714
12265.723633 77.450 -76.8380
12354.606445 77.484 -78.2750
12444.132812 77.501 -79.7829
12534.308594 77.499 -81.3682
12625.136719 77.480 -83.0427
12716.624023 77.435 -84.7906
12808.773438 77.359 -86.6138
12901.591797 77.248 -88.4704
12995.082031 77.097 -90.3434
13089.250000 76.901 -92.1591
13184.099609 76.652 -93.8659
13279.636719 76.354 -95.3808
13375.867188 76.006 -96.6208
13472.793945 75.617 -97.5339
13570.422852 75.193 -98.0464
13668.759766 74.748 -98.1408
13767.809570 74.289 -97.7603
13867.577148 73.840 -96.9489
13968.067383 73.420 -95.6995
14069.285156 73.048 -94.1099
14171.237305 72.746 -92.2438
14273.927734 72.514 -90.1981
14377.362305 72.362 -88.0596
14481.546875 72.288 -85.9229
14586.486328 72.301 -83.8932
14692.185547 72.379 -82.0262
14798.651367 72.506 -80.4113
14905.888672 72.672 -79.0541
15013.902344 72.864 -77.9923
15122.700195 73.074 -77.2176
15232.285156 73.290 -76.7401
15342.664062 73.508 -76.5414
15453.843750 73.720 -76.6133
15565.829102 73.922 -76.9346
15678.625000 74.109 -77.4871
15792.239258 74.279 -78.2523
15906.675781 74.430 -79.2125
16021.942383 74.558 -80.3484
16138.043945 74.660 -81.6442
16254.986328 74.734 -83.0714
16372.777344 74.775 -84.6088
16491.421875 74.783 -86.2189
16610.923828 74.755 -87.8704
16731.294922 74.692 -89.5235
16852.535156 74.593 -91.1393
16974.656250 74.461 -92.6829
17097.662109 74.296 -94.1123
17221.558594 74.106 -95.4096
17346.353516 73.895 -96.5412
17472.052734 73.668 -97.5126
17598.662109 73.434 -98.3093
17726.189453 73.197 -98.9576
17854.640625 72.966 -99.4678
17984.021484 72.741 -99.8750
18114.341797 72.529 -100.2096
18245.605469 72.325 -100.4975
18377.820312 72.131 -100.7749
18510.994141 71.940 -101.0405
18645.132812 71.748 -101.3151
18780.242188 71.550 -101.5677
18916.332031 71.338 -101.7883
19053.408203 71.113 -101.9335
19191.476562 70.871 -101.9618
19330.546875 70.620 -101.8560
19470.623047 70.366 -101.5780
19611.714844 70.114 -101.1489
19753.830078 69.874 -100.5668
19896.974609 69.650 -99.8626
