* Measurement data measured by REW V5.20.13
* Source: C:\Users\kurin\Desktop\Targets and Curves\Resolve\Img\Files\He6.txt
* Format: Comma/Tab/Space delimited data
* Dated: Aug 14, 2023 4:58:23 PM
* REW Settings:
*  C-weighting compensation: Off
*  Target level: 75.0 dB
* Note: ; Measurement imported from C:\Users\kurin\Desktop\Targets and Curves\Resolve\Img\Files\He6.txt Format: Comma/Tab/Space delimited data 623 values loaded, 5 Hz to 39,792 Hz log spaced 
* Measurement: He6
* Smoothing: 1/48 octave
* Frequency Step: 1/96 octave
* Start Frequency: 5.000 Hz
*
* Freq(Hz) SPL(dB) Phase(degrees)
5.000000 80.699 53.1930
5.036232 80.717 53.1751
5.072727 80.737 53.1560
5.109486 80.760 53.1340
5.146511 80.786 53.1090
5.183805 80.818 53.0796
5.221369 80.852 53.0480
5.259205 80.887 53.0166
5.297316 80.924 52.9840
5.335702 80.963 52.9489
5.374367 81.004 52.9130
5.413311 81.044 52.8775
5.452538 81.085 52.8420
5.492050 81.125 52.8066
5.531847 81.165 52.7710
5.571934 81.205 52.7351
5.612310 81.245 52.6990
5.652979 81.285 52.6626
5.693943 81.325 52.6260
5.735204 81.365 52.5896
5.776763 81.406 52.5530
5.818624 81.446 52.5157
5.860788 81.486 52.4780
5.903258 81.526 52.4401
5.946035 81.566 52.4020
5.989123 81.606 52.3636
6.032523 81.646 52.3250
6.076237 81.686 52.2861
6.120268 81.727 52.2470
6.164618 81.767 52.2076
6.209289 81.807 52.1680
6.254284 81.847 52.1282
6.299605 81.887 52.0880
6.345255 81.927 52.0471
6.391235 81.967 52.0060
6.437549 82.007 51.9651
6.484198 82.048 51.9240
6.531185 82.088 51.8822
6.578513 82.128 51.8400
6.626183 82.168 51.7976
6.674199 82.208 51.7550
6.722563 82.248 51.7121
6.771278 82.289 51.6690
6.820345 82.329 51.6257
6.869768 82.369 51.5820
6.919549 82.409 51.5377
6.969691 82.449 51.4930
7.020196 82.489 51.4481
7.071068 82.529 51.4030
7.122308 82.569 51.3577
7.173919 82.610 51.3120
7.225904 82.650 51.2657
7.278266 82.690 51.2190
7.331007 82.730 51.1721
7.384131 82.770 51.1250
7.437639 82.810 51.0777
7.491535 82.850 51.0300
7.545822 82.890 50.9817
7.600502 82.931 50.9330
7.655579 82.971 50.8841
7.711054 83.011 50.8350
7.766932 83.051 50.7858
7.823214 83.091 50.7360
7.879904 83.131 50.6852
7.937005 83.171 50.6340
7.994520 83.211 50.5831
8.052452 83.252 50.5320
8.110803 83.292 50.4803
8.169578 83.332 50.4280
8.228777 83.372 50.3752
8.288406 83.412 50.3220
8.348468 83.452 50.2687
8.408964 83.492 50.2150
8.469899 83.532 50.1608
8.531276 83.573 50.1060
8.593097 83.613 50.0507
8.655366 83.653 49.9950
8.718086 83.693 49.9392
8.781260 83.733 49.8830
8.844893 83.773 49.8263
8.908987 83.813 49.7690
8.973545 83.853 49.7113
9.038571 83.894 49.6530
9.104069 83.934 49.5942
9.170040 83.974 49.5350
9.236490 84.014 49.4757
9.303422 84.054 49.4160
9.370838 84.094 49.3558
9.438744 84.134 49.2950
9.507140 84.174 49.2338
9.576033 84.215 49.1720
9.645425 84.255 49.1098
9.715320 84.295 49.0470
9.785721 84.335 48.9837
9.856632 84.375 48.9200
9.928058 84.415 48.8563
10.000000 84.455 48.7920
10.072464 84.495 48.7269
10.145453 84.536 48.6611
10.218971 84.576 48.5948
10.293022 84.616 48.5280
10.367610 84.656 48.4608
10.442738 84.696 48.3930
10.518411 84.736 48.3248
10.594631 84.776 48.2560
10.671404 84.816 48.1868
10.748734 84.857 48.1170
10.826623 84.897 48.0468
10.905077 84.937 47.9761
10.984100 84.977 47.9049
11.063695 85.017 47.8330
11.143867 85.057 47.7603
11.224621 85.098 47.6870
11.305959 85.138 47.6134
11.387886 85.178 47.5391
11.470407 85.218 47.4638
11.553527 85.258 47.3880
11.637249 85.298 47.3124
11.721577 85.338 47.2361
11.806517 85.378 47.1584
11.892071 85.419 47.0801
11.978246 85.459 47.0018
12.065045 85.499 46.9230
12.152473 85.539 46.8434
12.240536 85.579 46.7630
12.329235 85.619 46.6819
12.418578 85.659 46.6001
12.508568 85.699 46.5179
12.599211 85.740 46.4350
12.690510 85.780 46.3514
12.782471 85.820 46.2671
12.875097 85.860 46.1820
12.968395 85.900 46.0961
13.062370 85.940 46.0094
13.157025 85.980 45.9220
13.252366 86.020 45.8344
13.348398 86.061 45.7461
13.445127 86.101 45.6570
13.542556 86.141 45.5671
13.640691 86.181 45.4764
13.739536 86.221 45.3850
13.839099 86.261 45.2934
13.939383 86.301 45.2011
14.040393 86.341 45.1075
14.142136 86.382 45.0130
14.244616 86.422 44.9179
14.347837 86.462 44.8220
14.451808 86.502 44.7253
14.556532 86.542 44.6280
14.662014 86.582 44.5305
14.768262 86.622 44.4321
14.875278 86.662 44.3326
14.983070 86.703 44.2321
15.091644 86.743 44.1305
15.201005 86.783 44.0281
15.311157 86.823 43.9254
15.422109 86.863 43.8221
15.533863 86.903 43.7180
15.646428 86.943 43.6131
15.759809 86.983 43.5070
15.874010 87.024 43.4001
15.989040 87.064 43.2924
16.104904 87.104 43.1841
16.221605 87.144 43.0754
16.339155 87.184 42.9661
16.457554 87.224 42.8560
16.576813 87.264 42.7451
16.696936 87.304 42.6334
16.817928 87.345 42.5211
16.939798 87.385 42.4084
17.062551 87.425 42.2951
17.186193 87.465 42.1813
17.310732 87.505 42.0671
17.436172 87.545 41.9526
17.562521 87.585 41.8381
17.689787 87.625 41.7236
17.817974 87.666 41.6091
17.947090 87.706 41.4943
18.077143 87.746 41.3801
18.208138 87.786 41.2669
18.340080 87.826 41.1551
18.472980 87.866 41.0448
18.606844 87.906 40.9371
18.741676 87.946 40.8326
18.877487 87.987 40.7331
19.014280 88.028 40.6405
19.152065 88.069 40.5551
19.290850 88.111 40.4789
19.430639 88.156 40.4090
19.571442 88.204 40.3454
19.713264 88.257 40.2811
19.856115 88.314 40.2122
20.000000 88.376 40.1291
20.144928 88.443 40.0229
20.290907 88.514 39.8871
20.437943 88.587 39.7123
20.586044 88.660 39.4992
20.735220 88.732 39.2434
20.885475 88.802 38.9504
21.036821 88.867 38.6197
21.189262 88.926 38.2645
21.342808 88.978 37.8937
21.497467 89.023 37.5185
21.653246 89.062 37.1530
21.810154 89.098 36.7965
21.968201 89.133 36.4537
22.127390 89.166 36.1224
22.287735 89.198 35.8032
22.449242 89.229 35.4922
22.611917 89.261 35.1868
22.775772 89.294 34.8834
22.940815 89.326 34.5782
23.107054 89.358 34.2694
23.274498 89.391 33.9544
23.443153 89.423 33.6325
23.613033 89.452 33.2992
23.784142 89.479 32.9633
23.956491 89.502 32.6316
24.130091 89.522 32.3054
24.304947 89.542 31.9881
24.481071 89.560 31.6794
24.658470 89.576 31.3793
24.837156 89.591 31.0894
25.017136 89.606 30.8126
25.198421 89.621 30.5443
25.381020 89.638 30.2804
25.564941 89.656 30.0212
25.750195 89.672 29.7660
25.936790 89.689 29.5133
26.124741 89.707 29.2625
26.314051 89.725 29.0114
26.504732 89.744 28.7568
26.696796 89.762 28.5003
26.890253 89.779 28.2424
27.085112 89.796 27.9833
27.281382 89.813 27.7236
27.479073 89.830 27.4624
27.678198 89.846 27.1986
27.878765 89.861 26.9334
28.080786 89.876 26.6664
28.284271 89.889 26.4004
28.489231 89.900 26.1365
28.695675 89.909 25.8783
28.903616 89.918 25.6307
29.113064 89.927 25.3903
29.324028 89.936 25.1557
29.536524 89.946 24.9263
29.750557 89.956 24.7019
29.966141 89.966 24.4792
30.183289 89.979 24.2563
30.402010 89.992 24.0293
30.622314 90.005 23.7925
30.844217 90.018 23.5503
31.067726 90.029 23.3048
31.292856 90.038 23.0574
31.519617 90.047 22.8097
31.748020 90.055 22.5623
31.978081 90.061 22.3152
32.209808 90.066 22.0723
32.443211 90.068 21.8372
32.678310 90.070 21.6103
32.915108 90.072 21.3936
33.153625 90.074 21.1862
33.393871 90.076 20.9888
33.635857 90.079 20.7983
33.879597 90.083 20.6133
34.125103 90.089 20.4293
34.372387 90.097 20.2411
34.621464 90.105 20.0493
34.872345 90.113 19.8526
35.125042 90.120 19.6512
35.379574 90.128 19.4450
35.635948 90.135 19.2343
35.894180 90.141 19.0180
36.154285 90.146 18.8003
36.416275 90.149 18.5843
36.680161 90.151 18.3713
36.945961 90.152 18.1640
37.213688 90.152 17.9613
37.483353 90.152 17.7631
37.754974 90.152 17.5693
38.028561 90.152 17.3800
38.304131 90.152 17.1942
38.581699 90.152 17.0110
38.861279 90.152 16.8303
39.142883 90.152 16.6518
39.426529 90.152 16.4752
39.712231 90.152 16.3005
40.000000 90.152 16.1273
40.289856 90.152 15.9553
40.581814 90.152 15.7842
40.875885 90.152 15.6138
41.172089 90.152 15.4433
41.470440 90.152 15.2717
41.770950 90.152 15.0993
42.073643 90.152 14.9258
42.378525 90.151 14.7512
42.685616 90.149 14.5749
42.994934 90.146 14.3992
43.306492 90.141 14.2256
43.620308 90.135 14.0573
43.936401 90.128 13.8984
44.254780 90.120 13.7482
44.575470 90.113 13.6076
44.898483 90.105 13.4762
45.223835 90.097 13.3543
45.551544 90.089 13.2412
45.881630 90.083 13.1375
46.214108 90.079 13.0392
46.548996 90.076 12.9423
46.886307 90.074 12.8462
47.226067 90.073 12.7483
47.568283 90.072 12.6492
47.912983 90.072 12.5482
48.260181 90.072 12.4462
48.609894 90.072 12.3430
48.962143 90.072 12.2402
49.316940 90.072 12.1389
49.674313 90.072 12.0392
50.034271 90.072 11.9410
50.396843 90.073 11.8451
50.762039 90.074 11.7527
51.129883 90.075 11.6622
51.500389 90.078 11.5732
51.873581 90.082 11.4832
52.249481 90.087 11.3903
52.628101 90.094 11.2922
53.009464 90.101 11.1856
53.393593 90.109 11.0712
53.780506 90.117 10.9488
54.170223 90.125 10.8182
54.562763 90.132 10.6787
54.958145 90.139 10.5322
55.356396 90.144 10.3794
55.757530 90.148 10.2232
56.161572 90.150 10.0672
56.568542 90.151 9.9113
56.978462 90.152 9.7568
57.391350 90.152 9.6033
57.807232 90.152 9.4513
58.226128 90.152 9.2993
58.648056 90.152 9.1465
59.073048 90.152 8.9913
59.501114 90.152 8.8316
59.932281 90.152 8.6673
60.366577 90.151 8.4974
60.804020 90.149 8.3223
61.244629 90.146 8.1408
61.688435 90.140 7.9573
62.135452 90.130 7.7740
62.585712 90.118 7.5973
63.039234 90.104 7.4348
63.496040 90.088 7.2852
63.956161 90.073 7.1505
64.419617 90.057 7.0282
64.886421 90.042 6.9169
65.356621 90.027 6.8152
65.830215 90.013 6.7238
66.307251 90.001 6.6352
66.787743 89.992 6.5412
67.271713 89.983 6.4442
67.759193 89.971 6.3408
68.250206 89.958 6.2402
68.744774 89.943 6.1510
69.242928 89.927 6.0711
69.744690 89.913 6.0010
70.250084 89.899 5.9411
70.759148 89.884 5.8938
71.271896 89.870 5.8541
71.788361 89.861 5.8210
72.308571 89.855 5.7851
72.832550 89.851 5.7356
73.360321 89.848 5.6751
73.891922 89.844 5.6014
74.427376 89.838 5.5182
74.966705 89.831 5.4259
75.509949 89.822 5.3322
76.057121 89.807 5.2427
76.608261 89.790 5.1641
77.163399 89.772 5.1065
77.722557 89.753 5.0661
78.285767 89.736 5.0434
78.853058 89.720 5.0360
79.424461 89.705 5.0435
80.000000 89.692 5.0600
80.579712 89.685 5.0811
81.163628 89.680 5.1010
81.751770 89.677 5.1129
82.344177 89.676 5.1150
82.940880 89.677 5.1030
83.541901 89.679 5.0781
84.147285 89.679 5.0374
84.757050 89.678 4.9881
85.371231 89.673 4.9351
85.989868 89.667 4.8821
86.612984 89.660 4.8343
87.240616 89.652 4.7921
87.872803 89.642 4.7565
88.509560 89.632 4.7300
89.150940 89.621 4.7166
89.796967 89.611 4.7130
90.447670 89.604 4.7194
91.103088 89.599 4.7300
91.763260 89.595 4.7390
92.428215 89.592 4.7460
93.097992 89.591 4.7487
93.772614 89.591 4.7470
94.452133 89.591 4.7398
95.136566 89.591 4.7280
95.825966 89.591 4.7122
96.520363 89.591 4.6930
97.219788 89.591 4.6714
97.924286 89.591 4.6471
98.633881 89.591 4.6200
99.348625 89.591 4.5901
100.068542 89.591 4.5573
100.793686 89.591 4.5211
101.524078 89.591 4.4810
102.259766 89.590 4.4371
103.000778 89.589 4.3890
103.747162 89.588 4.3371
104.498962 89.586 4.2810
105.256203 89.583 4.2231
106.018929 89.578 4.1645
106.787186 89.571 4.1081
107.561012 89.563 4.0571
108.340446 89.555 4.0111
109.125526 89.546 3.9704
109.916290 89.536 3.9361
110.712791 89.526 3.9087
111.515060 89.515 3.8890
112.323143 89.504 3.8789
113.137085 89.494 3.8760
113.956924 89.485 3.8788
114.782700 89.476 3.8870
115.614464 89.467 3.8997
116.452255 89.459 3.9170
117.296112 89.453 3.9390
118.146095 89.447 3.9639
119.002228 89.442 3.9906
119.864563 89.437 4.0179
120.733154 89.434 4.0451
121.608040 89.432 4.0709
122.489258 89.431 4.0944
123.376869 89.431 4.1150
124.270905 89.430 4.1314
125.171425 89.430 4.1450
126.078468 89.430 4.1565
126.992081 89.430 4.1660
127.912323 89.430 4.1732
128.839233 89.430 4.1790
129.772842 89.430 4.1841
130.713242 89.430 4.1880
131.660431 89.430 4.1904
132.614502 89.430 4.1920
133.575485 89.430 4.1933
134.543427 89.430 4.1940
135.518387 89.430 4.1938
136.500412 89.430 4.1930
137.489548 89.430 4.1918
138.485855 89.430 4.1900
139.489380 89.430 4.1877
140.500168 89.430 4.1850
141.518295 89.430 4.1823
142.543793 89.430 4.1790
143.576721 89.430 4.1748
144.617142 89.430 4.1700
145.665100 89.430 4.1652
146.720642 89.430 4.1600
147.783844 89.430 4.1543
148.854752 89.430 4.1480
149.933411 89.430 4.1413
151.019897 89.430 4.1340
152.114243 89.430 4.1265
153.216522 89.430 4.1180
154.326797 89.430 4.1082
155.445114 89.430 4.0970
156.571533 89.430 4.0845
157.706116 89.430 4.0700
158.848923 89.430 4.0531
160.000000 89.429 4.0340
161.159424 89.428 4.0126
162.327255 89.427 3.9901
163.503540 89.424 3.9663
164.688354 89.420 3.9450
165.881760 89.414 3.9295
167.083801 89.407 3.9210
168.294571 89.400 3.9224
169.514099 89.394 3.9330
170.742462 89.388 3.9541
171.979736 89.383 3.9819
173.225967 89.381 4.0151
174.481232 89.380 4.0479
175.745605 89.382 4.0747
177.019119 89.385 4.0940
178.301880 89.389 4.1016
179.593933 89.393 4.1000
180.895340 89.395 4.0888
182.206177 89.396 4.0730
183.526520 89.395 4.0560
184.856430 89.392 4.0420
186.195984 89.388 4.0361
187.545227 89.383 4.0390
188.904266 89.378 4.0544
190.273132 89.374 4.0779
191.651932 89.373 4.1088
193.040726 89.375 4.1399
194.439575 89.380 4.1647
195.848572 89.386 4.1810
197.267761 89.392 4.1843
198.697250 89.399 4.1750
200.137085 89.407 4.1519
201.587372 89.414 4.1161
203.048157 89.419 4.0673
204.519531 89.423 4.0092
206.001556 89.424 3.9446
207.494324 89.423 3.8762
208.997925 89.420 3.8070
210.512405 89.416 3.7382
212.037857 89.410 3.6711
213.574371 89.403 3.6071
215.122025 89.394 3.5480
216.680893 89.383 3.4941
218.251053 89.372 3.4461
219.832581 89.359 3.4051
221.425583 89.345 3.3728
223.030121 89.331 3.3481
224.646286 89.317 3.3306
226.274170 89.302 3.3200
227.913849 89.288 3.3161
229.565399 89.273 3.3180
231.228928 89.259 3.3249
232.904510 89.244 3.3370
234.592224 89.229 3.3541
236.292191 89.214 3.3759
238.004456 89.199 3.4018
239.729126 89.185 3.4319
241.466309 89.171 3.4663
243.216080 89.156 3.5049
244.978516 89.141 3.5473
246.753738 89.126 3.5939
248.541809 89.111 3.6448
250.342850 89.097 3.6998
252.156937 89.083 3.7588
253.984161 89.068 3.8218
255.824646 89.054 3.8892
257.678467 89.039 3.9608
259.545685 89.024 4.0366
261.426483 89.009 4.1168
263.320862 88.994 4.2019
265.229004 88.980 4.2917
267.150970 88.966 4.3861
269.086853 88.951 4.4857
271.036774 88.936 4.5913
273.000824 88.921 4.7027
274.979095 88.906 4.8194
276.971710 88.892 4.9426
278.978760 88.878 5.0726
281.000336 88.863 5.2106
283.036591 88.849 5.3576
285.087585 88.834 5.5145
287.153442 88.819 5.6821
289.234283 88.805 5.8615
291.330200 88.792 6.0545
293.441284 88.780 6.2604
295.567688 88.770 6.4808
297.709503 88.763 6.7114
299.866821 88.759 6.9497
302.039795 88.757 7.1923
304.228485 88.759 7.4355
306.433044 88.763 7.6773
308.653595 88.770 7.9154
310.890228 88.779 8.1474
313.143066 88.790 8.3696
315.412231 88.803 8.5834
317.697845 88.816 8.7881
320.000000 88.830 8.9864
322.318848 88.844 9.1808
324.654510 88.858 9.3714
327.007080 88.873 9.5590
329.376709 88.889 9.7444
331.763519 88.905 9.9291
334.167603 88.922 10.1124
336.589142 88.940 10.2949
339.028198 88.959 10.4745
341.484924 88.980 10.6497
343.959473 89.002 10.8195
346.451935 89.025 10.9823
348.962463 89.048 11.1386
351.491211 89.072 11.2874
354.038239 89.096 11.4316
356.603760 89.119 11.5737
359.187866 89.143 11.7136
361.790680 89.168 11.8520
364.412354 89.194 11.9886
367.053040 89.220 12.1228
369.712860 89.247 12.2556
372.391968 89.275 12.3890
375.090454 89.304 12.5196
377.808533 89.336 12.6459
380.546265 89.370 12.7637
383.303864 89.406 12.8684
386.081451 89.443 12.9598
388.879150 89.481 13.0362
391.697144 89.520 13.0968
394.535522 89.560 13.1404
397.394501 89.600 13.1669
400.274170 89.638 13.1753
403.174744 89.676 13.1680
406.096313 89.713 13.1468
409.039062 89.748 13.1131
412.003113 89.781 13.0688
414.988647 89.812 13.0152
417.995850 89.842 12.9542
421.024811 89.871 12.8862
424.075714 89.898 12.8122
427.148743 89.924 12.7323
430.244049 89.948 12.6465
433.361786 89.971 12.5553
436.502106 89.992 12.4584
439.665161 90.010 12.3583
442.851166 90.026 12.2567
446.060242 90.039 12.1563
449.292572 90.050 12.0595
452.548340 90.058 11.9693
455.827698 90.064 11.8884
459.130798 90.068 11.8192
462.457855 90.070 11.7648
465.809021 90.072 11.7251
469.184448 90.073 11.7014
472.584381 90.075 11.6920
476.008911 90.077 11.6969
479.458252 90.081 11.7129
482.932617 90.087 11.7376
486.432159 90.094 11.7689
489.957031 90.103 11.8048
493.507477 90.113 11.8429
497.083618 90.126 11.8809
500.685699 90.140 11.9169
504.313873 90.156 11.9488
507.968323 90.173 11.9749
511.649292 90.191 11.9940
515.356934 90.211 12.0030
519.091370 90.232 11.9991
522.852966 90.254 11.9811
526.641724 90.276 11.9462
530.458008 90.297 11.8962
534.301941 90.316 11.8315
538.173706 90.334 11.7533
542.073547 90.350 11.6621
546.001648 90.363 11.5604
549.958191 90.373 11.4489
553.943420 90.380 11.3324
557.957520 90.383 11.2146
562.000671 90.382 11.0984
566.073181 90.378 10.9861
570.175171 90.369 10.8833
574.306885 90.355 10.7946
578.468567 90.338 10.7252
582.660400 90.318 10.6802
586.882568 90.294 10.6640
591.135376 90.267 10.6813
595.419006 90.238 10.7357
599.733643 90.209 10.8339
604.079590 90.181 10.9715
608.456970 90.156 11.1479
612.866089 90.135 11.3582
617.307190 90.118 11.5988
621.780457 90.105 11.8651
626.286133 90.098 12.1538
630.824463 90.096 12.4580
635.395691 90.101 12.7701
640.000000 90.111 13.0879
644.637695 90.126 13.4071
649.309021 90.145 13.7259
654.014160 90.169 14.0420
658.753418 90.199 14.3520
663.527039 90.233 14.6527
668.335205 90.273 14.9411
673.178284 90.317 15.2140
678.056396 90.365 15.4682
682.969849 90.417 15.6998
687.918945 90.473 15.9063
692.903870 90.532 16.0844
697.924927 90.593 16.2325
702.982422 90.655 16.3476
708.076477 90.719 16.4308
713.207520 90.782 16.4812
718.375732 90.844 16.5020
723.581360 90.904 16.4938
728.824707 90.961 16.4622
734.106079 91.015 16.4110
739.425720 91.066 16.3453
744.783936 91.114 16.2712
750.180908 91.160 16.1893
755.617065 91.204 16.1014
761.092529 91.246 16.0103
766.607727 91.284 15.9191
772.162903 91.321 15.8293
777.758301 91.357 15.7443
783.394287 91.393 15.6623
789.071045 91.427 15.5820
794.789001 91.461 15.5053
800.548340 91.493 15.4338
806.349487 91.525 15.3672
812.192627 91.558 15.3059
818.078125 91.591 15.2492
824.006226 91.624 15.1967
829.977295 91.657 15.1482
835.991699 91.692 15.1033
842.049622 91.728 15.0621
848.151428 91.764 15.0247
854.297485 91.801 14.9901
860.488098 91.841 14.9594
866.723572 91.884 14.9271
873.004211 91.930 14.8891
879.330322 91.979 14.8432
885.702332 92.030 14.7876
892.120483 92.084 14.7173
898.585144 92.141 14.6281
905.096680 92.201 14.5155
911.655396 92.263 14.3738
918.261597 92.326 14.2027
924.915710 92.389 14.0006
931.618042 92.452 13.7649
938.368896 92.514 13.4921
945.168762 92.575 13.1842
952.017822 92.631 12.8396
958.916504 92.682 12.4665
965.865234 92.727 12.0706
972.864319 92.767 11.6585
979.914062 92.801 11.2355
987.014954 92.828 10.8106
994.167236 92.848 10.3923
1001.371399 92.862 9.9874
1008.627747 92.871 9.6061
1015.936646 92.878 9.2475
1023.298584 92.884 8.9158
1030.713867 92.890 8.6050
1038.182739 92.897 8.3132
1045.705933 92.907 8.0312
1053.283447 92.920 7.7503
1060.916016 92.935 7.4662
1068.603882 92.950 7.1720
1076.347412 92.965 6.8673
1084.147095 92.980 6.5491
1092.003296 92.994 6.2181
1099.916382 93.006 5.8722
1107.886841 93.015 5.5175
1115.915039 93.020 5.1581
1124.001343 93.021 4.7993
1132.146362 93.019 4.4481
1140.350342 93.015 4.1043
1148.613770 93.009 3.7704
1156.937134 93.002 3.4454
1165.320801 92.994 3.1300
1173.765137 92.986 2.8214
1182.270752 92.978 2.5170
1190.838013 92.969 2.2162
1199.467285 92.960 1.9177
1208.159180 92.950 1.6202
1216.913940 92.941 1.3230
1225.732178 92.931 1.0231
1234.614380 92.921 0.7179
1243.560913 92.911 0.4052
1252.572266 92.900 0.0815
1261.648926 92.887 -0.2516
1270.791382 92.871 -0.5951
1280.000000 92.851 -0.9446
1289.275391 92.827 -1.2978
1298.618042 92.799 -1.6495
1308.028320 92.767 -1.9952
1317.506836 92.730 -2.3306
1327.054077 92.688 -2.6505
1336.670410 92.643 -2.9529
1346.356567 92.595 -3.2325
1356.112793 92.545 -3.4931
1365.939697 92.495 -3.7360
1375.837891 92.442 -3.9631
1385.807739 92.387 -4.1773
1395.849854 92.330 -4.3772
1405.964844 92.271 -4.5644
1416.152954 92.207 -4.7324
1426.415039 92.139 -4.8795
1436.751465 92.066 -4.9926
1447.162720 91.986 -5.0604
1457.649414 91.902 -5.0761
1468.212158 91.817 -5.0296
1478.851440 91.732 -4.9195
1489.567871 91.648 -4.7402
1500.361816 91.566 -4.4951
1511.234131 91.491 -4.1803
1522.185059 91.425 -3.8118
1533.215454 91.371 -3.3990
1544.325806 91.329 -2.9580
1555.516602 91.300 -2.5035
1566.788574 91.282 -2.0489
1578.142090 91.277 -1.6092
1589.578003 91.282 -1.1947
1601.096680 91.297 -0.8196
1612.698975 91.319 -0.4873
1624.385254 91.345 -0.2065
1636.156250 91.375 0.0251
1648.012451 91.406 0.2056
1659.954590 91.437 0.3386
1671.983398 91.467 0.4266
1684.099243 91.496 0.4709
1696.302856 91.522 0.4730
1708.594971 91.544 0.4353
1720.976196 91.562 0.3583
1733.447144 91.575 0.2485
1746.008423 91.579 0.1084
1758.660645 91.575 -0.0493
1771.404663 91.561 -0.2146
1784.240967 91.537 -0.3774
1797.170288 91.504 -0.5283
1810.193359 91.460 -0.6556
1823.310791 91.406 -0.7477
1836.523193 91.342 -0.7939
1849.831421 91.271 -0.7817
1863.236084 91.192 -0.7055
1876.737793 91.109 -0.5581
1890.337524 91.020 -0.3322
1904.035645 90.928 -0.0200
1917.833008 90.833 0.3842
1931.730469 90.740 0.8892
1945.728638 90.649 1.4932
1959.828125 90.564 2.1991
1974.029907 90.485 3.0024
1988.334473 90.417 3.9031
2002.742798 90.361 4.8899
2017.255493 90.322 5.9582
2031.873291 90.300 7.0874
2046.597168 90.300 8.2597
2061.427734 90.319 9.4616
2076.365479 90.356 10.6776
2091.411865 90.413 11.8979
2106.566895 90.488 13.1120
2121.832031 90.583 14.3071
2137.207764 90.696 15.4693
2152.694824 90.826 16.5906
2168.294189 90.973 17.6618
2184.006592 91.136 18.6735
2199.832764 91.315 19.6184
2215.773682 91.509 20.4817
2231.830078 91.716 21.2479
2248.002686 91.934 21.9125
2264.292725 92.159 22.4653
2280.700684 92.389 22.9064
2297.227539 92.622 23.2299
2313.874268 92.855 23.4424
2330.641602 93.085 23.5439
2347.530273 93.311 23.5472
2364.541504 93.530 23.4605
2381.676025 93.743 23.2979
2398.934570 93.949 23.0740
2416.318359 94.149 22.7954
2433.827881 94.344 22.4742
2451.464355 94.536 22.1076
2469.228760 94.727 21.6987
2487.121826 94.915 21.2421
2505.144531 95.101 20.7339
2523.297852 95.282 20.1727
2541.582764 95.459 19.5548
2560.000000 95.630 18.8831
2578.550781 95.794 18.1559
2597.236084 95.948 17.3837
2616.056641 96.091 16.5707
2635.013672 96.222 15.7336
2654.108154 96.342 14.8869
2673.340820 96.453 14.0407
2692.713135 96.554 13.2092
2712.225586 96.648 12.3948
2731.879395 96.736 11.6048
2751.675781 96.821 10.8385
2771.615479 96.902 10.0979
2791.699707 96.982 9.3811
2811.929688 97.060 8.6878
2832.305908 97.138 8.0161
2852.830078 97.215 7.3623
2873.502930 97.293 6.7317
2894.325439 97.370 6.1286
2915.298828 97.450 5.5516
2936.424316 97.535 5.0051
2957.702881 97.628 4.4763
2979.135742 97.730 3.9612
3000.723633 97.845 3.4363
3022.468262 97.976 2.8869
3044.370117 98.120 2.2830
3066.430908 98.280 1.5963
3088.651611 98.448 0.8058
3111.033203 98.622 -0.1186
3133.577148 98.794 -1.1786
3156.284180 98.960 -2.3923
3179.156006 99.114 -3.7403
3202.193359 99.250 -5.2205
3225.397949 99.366 -6.7983
3248.770508 99.454 -8.4506
3272.312500 99.518 -10.1404
3296.024902 99.555 -11.8319
3319.909180 99.568 -13.4974
3343.966797 99.558 -15.1019
3368.198486 99.530 -16.6319
3392.605713 99.488 -18.0639
3417.189941 99.435 -19.3931
3441.952393 99.373 -20.6062
3466.894287 99.307 -21.7063
3492.016846 99.243 -22.6880
3517.321289 99.182 -23.5642
3542.809326 99.130 -24.3381
3568.481934 99.090 -25.0329
3594.340576 99.067 -25.6613
3620.386719 99.063 -26.2582
3646.621582 99.081 -26.8502
3673.046387 99.120 -27.4759
3699.662842 99.180 -28.1740
3726.472168 99.256 -28.9700
3753.475586 99.342 -29.9022
3780.675049 99.432 -30.9709
3808.071289 99.517 -32.1957
3835.666016 99.593 -33.5562
3863.460938 99.652 -35.0497
3891.457275 99.693 -36.6422
3919.656250 99.709 -38.3101
3948.059814 99.702 -40.0200
3976.668945 99.670 -41.7386
4005.485596 99.615 -43.4427
4034.510986 99.539 -45.1033
4063.746582 99.443 -46.7055
4093.194336 99.331 -48.2295
4122.855469 99.203 -49.6622
4152.730957 99.060 -50.9881
4182.823730 98.908 -52.1956
4213.133789 98.747 -53.2668
4243.664062 98.584 -54.2059
4274.415527 98.422 -55.0042
4305.389648 98.268 -55.6810
4336.588379 98.125 -56.2426
4368.013184 97.998 -56.7189
4399.665527 97.890 -57.1295
4431.547363 97.803 -57.5112
4463.660156 97.741 -57.8968
4496.005371 97.699 -58.3177
4528.585449 97.675 -58.8126
4561.401367 97.662 -59.3920
4594.455078 97.656 -60.0860
4627.748535 97.650 -60.8749
4661.283203 97.634 -61.7612
4695.060547 97.608 -62.7083
4729.083008 97.567 -63.6911
4763.352051 97.512 -64.6774
4797.869141 97.443 -65.6320
4832.636719 97.364 -66.5386
4867.655762 97.280 -67.3673
4902.928711 97.196 -68.1235
4938.457520 97.119 -68.7895
4974.243652 97.057 -69.4052
5010.289062 97.020 -69.9817
5046.595703 97.009 -70.5878
5083.165527 97.032 -71.2773
5120.000000 97.080 -72.1065
5157.101562 97.148 -73.1437
5194.472168 97.224 -74.4062
5232.113281 97.298 -75.9419
5270.027344 97.358 -77.7264
5308.216309 97.390 -79.7735
5346.681641 97.387 -82.0166
5385.426270 97.337 -84.4209
5424.451172 97.239 -86.9038
5463.758789 97.085 -89.3911
5503.351562 96.882 -91.8224
5543.230957 96.631 -94.1202
5583.399414 96.340 -96.2610
5623.859375 96.014 -98.1938
5664.611816 95.663 -99.9240
5705.660156 95.296 -101.4326
5747.005859 94.918 -102.7427
5788.650879 94.538 -103.8646
5830.597656 94.156 -104.8175
5872.848633 93.777 -105.6220
5915.405762 93.398 -106.2849
5958.271484 93.020 -106.8188
6001.447266 92.643 -107.2272
6044.936523 92.268 -107.5166
6088.740234 91.895 -107.6914
6132.861816 91.524 -107.7561
6177.303223 91.157 -107.7165
6222.066406 90.796 -107.5789
6267.154297 90.439 -107.3464
6312.568359 90.085 -107.0256
6358.312012 89.733 -106.6113
6404.386719 89.383 -106.1042
6450.795898 89.035 -105.4934
6497.541016 88.685 -104.7740
6544.625000 88.335 -103.9296
6592.049805 87.984 -102.9487
6639.818359 87.634 -101.8123
6687.933594 87.285 -100.5039
6736.396973 86.941 -99.0033
6785.211426 86.601 -97.2859
6834.379883 86.276 -95.3476
6883.904785 85.970 -93.1679
6933.788574 85.693 -90.7719
6984.033691 85.455 -88.1625
7034.642578 85.264 -85.3863
7085.618652 85.130 -82.4698
7136.963867 85.057 -79.4771
7188.681152 85.056 -76.4585
7240.773438 85.122 -73.4827
7293.243164 85.257 -70.6170
7346.092773 85.453 -67.9161
7399.325684 85.705 -65.4487
7452.944336 86.000 -63.2394
7506.951172 86.325 -61.3375
7561.350098 86.671 -59.7365
7616.142578 87.029 -58.4529
7671.332031 87.391 -57.4663
7726.921875 87.750 -56.7711
7782.914551 88.104 -56.3386
7839.312500 88.448 -56.1447
7896.119629 88.783 -56.1693
7953.337891 89.110 -56.3880
8010.971191 89.427 -56.7894
8069.021973 89.734 -57.3548
8127.493164 90.031 -58.0827
8186.388672 90.321 -58.9617
8245.710938 90.602 -60.0031
8305.461914 90.874 -61.2136
8365.647461 91.133 -62.5952
8426.267578 91.376 -64.1545
8487.328125 91.600 -65.8844
8548.831055 91.803 -67.7817
8610.779297 91.983 -69.8417
8673.176758 92.138 -72.0670
8736.026367 92.260 -74.4328
8799.331055 92.344 -76.9256
8863.094727 92.388 -79.5141
8927.320312 92.394 -82.1775
8992.010742 92.355 -84.8708
9057.170898 92.265 -87.5622
9122.802734 92.125 -90.1904
9188.910156 91.934 -92.6963
9255.497070 91.697 -95.0408
9322.566406 91.419 -97.1817
9390.121094 91.098 -99.0688
9458.166016 90.733 -100.6508
9526.704102 90.335 -101.8885
9595.738281 89.912 -102.7273
9665.273438 89.474 -103.1618
9735.311523 89.033 -103.1702
9805.857422 88.596 -102.7475
9876.915039 88.167 -101.8627
9948.487305 87.775 -100.5710
10020.578125 87.445 -98.8820
10093.191406 87.188 -96.9034
10166.331055 87.021 -94.7048
10240.000000 86.952 -92.4122
10314.203125 86.999 -90.1285
10388.944336 87.147 -87.9926
10464.226562 87.397 -86.1554
10540.054688 87.715 -84.6825
10616.432617 88.074 -83.6958
10693.363281 88.454 -83.1786
10770.852539 88.829 -83.1774
10848.902344 89.189 -83.6205
10927.517578 89.514 -84.4800
11006.703125 89.808 -85.6678
11086.461914 90.063 -87.1041
11166.798828 90.288 -88.7355
11247.718750 90.486 -90.4800
11329.223633 90.665 -92.3451
11411.320312 90.836 -94.2969
11494.011719 90.996 -96.3783
11577.301758 91.151 -98.6120
11661.195312 91.292 -101.0270
11745.697266 91.415 -103.6666
11830.811523 91.509 -106.5110
11916.542969 91.561 -109.5796
12002.894531 91.565 -112.7978
12089.873047 91.509 -116.1300
12177.480469 91.392 -119.4781
12265.723633 91.207 -122.7582
12354.606445 90.962 -125.8906
12444.132812 90.658 -128.7756
12534.308594 90.309 -131.3897
12625.136719 89.922 -133.6625
12716.624023 89.516 -135.6353
12808.773438 89.108 -137.3009
12901.591797 88.705 -138.7364
12995.082031 88.321 -139.9937
13089.250000 87.956 -141.1414
13184.099609 87.618 -142.2565
13279.636719 87.296 -143.3672
13375.867188 86.981 -144.5338
13472.793945 86.664 -145.7361
13570.422852 86.334 -146.9905
13668.759766 85.982 -148.2466
13767.809570 85.597 -149.4824
13867.577148 85.177 -150.6277
13968.067383 84.711 -151.6287
14069.285156 84.205 -152.4143
14171.237305 83.657 -152.9254
14273.927734 83.069 -153.0714
14377.362305 82.438 -152.7775
14481.546875 81.774 -151.9369
14586.486328 81.077 -150.4332
14692.185547 80.374 -148.2211
14798.651367 79.678 -145.1834
14905.888672 79.039 -141.4199
15013.902344 78.498 -136.9146
15122.700195 78.108 -131.9006
15232.285156 77.935 -126.5064
15342.664062 77.988 -121.0350
15453.843750 78.322 -115.7307
15565.829102 78.869 -110.9003
15678.625000 79.606 -106.8802
15792.239258 80.450 -103.8255
15906.675781 81.324 -102.0201
16021.942383 82.185 -101.4140
16138.043945 82.971 -102.1102
16254.986328 83.669 -103.9274
16372.777344 84.247 -106.8028
16491.421875 84.700 -110.4807
16610.923828 85.010 -114.7671
16731.294922 85.182 -119.4085
16852.535156 85.215 -124.1496
16974.656250 85.117 -128.8005
17097.662109 84.894 -133.1255
17221.558594 84.560 -137.0051
17346.353516 84.124 -140.2491
17472.052734 83.611 -142.8344
17598.662109 83.042 -144.6470
17726.189453 82.449 -145.7714
17854.640625 81.864 -146.2074
17984.021484 81.310 -146.0989
18114.341797 80.819 -145.5395
18245.605469 80.400 -144.6824
18377.820312 80.081 -143.6748
18510.994141 79.843 -142.6289
18645.132812 79.687 -141.6960
18780.242188 79.588 -140.9068
18916.332031 79.528 -140.3506
19053.408203 79.490 -140.0014
19191.476562 79.457 -139.8803
19330.546875 79.421 -139.9333
19470.623047 79.367 -140.1291
19611.714844 79.299 -140.4192
19753.830078 79.214 -140.7502
19896.974609 79.117 -141.1058
