* Measurement data measured by REW V5.20.13
* Source: C:\Users\kurin\Desktop\Targets and Curves\Resolve\Img\Files\N700NCM2_SPL.txt
* Format: Comma/Tab/Space delimited data
* Dated: Aug 15, 2023 12:14:34 AM
* REW Settings:
*  C-weighting compensation: Off
*  Target level: 75.0 dB
* Note: ; Measurement imported from C:\Users\kurin\Desktop\Targets and Curves\Resolve\Img\Files\N700NCM2_SPL.txt Format: Comma/Tab/Space delimited data 623 values loaded, 5 Hz to 39,792 Hz log spaced 
* Measurement: N700NCM2_SPL
* Smoothing: 1/48 octave
* Frequency Step: 1/96 octave
* Start Frequency: 5.000 Hz
*
* Freq(Hz) SPL(dB) Phase(degrees)
5.000000 82.726 60.2030
5.036232 82.747 60.1771
5.072727 82.769 60.1490
5.109486 82.795 60.1159
5.146511 82.826 60.0780
5.183805 82.863 60.0332
5.221369 82.903 59.9850
5.259205 82.944 59.9366
5.297316 82.988 59.8860
5.335702 83.034 59.8316
5.374367 83.081 59.7760
5.413311 83.128 59.7215
5.452538 83.175 59.6670
5.492050 83.221 59.6122
5.531847 83.268 59.5570
5.571934 83.315 59.5013
5.612310 83.362 59.4450
5.652979 83.409 59.3882
5.693943 83.455 59.3310
5.735204 83.502 59.2736
5.776763 83.549 59.2160
5.818624 83.595 59.1583
5.860788 83.642 59.1000
5.903258 83.689 59.0407
5.946035 83.736 58.9810
5.989123 83.782 58.9217
6.032523 83.829 58.8620
6.076237 83.876 58.8013
6.120268 83.923 58.7400
6.164618 83.969 58.6787
6.209289 84.016 58.6170
6.254284 84.063 58.5548
6.299605 84.110 58.4920
6.345255 84.156 58.4288
6.391235 84.203 58.3650
6.437549 84.250 58.3008
6.484198 84.297 58.2360
6.531185 84.343 58.1707
6.578513 84.390 58.1050
6.626183 84.437 58.0393
6.674199 84.484 57.9730
6.722563 84.530 57.9058
6.771278 84.577 57.8380
6.820345 84.624 57.7702
6.869768 84.671 57.7020
6.919549 84.717 57.6333
6.969691 84.764 57.5640
7.020196 84.811 57.4938
7.071068 84.858 57.4230
7.122308 84.904 57.3523
7.173919 84.951 57.2810
7.225904 84.998 57.2088
7.278266 85.045 57.1360
7.331007 85.091 57.0628
7.384131 85.138 56.9890
7.437639 85.185 56.9148
7.491535 85.232 56.8400
7.545822 85.278 56.7648
7.600502 85.325 56.6890
7.655579 85.372 56.6128
7.711054 85.419 56.5360
7.766932 85.465 56.4583
7.823214 85.512 56.3800
7.879904 85.559 56.3013
7.937005 85.606 56.2220
7.994520 85.652 56.1423
8.052452 85.699 56.0620
8.110803 85.746 55.9808
8.169578 85.793 55.8990
8.228777 85.839 55.8168
8.288406 85.886 55.7340
8.348468 85.933 55.6503
8.408964 85.980 55.5660
8.469899 86.026 55.4813
8.531276 86.073 55.3960
8.593097 86.120 55.3099
8.655366 86.167 55.2230
8.718086 86.213 55.1353
8.781260 86.260 55.0470
8.844893 86.307 54.9583
8.908987 86.354 54.8690
8.973545 86.400 54.7789
9.038571 86.447 54.6880
9.104069 86.494 54.5969
9.170040 86.541 54.5050
9.236490 86.587 54.4119
9.303422 86.634 54.3180
9.370838 86.681 54.2239
9.438744 86.728 54.1290
9.507140 86.774 54.0329
9.576033 86.821 53.9360
9.645425 86.868 53.8389
9.715320 86.915 53.7411
9.785721 86.961 53.6425
9.856632 87.008 53.5430
9.928058 87.055 53.4424
10.000000 87.102 53.3410
10.072464 87.148 53.2395
10.145453 87.195 53.1371
10.218971 87.242 53.0335
10.293022 87.289 52.9290
10.367610 87.336 52.8239
10.442738 87.382 52.7180
10.518411 87.429 52.6114
10.594631 87.476 52.5040
10.671404 87.522 52.3954
10.748734 87.569 52.2860
10.826623 87.616 52.1759
10.905077 87.663 52.0651
10.984100 87.709 51.9536
11.063695 87.756 51.8411
11.143867 87.803 51.7270
11.224621 87.850 51.6120
11.305959 87.896 51.4970
11.387886 87.943 51.3811
11.470407 87.990 51.2636
11.553527 88.037 51.1450
11.637249 88.083 51.0260
11.721577 88.130 50.9061
11.806517 88.177 50.7852
11.892071 88.224 50.6631
11.978246 88.270 50.5396
12.065045 88.317 50.4150
12.152473 88.364 50.2899
12.240536 88.411 50.1640
12.329235 88.457 50.0371
12.418578 88.504 49.9091
12.508568 88.551 49.7802
12.599211 88.598 49.6501
12.690510 88.644 49.5187
12.782471 88.691 49.3861
12.875097 88.738 49.2526
12.968395 88.785 49.1181
13.062370 88.831 48.9826
13.157025 88.878 48.8461
13.252366 88.925 48.7081
13.348398 88.972 48.5691
13.445127 89.018 48.4293
13.542556 89.065 48.2882
13.640691 89.112 48.1452
13.739536 89.159 48.0010
13.839099 89.205 47.8561
13.939383 89.252 47.7101
14.040393 89.299 47.5627
14.142136 89.346 47.4141
14.244616 89.392 47.2642
14.347837 89.439 47.1131
14.451808 89.486 46.9607
14.556532 89.533 46.8071
14.662014 89.579 46.6523
14.768262 89.626 46.4962
14.875278 89.673 46.3384
14.983070 89.720 46.1792
15.091644 89.766 46.0183
15.201005 89.813 45.8561
15.311157 89.860 45.6928
15.422109 89.907 45.5281
15.533863 89.953 45.3619
15.646428 90.000 45.1941
15.759809 90.047 45.0249
15.874010 90.094 44.8541
15.989040 90.140 44.6819
16.104904 90.187 44.5081
16.221605 90.234 44.3329
16.339155 90.281 44.1562
16.457554 90.327 43.9779
16.576813 90.374 43.7981
16.696936 90.421 43.6169
16.817928 90.468 43.4341
16.939798 90.514 43.2496
17.062551 90.561 43.0632
17.186193 90.608 42.8750
17.310732 90.655 42.6851
17.436172 90.701 42.4939
17.562521 90.748 42.3011
17.689787 90.795 42.1071
17.817974 90.842 41.9112
17.947090 90.888 41.7130
18.077143 90.935 41.5131
18.208138 90.982 41.3124
18.340080 91.029 41.1102
18.472980 91.075 40.9059
18.606844 91.122 40.7001
18.741676 91.169 40.4933
18.877487 91.216 40.2852
19.014280 91.263 40.0756
19.152065 91.309 39.8653
19.290850 91.355 39.6551
19.430639 91.402 39.4451
19.571442 91.450 39.2359
19.713264 91.498 39.0273
19.856115 91.546 38.8199
20.000000 91.595 38.6112
20.144928 91.647 38.4002
20.290907 91.700 38.1832
20.437943 91.754 37.9563
20.586044 91.809 37.7192
20.735220 91.865 37.4708
20.885475 91.921 37.2093
21.036821 91.977 36.9312
21.189262 92.033 36.6404
21.342808 92.086 36.3393
21.497467 92.139 36.0294
21.653246 92.191 35.7137
21.810154 92.243 35.3894
21.968201 92.294 35.0525
22.127390 92.343 34.7094
22.287735 92.388 34.3649
22.449242 92.431 34.0203
22.611917 92.475 33.6799
22.775772 92.520 33.3384
22.940815 92.564 32.9904
23.107054 92.608 32.6405
23.274498 92.649 32.2921
23.443153 92.689 31.9435
23.613033 92.732 31.5956
23.784142 92.775 31.2433
23.956491 92.818 30.8811
24.130091 92.861 30.5114
24.304947 92.902 30.1344
24.481071 92.942 29.7515
24.658470 92.981 29.3641
24.837156 93.019 28.9725
25.017136 93.056 28.5767
25.198421 93.091 28.1794
25.381020 93.125 27.7841
25.564941 93.158 27.3894
25.750195 93.191 26.9960
25.936790 93.225 26.6005
26.124741 93.259 26.1995
26.314051 93.292 25.7936
26.504732 93.324 25.3813
26.696796 93.355 24.9645
26.890253 93.385 24.5445
27.085112 93.414 24.1215
27.281382 93.442 23.6954
27.479073 93.468 23.2676
27.678198 93.492 22.8391
27.878765 93.516 22.4106
28.080786 93.539 21.9835
28.284271 93.562 21.5566
28.489231 93.584 21.1295
28.695675 93.605 20.7016
28.903616 93.625 20.2718
29.113064 93.645 19.8406
29.324028 93.663 19.4079
29.536524 93.681 18.9745
29.750557 93.698 18.5419
29.966141 93.715 18.1075
30.183289 93.731 17.6679
30.402010 93.746 17.2265
30.622314 93.758 16.7852
30.844217 93.768 16.3455
31.067726 93.778 15.9099
31.292856 93.786 15.4777
31.519617 93.793 15.0477
31.748020 93.799 14.6235
31.978081 93.803 14.2084
32.209808 93.807 13.8015
32.443211 93.812 13.4049
32.678310 93.817 13.0135
32.915108 93.824 12.6239
33.153625 93.831 12.2335
33.393871 93.839 11.8391
33.635857 93.848 11.4396
33.879597 93.857 11.0328
34.125103 93.865 10.6186
34.372387 93.873 10.1954
34.621464 93.880 9.7647
34.872345 93.884 9.3261
35.125042 93.887 8.8835
35.379574 93.888 8.4399
35.635948 93.886 7.9975
35.894180 93.882 7.5588
36.154285 93.875 7.1266
36.416275 93.867 6.7058
36.680161 93.858 6.2936
36.945961 93.850 5.8892
37.213688 93.841 5.4916
37.483353 93.832 5.1002
37.754974 93.822 4.7136
38.028561 93.813 4.3312
38.304131 93.805 3.9505
38.581699 93.797 3.5680
38.861279 93.789 3.1856
39.142883 93.779 2.8036
39.426529 93.768 2.4225
39.712231 93.758 2.0422
40.000000 93.746 1.6646
40.289856 93.732 1.2904
40.581814 93.717 0.9225
40.875885 93.702 0.5657
41.172089 93.688 0.2145
41.470440 93.676 -0.1341
41.770950 93.664 -0.4824
42.073643 93.652 -0.8348
42.378525 93.639 -1.1885
42.685616 93.626 -1.5416
42.994934 93.612 -1.8955
43.306492 93.599 -2.2512
43.620308 93.586 -2.6085
43.936401 93.571 -2.9683
44.254780 93.555 -3.3274
44.575470 93.537 -3.6827
44.898483 93.519 -4.0354
45.223835 93.501 -4.3857
45.551544 93.483 -4.7335
45.881630 93.463 -5.0801
46.214108 93.442 -5.4215
46.548996 93.420 -5.7529
46.886307 93.398 -6.0775
47.226067 93.378 -6.3961
47.568283 93.359 -6.7115
47.912983 93.339 -7.0263
48.260181 93.320 -7.3415
48.609894 93.302 -7.6570
48.962143 93.285 -7.9775
49.316940 93.270 -8.3078
49.674313 93.254 -8.6475
50.034271 93.237 -8.9986
50.396843 93.218 -9.3584
50.762039 93.198 -9.7271
51.129883 93.176 -10.0984
51.500389 93.148 -10.4678
51.873581 93.118 -10.8304
52.249481 93.086 -11.1777
52.628101 93.054 -11.5154
53.009464 93.023 -11.8459
53.393593 92.992 -12.1705
53.780506 92.959 -12.4914
54.170223 92.925 -12.8085
54.562763 92.893 -13.1218
54.958145 92.860 -13.4325
55.356396 92.826 -13.7432
55.757530 92.790 -14.0495
56.161572 92.752 -14.3481
56.568542 92.713 -14.6385
56.978462 92.674 -14.9200
57.391350 92.635 -15.1905
57.807232 92.594 -15.4480
58.226128 92.552 -15.6926
58.648056 92.513 -15.9216
59.073048 92.475 -16.1416
59.501114 92.439 -16.3579
59.932281 92.405 -16.5716
60.366577 92.371 -16.7867
60.804020 92.337 -17.0006
61.244629 92.304 -17.2107
61.688435 92.273 -17.4206
62.135452 92.243 -17.6325
62.585712 92.214 -17.8486
63.039234 92.186 -18.0722
63.496040 92.159 -18.3026
63.956161 92.131 -18.5392
64.419617 92.104 -18.7846
64.886421 92.077 -19.0412
65.356621 92.050 -19.3085
65.830215 92.021 -19.5885
66.307251 91.989 -19.8764
66.787743 91.956 -20.1691
67.271713 91.920 -20.4635
67.759193 91.881 -20.7571
68.250206 91.839 -21.0455
68.744774 91.795 -21.3218
69.242928 91.749 -21.5895
69.744690 91.705 -21.8501
70.250084 91.659 -22.1025
70.759148 91.611 -22.3462
71.271896 91.562 -22.5816
71.788361 91.515 -22.8065
72.308571 91.469 -23.0286
72.832550 91.424 -23.2562
73.360321 91.378 -23.4846
73.891922 91.329 -23.7118
74.427376 91.279 -23.9376
74.966705 91.230 -24.1618
75.509949 91.179 -24.3826
76.057121 91.124 -24.6000
76.608261 91.067 -24.8086
77.163399 91.009 -25.0029
77.722557 90.950 -25.1836
78.285767 90.890 -25.3497
78.853058 90.830 -25.5007
79.424461 90.769 -25.6345
80.000000 90.709 -25.7548
80.579712 90.651 -25.8635
81.163628 90.595 -25.9638
81.751770 90.539 -26.0589
82.344177 90.484 -26.1498
82.940880 90.431 -26.2376
83.541901 90.379 -26.3258
84.147285 90.328 -26.4206
84.757050 90.275 -26.5158
85.371231 90.219 -26.6079
85.989868 90.162 -26.6948
86.612984 90.106 -26.7732
87.240616 90.050 -26.8429
87.872803 89.992 -26.9035
88.509560 89.933 -26.9519
89.150940 89.874 -26.9844
89.796967 89.815 -27.0020
90.447670 89.758 -27.0018
91.103088 89.702 -26.9910
91.763260 89.651 -26.9750
92.428215 89.601 -26.9560
93.097992 89.552 -26.9383
93.772614 89.505 -26.9220
94.452133 89.460 -26.9077
95.136566 89.416 -26.8980
95.825966 89.373 -26.8977
96.520363 89.329 -26.9010
97.219788 89.283 -26.9047
97.924286 89.235 -26.9050
98.633881 89.188 -26.8949
99.348625 89.141 -26.8800
100.068542 89.097 -26.8639
100.793686 89.054 -26.8460
101.524078 89.008 -26.8273
102.259766 88.963 -26.8071
103.000778 88.921 -26.7835
103.747162 88.880 -26.7610
104.498962 88.839 -26.7460
105.256203 88.797 -26.7310
106.018929 88.753 -26.7112
106.787186 88.709 -26.6861
107.561012 88.667 -26.6511
108.340446 88.626 -26.6131
109.125526 88.587 -26.5771
109.916290 88.550 -26.5441
110.712791 88.514 -26.5146
111.515060 88.479 -26.4950
112.323143 88.448 -26.4926
113.137085 88.417 -26.5060
113.956924 88.383 -26.5388
114.782700 88.346 -26.5839
115.614464 88.308 -26.6351
116.452255 88.267 -26.6919
117.296112 88.225 -26.7536
118.146095 88.179 -26.8149
119.002228 88.129 -26.8706
119.864563 88.076 -26.9189
120.733154 88.023 -26.9554
121.608040 87.969 -26.9829
122.489258 87.914 -27.0035
123.376869 87.857 -27.0150
124.270905 87.799 -27.0159
125.171425 87.739 -27.0060
126.078468 87.679 -26.9849
126.992081 87.619 -26.9521
127.912323 87.558 -26.9059
128.839233 87.497 -26.8491
129.772842 87.438 -26.7840
130.713242 87.378 -26.7112
131.660431 87.317 -26.6327
132.614502 87.256 -26.5473
133.575485 87.196 -26.4538
134.543427 87.135 -26.3532
135.518387 87.074 -26.2468
136.500412 87.013 -26.1322
137.489548 86.950 -26.0068
138.485855 86.887 -25.8723
139.489380 86.826 -25.7294
140.500168 86.764 -25.5793
141.518295 86.702 -25.4247
142.543793 86.638 -25.2624
143.576721 86.574 -25.0904
144.617142 86.509 -24.9074
145.665100 86.443 -24.7136
146.720642 86.376 -24.5026
147.783844 86.306 -24.2679
148.854752 86.235 -24.0097
149.933411 86.167 -23.7249
151.019897 86.101 -23.4178
152.114243 86.036 -23.0911
153.216522 85.973 -22.7470
154.326797 85.914 -22.3864
155.445114 85.857 -22.0159
156.571533 85.805 -21.6422
157.706116 85.755 -21.2659
158.848923 85.705 -20.8916
160.000000 85.655 -20.5129
161.159424 85.605 -20.1256
162.327255 85.556 -19.7269
163.503540 85.507 -19.3129
164.688354 85.458 -18.8839
165.881760 85.412 -18.4387
167.083801 85.368 -17.9782
168.294571 85.325 -17.5025
169.514099 85.285 -17.0132
170.742462 85.249 -16.5106
171.979736 85.216 -15.9994
173.225967 85.187 -15.4852
174.481232 85.161 -14.9662
175.745605 85.136 -14.4426
177.019119 85.114 -13.9143
178.301880 85.096 -13.3815
179.593933 85.080 -12.8434
180.895340 85.066 -12.2995
182.206177 85.054 -11.7493
183.526520 85.046 -11.1894
184.856430 85.043 -10.6283
186.195984 85.047 -10.0731
187.545227 85.055 -9.5243
188.904266 85.063 -8.9852
190.273132 85.075 -8.4543
191.651932 85.091 -7.9295
193.040726 85.111 -7.4164
194.439575 85.134 -6.9218
195.848572 85.160 -6.4404
197.267761 85.184 -5.9684
198.697250 85.211 -5.5081
200.137085 85.243 -5.0590
201.587372 85.279 -4.6260
203.048157 85.315 -4.2151
204.519531 85.353 -3.8231
206.001556 85.391 -3.4478
207.494324 85.431 -3.0928
208.997925 85.473 -2.7639
210.512405 85.514 -2.4537
212.037857 85.550 -2.1597
213.574371 85.583 -1.8727
215.122025 85.616 -1.5822
216.680893 85.648 -1.2888
218.251053 85.680 -0.9902
219.832581 85.712 -0.6849
221.425583 85.744 -0.3699
223.030121 85.779 -0.0468
224.646286 85.817 0.2867
226.274170 85.860 0.6211
227.913849 85.908 0.9488
229.565399 85.960 1.2662
231.228928 86.014 1.5676
232.904510 86.072 1.8532
234.592224 86.133 2.1223
236.292191 86.197 2.3714
238.004456 86.263 2.5960
239.729126 86.331 2.7985
241.466309 86.399 2.9810
243.216080 86.470 3.1396
244.978516 86.545 3.2722
246.753738 86.622 3.3747
248.541809 86.699 3.4419
250.342850 86.777 3.4760
252.156937 86.853 3.4785
253.984161 86.930 3.4461
255.824646 87.007 3.3754
257.678467 87.083 3.2683
259.545685 87.154 3.1232
261.426483 87.221 2.9475
263.320862 87.284 2.7463
265.229004 87.342 2.5246
267.150970 87.394 2.2889
269.086853 87.443 2.0407
271.036774 87.489 1.7833
273.000824 87.531 1.5178
274.979095 87.568 1.2450
276.971710 87.602 0.9688
278.978760 87.632 0.6947
281.000336 87.660 0.4197
283.036591 87.686 0.1422
285.087585 87.709 -0.1362
287.153442 87.728 -0.4156
289.234283 87.743 -0.6923
291.330200 87.756 -0.9618
293.441284 87.767 -1.2253
295.567688 87.775 -1.4830
297.709503 87.781 -1.7324
299.866821 87.784 -1.9706
302.039795 87.786 -2.1983
304.228485 87.787 -2.4146
306.433044 87.788 -2.6214
308.653595 87.788 -2.8200
310.890228 87.788 -3.0115
313.143066 87.788 -3.1972
315.412231 87.788 -3.3785
317.697845 87.788 -3.5570
320.000000 87.788 -3.7335
322.318848 87.788 -3.9091
324.654510 87.788 -4.0844
327.007080 87.788 -4.2599
329.376709 87.788 -4.4374
331.763519 87.788 -4.6188
334.167603 87.788 -4.8044
336.589142 87.787 -4.9949
339.028198 87.786 -5.1914
341.484924 87.784 -5.3953
343.959473 87.782 -5.6064
346.451935 87.778 -5.8256
348.962463 87.773 -6.0514
351.491211 87.765 -6.2825
354.038239 87.755 -6.5193
356.603760 87.743 -6.7624
359.187866 87.729 -7.0092
361.790680 87.712 -7.2602
364.412354 87.690 -7.5073
367.053040 87.663 -7.7439
369.712860 87.632 -7.9663
372.391968 87.599 -8.1680
375.090454 87.564 -8.3505
377.808533 87.529 -8.5125
380.546265 87.493 -8.6566
383.303864 87.458 -8.7833
386.081451 87.424 -8.8977
388.879150 87.391 -9.0031
391.697144 87.360 -9.1057
394.535522 87.331 -9.2124
397.394501 87.302 -9.3247
400.274170 87.273 -9.4480
403.174744 87.241 -9.5766
406.096313 87.205 -9.7083
409.039062 87.166 -9.8376
412.003113 87.124 -9.9588
414.988647 87.078 -10.0697
417.995850 87.030 -10.1685
421.024811 86.979 -10.2488
424.075714 86.923 -10.3049
427.148743 86.864 -10.3320
430.244049 86.805 -10.3215
433.361786 86.745 -10.2792
436.502106 86.687 -10.2071
439.665161 86.630 -10.1074
442.851166 86.574 -9.9814
446.060242 86.521 -9.8325
449.292572 86.472 -9.6624
452.548340 86.425 -9.4766
455.827698 86.382 -9.2813
459.130798 86.342 -9.0767
462.457855 86.303 -8.8658
465.809021 86.266 -8.6467
469.184448 86.230 -8.4192
472.584381 86.196 -8.1808
476.008911 86.163 -7.9278
479.458252 86.132 -7.6629
482.932617 86.105 -7.3852
486.432159 86.082 -7.1009
489.957031 86.064 -6.8147
493.507477 86.049 -6.5299
497.083618 86.037 -6.2505
500.685699 86.029 -5.9789
504.313873 86.024 -5.7186
507.968323 86.021 -5.4698
511.649292 86.019 -5.2346
515.356934 86.018 -5.0107
519.091370 86.018 -4.7968
522.852966 86.018 -4.5917
526.641724 86.018 -4.3942
530.458008 86.018 -4.2026
534.301941 86.018 -4.0152
538.173706 86.018 -3.8306
542.073547 86.018 -3.6470
546.001648 86.018 -3.4636
549.958191 86.019 -3.2794
553.943420 86.020 -3.0936
557.957520 86.022 -2.9041
562.000671 86.025 -2.7136
566.073181 86.030 -2.5229
570.175171 86.038 -2.3356
574.306885 86.048 -2.1552
578.468567 86.060 -1.9826
582.660400 86.073 -1.8191
586.882568 86.088 -1.6675
591.135376 86.104 -1.5312
595.419006 86.121 -1.4094
599.733643 86.138 -1.3036
604.079590 86.154 -1.2103
608.456970 86.169 -1.1263
612.866089 86.183 -1.0522
617.307190 86.198 -0.9883
621.780457 86.212 -0.9332
626.286133 86.225 -0.8861
630.824463 86.237 -0.8461
635.395691 86.249 -0.8111
640.000000 86.261 -0.7841
644.637695 86.273 -0.7672
649.309021 86.284 -0.7610
654.014160 86.294 -0.7685
658.753418 86.302 -0.7839
663.527039 86.306 -0.8031
668.335205 86.308 -0.8239
673.178284 86.309 -0.8427
678.056396 86.309 -0.8599
682.969849 86.307 -0.8758
687.918945 86.304 -0.8880
692.903870 86.299 -0.8934
697.924927 86.294 -0.8950
702.982422 86.291 -0.8930
708.076477 86.288 -0.8920
713.207520 86.285 -0.8960
718.375732 86.282 -0.9069
723.581360 86.280 -0.9283
728.824707 86.276 -0.9599
734.106079 86.270 -1.0035
739.425720 86.262 -1.0558
744.783936 86.251 -1.1148
750.180908 86.237 -1.1778
755.617065 86.219 -1.2436
761.092529 86.197 -1.3048
766.607727 86.169 -1.3560
772.162903 86.137 -1.3899
777.758301 86.102 -1.3969
783.394287 86.064 -1.3791
789.071045 86.026 -1.3342
794.789001 85.988 -1.2663
800.548340 85.950 -1.1782
806.349487 85.913 -1.0714
812.192627 85.876 -0.9471
818.078125 85.840 -0.8085
824.006226 85.806 -0.6575
829.977295 85.774 -0.4996
835.991699 85.743 -0.3428
842.049622 85.711 -0.1816
848.151428 85.676 -0.0151
854.297485 85.639 0.1623
860.488098 85.601 0.3568
866.723572 85.562 0.5672
873.004211 85.523 0.7930
879.330322 85.483 1.0381
885.702332 85.440 1.3057
892.120483 85.397 1.5979
898.585144 85.355 1.9178
905.096680 85.313 2.2657
911.655396 85.271 2.6428
918.261597 85.231 3.0484
924.915710 85.194 3.4839
931.618042 85.159 3.9443
938.368896 85.129 4.4251
945.168762 85.102 4.9261
952.017822 85.077 5.4452
958.916504 85.054 5.9829
965.865234 85.035 6.5396
972.864319 85.020 7.1129
979.914062 85.009 7.7007
987.014954 85.001 8.3027
994.167236 84.997 8.9177
1001.371399 84.996 9.5457
1008.627747 84.999 10.1865
1015.936646 85.005 10.8392
1023.298584 85.016 11.5028
1030.713867 85.031 12.1778
1038.182739 85.049 12.8628
1045.705933 85.071 13.5620
1053.283447 85.096 14.2778
1060.916016 85.126 15.0138
1068.603882 85.160 15.7753
1076.347412 85.202 16.5588
1084.147095 85.251 17.3648
1092.003296 85.311 18.1852
1099.916382 85.382 19.0157
1107.886841 85.466 19.8455
1115.915039 85.562 20.6677
1124.001343 85.673 21.4661
1132.146362 85.798 22.2270
1140.350342 85.935 22.9364
1148.613770 86.085 23.5776
1156.937134 86.244 24.1458
1165.320801 86.409 24.6318
1173.765137 86.579 25.0314
1182.270752 86.755 25.3378
1190.838013 86.931 25.5503
1199.467285 87.105 25.6606
1208.159180 87.274 25.6861
1216.913940 87.434 25.6372
1225.732178 87.586 25.5265
1234.614380 87.732 25.3677
1243.560913 87.871 25.1668
1252.572266 88.003 24.9299
1261.648926 88.128 24.6701
1270.791382 88.243 24.4015
1280.000000 88.353 24.1271
1289.275391 88.461 23.8567
1298.618042 88.569 23.5831
1308.028320 88.675 23.3043
1317.506836 88.783 23.0153
1327.054077 88.890 22.7140
1336.670410 89.000 22.3903
1346.356567 89.112 22.0356
1356.112793 89.225 21.6435
1365.939697 89.337 21.2061
1375.837891 89.448 20.7201
1385.807739 89.557 20.1798
1395.849854 89.662 19.5845
1405.964844 89.760 18.9286
1416.152954 89.852 18.2207
1426.415039 89.933 17.4653
1436.751465 90.005 16.6691
1447.162720 90.066 15.8378
1457.649414 90.117 14.9785
1468.212158 90.155 14.0987
1478.851440 90.180 13.2035
1489.567871 90.193 12.2970
1500.361816 90.193 11.3895
1511.234131 90.177 10.4879
1522.185059 90.145 9.6059
1533.215454 90.099 8.7533
1544.325806 90.035 7.9494
1555.516602 89.953 7.2100
1566.788574 89.854 6.5556
1578.142090 89.742 6.0084
1589.578003 89.618 5.5785
1601.096680 89.483 5.2797
1612.698975 89.342 5.1223
1624.385254 89.194 5.1232
1636.156250 89.048 5.2780
1648.012451 88.908 5.5942
1659.954590 88.779 6.0531
1671.983398 88.665 6.6431
1684.099243 88.566 7.3488
1696.302856 88.486 8.1588
1708.594971 88.426 9.0498
1720.976196 88.393 10.0025
1733.447144 88.385 10.9946
1746.008423 88.400 12.0050
1758.660645 88.439 13.0109
1771.404663 88.505 13.9888
1784.240967 88.595 14.9203
1797.170288 88.702 15.7819
1810.193359 88.827 16.5651
1823.310791 88.968 17.2577
1836.523193 89.121 17.8469
1849.831421 89.285 18.3144
1863.236084 89.454 18.6647
1876.737793 89.621 18.8910
1890.337524 89.786 19.0087
1904.035645 89.946 19.0275
1917.833008 90.100 18.9574
1931.730469 90.247 18.8062
1945.728638 90.384 18.5900
1959.828125 90.509 18.3219
1974.029907 90.624 18.0193
1988.334473 90.728 17.7016
2002.742798 90.823 17.3773
2017.255493 90.909 17.0592
2031.873291 90.988 16.7542
2046.597168 91.060 16.4725
2061.427734 91.129 16.2171
2076.365479 91.195 15.9949
2091.411865 91.260 15.8037
2106.566895 91.326 15.6455
2121.832031 91.394 15.5145
2137.207764 91.464 15.4080
2152.694824 91.539 15.3193
2168.294189 91.618 15.2419
2184.006592 91.702 15.1723
2199.832764 91.789 15.1064
2215.773682 91.881 15.0393
2231.830078 91.978 14.9655
2248.002686 92.081 14.8824
2264.292725 92.185 14.7844
2280.700684 92.294 14.6745
2297.227539 92.404 14.5544
2313.874268 92.519 14.4216
2330.641602 92.638 14.2751
2347.530273 92.761 14.1117
2364.541504 92.888 13.9272
2381.676025 93.017 13.7240
2398.934570 93.151 13.5058
2416.318359 93.289 13.2651
2433.827881 93.436 12.9989
2451.464355 93.588 12.6963
2469.228760 93.747 12.3476
2487.121826 93.909 11.9468
2505.144531 94.076 11.4835
2523.297852 94.244 10.9615
2541.582764 94.410 10.3816
2560.000000 94.575 9.7430
2578.550781 94.744 9.0462
2597.236084 94.912 8.2877
2616.056641 95.078 7.4609
2635.013672 95.239 6.5739
2654.108154 95.396 5.6335
2673.340820 95.548 4.6375
2692.713135 95.699 3.5857
2712.225586 95.844 2.4783
2731.879395 95.982 1.3114
2751.675781 96.111 0.0967
2771.615479 96.231 -1.1560
2791.699707 96.344 -2.4442
2811.929688 96.449 -3.7642
2832.305908 96.547 -5.1106
2852.830078 96.633 -6.4773
2873.502930 96.713 -7.8619
2894.325439 96.786 -9.2581
2915.298828 96.854 -10.6715
2936.424316 96.915 -12.1082
2957.702881 96.967 -13.5606
2979.135742 97.007 -15.0261
3000.723633 97.038 -16.4956
3022.468262 97.059 -17.9604
3044.370117 97.070 -19.4163
3066.430908 97.073 -20.8609
3088.651611 97.066 -22.2817
3111.033203 97.047 -23.6663
3133.577148 97.020 -25.0117
3156.284180 96.990 -26.3087
3179.156006 96.957 -27.5641
3202.193359 96.921 -28.7820
3225.397949 96.883 -29.9625
3248.770508 96.842 -31.1059
3272.312500 96.799 -32.2151
3296.024902 96.759 -33.2911
3319.909180 96.719 -34.3392
3343.966797 96.680 -35.3649
3368.198486 96.641 -36.3693
3392.605713 96.604 -37.3539
3417.189941 96.568 -38.3226
3441.952393 96.535 -39.2781
3466.894287 96.504 -40.2248
3492.016846 96.476 -41.1647
3517.321289 96.451 -42.1066
3542.809326 96.431 -43.0573
3568.481934 96.415 -44.0245
3594.340576 96.401 -45.0172
3620.386719 96.388 -46.0391
3646.621582 96.376 -47.0959
3673.046387 96.363 -48.1897
3699.662842 96.348 -49.3258
3726.472168 96.329 -50.4995
3753.475586 96.305 -51.7088
3780.675049 96.275 -52.9513
3808.071289 96.239 -54.2274
3835.666016 96.195 -55.5278
3863.460938 96.139 -56.8459
3891.457275 96.073 -58.1737
3919.656250 95.999 -59.5014
3948.059814 95.914 -60.8269
3976.668945 95.820 -62.1446
4005.485596 95.717 -63.4546
4034.510986 95.605 -64.7605
4063.746582 95.481 -66.0469
4093.194336 95.339 -67.3093
4122.855469 95.182 -68.5183
4152.730957 95.007 -69.6496
4182.823730 94.818 -70.6833
4213.133789 94.616 -71.5990
4243.664062 94.403 -72.3757
4274.415527 94.177 -72.9889
4305.389648 93.948 -73.4293
4336.588379 93.720 -73.6693
4368.013184 93.503 -73.7381
4399.665527 93.310 -73.6417
4431.547363 93.142 -73.4233
4463.660156 93.003 -73.1119
4496.005371 92.896 -72.7568
4528.585449 92.831 -72.4030
4561.401367 92.798 -72.0923
4594.455078 92.794 -71.8765
4627.748535 92.812 -71.7712
4661.283203 92.846 -71.8097
4695.060547 92.891 -71.9898
4729.083008 92.939 -72.3279
4763.352051 92.984 -72.8014
4797.869141 93.018 -73.4037
4832.636719 93.040 -74.1023
4867.655762 93.047 -74.8708
4902.928711 93.039 -75.6849
4938.457520 93.018 -76.5178
4974.243652 92.983 -77.3511
5010.289062 92.936 -78.1598
5046.595703 92.879 -78.9372
5083.165527 92.819 -79.6664
5120.000000 92.755 -80.3528
5157.101562 92.691 -80.9945
5194.472168 92.628 -81.5971
5232.113281 92.568 -82.1600
5270.027344 92.514 -82.6993
5308.216309 92.471 -83.2275
5346.681641 92.434 -83.7564
5385.426270 92.402 -84.3017
5424.451172 92.375 -84.8652
5463.758789 92.354 -85.4504
5503.351562 92.338 -86.0679
5543.230957 92.328 -86.7302
5583.399414 92.321 -87.4354
5623.859375 92.311 -88.1869
5664.611816 92.302 -88.9820
5705.660156 92.295 -89.8155
5747.005859 92.288 -90.6983
5788.650879 92.283 -91.6384
5830.597656 92.276 -92.6387
5872.848633 92.265 -93.7051
5915.405762 92.250 -94.8370
5958.271484 92.230 -96.0351
6001.447266 92.202 -97.3003
6044.936523 92.165 -98.6374
6088.740234 92.115 -100.0348
6132.861816 92.050 -101.4896
6177.303223 91.967 -102.9814
6222.066406 91.864 -104.4982
6267.154297 91.740 -106.0124
6312.568359 91.591 -107.5009
6358.312012 91.421 -108.9380
6404.386719 91.229 -110.2987
6450.795898 91.016 -111.5578
6497.541016 90.782 -112.6888
6544.625000 90.532 -113.6705
6592.049805 90.269 -114.4721
6639.818359 89.999 -115.0963
6687.933594 89.731 -115.5283
6736.396973 89.469 -115.7891
6785.211426 89.220 -115.8852
6834.379883 88.988 -115.8455
6883.904785 88.778 -115.6897
6933.788574 88.592 -115.4524
6984.033691 88.435 -115.1635
7034.642578 88.306 -114.8565
7085.618652 88.204 -114.5684
7136.963867 88.126 -114.3181
7188.681152 88.069 -114.1349
7240.773438 88.028 -114.0253
7293.243164 88.000 -114.0050
7346.092773 87.983 -114.0754
7399.325684 87.973 -114.2439
7452.944336 87.969 -114.5084
7506.951172 87.966 -114.8692
7561.350098 87.965 -115.3264
7616.142578 87.963 -115.8788
7671.332031 87.960 -116.5304
7726.921875 87.954 -117.2850
7782.914551 87.942 -118.1413
7839.312500 87.921 -119.1043
7896.119629 87.886 -120.1592
7953.337891 87.835 -121.3022
8010.971191 87.762 -122.5045
8069.021973 87.665 -123.7494
8127.493164 87.542 -124.9965
8186.388672 87.390 -126.2107
8245.710938 87.212 -127.3592
8305.461914 87.010 -128.4050
8365.647461 86.786 -129.3255
8426.267578 86.543 -130.0870
8487.328125 86.286 -130.6853
8548.831055 86.024 -131.0993
8610.779297 85.760 -131.3461
8673.176758 85.503 -131.4322
8736.026367 85.252 -131.3687
8799.331055 85.010 -131.1691
8863.094727 84.777 -130.8331
8927.320312 84.557 -130.3651
8992.010742 84.350 -129.7645
9057.170898 84.159 -129.0317
9122.802734 83.987 -128.1689
9188.910156 83.836 -127.1717
9255.497070 83.717 -126.0603
9322.566406 83.634 -124.8354
9390.121094 83.597 -123.5519
9458.166016 83.615 -122.2401
9526.704102 83.688 -120.9745
9595.738281 83.825 -119.8146
9665.273438 84.014 -118.8356
9735.311523 84.255 -118.1159
9805.857422 84.531 -117.7053
9876.915039 84.834 -117.6802
9948.487305 85.142 -118.0380
10020.578125 85.438 -118.8169
10093.191406 85.713 -119.9688
10166.331055 85.954 -121.4832
10240.000000 86.154 -123.2848
10314.203125 86.302 -125.3251
10388.944336 86.398 -127.5124
10464.226562 86.437 -129.7601
10540.054688 86.428 -132.0028
10616.432617 86.373 -134.1589
10693.363281 86.281 -136.1904
10770.852539 86.154 -138.0352
10848.902344 86.007 -139.6866
10927.517578 85.848 -141.1069
11006.703125 85.689 -142.3289
11086.461914 85.542 -143.3558
11166.798828 85.413 -144.2394
11247.718750 85.312 -145.0104
11329.223633 85.242 -145.7363
11411.320312 85.213 -146.4744
11494.011719 85.218 -147.2873
11577.301758 85.255 -148.2451
11661.195312 85.314 -149.3831
11745.697266 85.388 -150.7552
11830.811523 85.469 -152.3745
11916.542969 85.547 -154.2778
12002.894531 85.612 -156.4462
12089.873047 85.649 -158.8882
12177.480469 85.655 -161.5582
12265.723633 85.621 -164.4301
12354.606445 85.544 -167.4533
12444.132812 85.418 -170.5892
12534.308594 85.241 -173.7757
12625.136719 85.007 -176.9594
12716.624023 84.719 179.9252
12808.773438 84.376 176.9474
12901.591797 83.982 174.1493
12995.082031 83.543 171.5835
13089.250000 83.060 169.2868
13184.099609 82.534 167.3108
13279.636719 81.978 165.6626
13375.867188 81.403 164.3769
13472.793945 80.818 163.4225
13570.422852 80.234 162.7910
13668.759766 79.654 162.4482
13767.809570 79.088 162.3688
13867.577148 78.539 162.5175
13968.067383 78.015 162.8566
14069.285156 77.512 163.3677
14171.237305 77.030 164.0125
14273.927734 76.564 164.8123
14377.362305 76.108 165.7626
14481.546875 75.661 166.9036
14586.486328 75.222 168.2643
14692.185547 74.797 169.8748
14798.651367 74.386 171.7848
14905.888672 74.009 173.9636
15013.902344 73.683 176.4292
15122.700195 73.424 179.0835
15232.285156 73.253 -178.1254
15342.664062 73.174 -175.3209
15453.843750 73.203 -172.6008
15565.829102 73.324 -170.0938
15678.625000 73.540 -167.9383
15792.239258 73.817 -166.2031
15906.675781 74.132 -165.0144
16021.942383 74.459 -164.3383
16138.043945 74.769 -164.2096
16254.986328 75.053 -164.5448
16372.777344 75.298 -165.3062
16491.421875 75.498 -166.3903
16610.923828 75.641 -167.7099
16731.294922 75.735 -169.1762
16852.535156 75.782 -170.6812
16974.656250 75.792 -172.1939
17097.662109 75.774 -173.6456
17221.558594 75.736 -175.0417
17346.353516 75.685 -176.3522
17472.052734 75.629 -177.6154
17598.662109 75.580 -178.8429
17726.189453 75.535 179.9144
17854.640625 75.500 178.6121
17984.021484 75.467 177.2171
18114.341797 75.436 175.6818
18245.605469 75.395 174.0049
18377.820312 75.338 172.1526
18510.994141 75.253 170.1748
18645.132812 75.128 168.0847
18780.242188 74.962 165.9605
18916.332031 74.748 163.8562
19053.408203 74.486 161.8589
19191.476562 74.167 160.0584
19330.546875 73.809 158.5007
19470.623047 73.419 157.2722
19611.714844 73.013 156.3405
19753.830078 72.606 155.7172
19896.974609 72.206 155.3535
