* Measurement data measured by REW V5.20.13
* Source: C:\Users\kurin\Desktop\Targets and Curves\Resolve\Img\Files\5909 ANC OFF_SPL.txt
* Format: Comma/Tab/Space delimited data
* Dated: Aug 14, 2023 6:50:37 PM
* REW Settings:
*  C-weighting compensation: Off
*  Target level: 75.0 dB
* Note: ; Measurement imported from C:\Users\kurin\Desktop\Targets and Curves\Resolve\Img\Files\5909 ANC OFF_SPL.txt Format: Comma/Tab/Space delimited data 623 values loaded, 5 Hz to 39,792 Hz log spaced 
* Measurement: 5909 ANC OFF_SPL
* Smoothing: 1/48 octave
* Frequency Step: 1/96 octave
* Start Frequency: 5.000 Hz
*
* Freq(Hz) SPL(dB) Phase(degrees)
5.000000 102.495 -35.4660
5.036232 102.483 -35.4616
5.072727 102.471 -35.4570
5.109486 102.457 -35.4518
5.146511 102.441 -35.4460
5.183805 102.421 -35.4391
5.221369 102.399 -35.4320
5.259205 102.377 -35.4255
5.297316 102.354 -35.4190
5.335702 102.329 -35.4119
5.374367 102.304 -35.4050
5.413311 102.279 -35.3989
5.452538 102.253 -35.3930
5.492050 102.228 -35.3866
5.531847 102.203 -35.3800
5.571934 102.178 -35.3735
5.612310 102.152 -35.3670
5.652979 102.127 -35.3605
5.693943 102.102 -35.3540
5.735204 102.076 -35.3476
5.776763 102.051 -35.3410
5.818624 102.026 -35.3340
5.860788 102.001 -35.3270
5.903258 101.976 -35.3205
5.946035 101.950 -35.3140
5.989123 101.925 -35.3070
6.032523 101.900 -35.3000
6.076237 101.875 -35.2935
6.120268 101.849 -35.2870
6.164618 101.824 -35.2801
6.209289 101.799 -35.2730
6.254284 101.774 -35.2660
6.299605 101.749 -35.2590
6.345255 101.724 -35.2521
6.391235 101.698 -35.2450
6.437549 101.673 -35.2375
6.484198 101.648 -35.2300
6.531185 101.623 -35.2230
6.578513 101.597 -35.2160
6.626183 101.572 -35.2086
6.674199 101.547 -35.2010
6.722563 101.522 -35.1935
6.771278 101.496 -35.1860
6.820345 101.471 -35.1785
6.869768 101.446 -35.1710
6.919549 101.421 -35.1636
6.969691 101.395 -35.1560
7.020196 101.370 -35.1481
7.071068 101.345 -35.1400
7.122308 101.320 -35.1320
7.173919 101.294 -35.1240
7.225904 101.269 -35.1160
7.278266 101.244 -35.1080
7.331007 101.219 -35.1000
7.384131 101.193 -35.0920
7.437639 101.168 -35.0841
7.491535 101.143 -35.0760
7.545822 101.118 -35.0675
7.600502 101.093 -35.0590
7.655579 101.068 -35.0510
7.711054 101.042 -35.0430
7.766932 101.017 -35.0346
7.823214 100.992 -35.0260
7.879904 100.967 -35.0176
7.937005 100.941 -35.0090
7.994520 100.916 -35.0001
8.052452 100.891 -34.9910
8.110803 100.866 -34.9820
8.169578 100.840 -34.9730
8.228777 100.815 -34.9640
8.288406 100.790 -34.9550
8.348468 100.765 -34.9460
8.408964 100.739 -34.9370
8.469899 100.714 -34.9281
8.531276 100.689 -34.9190
8.593097 100.664 -34.9096
8.655366 100.638 -34.9000
8.718086 100.613 -34.8905
8.781260 100.588 -34.8810
8.844893 100.563 -34.8716
8.908987 100.538 -34.8620
8.973545 100.513 -34.8520
9.038571 100.487 -34.8420
9.104069 100.462 -34.8325
9.170040 100.437 -34.8230
9.236490 100.412 -34.8131
9.303422 100.386 -34.8030
9.370838 100.361 -34.7925
9.438744 100.336 -34.7820
9.507140 100.311 -34.7720
9.576033 100.285 -34.7620
9.645425 100.260 -34.7516
9.715320 100.235 -34.7410
9.785721 100.210 -34.7300
9.856632 100.184 -34.7190
9.928058 100.159 -34.7085
10.000000 100.134 -34.6980
10.072464 100.109 -34.6871
10.145453 100.083 -34.6760
10.218971 100.058 -34.6651
10.293022 100.033 -34.6540
10.367610 100.008 -34.6425
10.442738 99.983 -34.6310
10.518411 99.958 -34.6201
10.594631 99.932 -34.6090
10.671404 99.907 -34.5971
10.748734 99.882 -34.5850
10.826623 99.857 -34.5735
10.905077 99.831 -34.5620
10.984100 99.806 -34.5501
11.063695 99.781 -34.5380
11.143867 99.756 -34.5261
11.224621 99.730 -34.5140
11.305959 99.705 -34.5016
11.387886 99.680 -34.4890
11.470407 99.655 -34.4765
11.553527 99.629 -34.4640
11.637249 99.604 -34.4516
11.721577 99.579 -34.4390
11.806517 99.554 -34.4261
11.892071 99.528 -34.4130
11.978246 99.503 -34.4000
12.065045 99.478 -34.3870
12.152473 99.452 -34.3741
12.240536 99.427 -34.3610
12.329235 99.402 -34.3476
12.418578 99.377 -34.3340
12.508568 99.352 -34.3206
12.599211 99.327 -34.3070
12.690510 99.302 -34.2931
12.782471 99.276 -34.2790
12.875097 99.251 -34.2651
12.968395 99.226 -34.2510
13.062370 99.201 -34.2366
13.157025 99.175 -34.2220
13.252366 99.150 -34.2076
13.348398 99.125 -34.1930
13.445127 99.100 -34.1781
13.542556 99.074 -34.1630
13.640691 99.049 -34.1480
13.739536 99.024 -34.1330
13.839099 98.999 -34.1181
13.939383 98.973 -34.1030
14.040393 98.948 -34.0876
14.142136 98.923 -34.0720
14.244616 98.898 -34.0561
14.347837 98.872 -34.0400
14.451808 98.847 -34.0240
14.556532 98.822 -34.0080
14.662014 98.797 -33.9921
14.768262 98.772 -33.9760
14.875278 98.747 -33.9591
14.983070 98.721 -33.9420
15.091644 98.696 -33.9255
15.201005 98.671 -33.9090
15.311157 98.646 -33.8921
15.422109 98.620 -33.8750
15.533863 98.595 -33.8576
15.646428 98.570 -33.8400
15.759809 98.545 -33.8221
15.874010 98.519 -33.8040
15.989040 98.494 -33.7861
16.104904 98.469 -33.7680
16.221605 98.444 -33.7496
16.339155 98.418 -33.7310
16.457554 98.393 -33.7121
16.576813 98.368 -33.6930
16.696936 98.343 -33.6741
16.817928 98.317 -33.6550
16.939798 98.292 -33.6352
17.062551 98.267 -33.6150
17.186193 98.242 -33.5946
17.310732 98.217 -33.5740
17.436172 98.192 -33.5531
17.562521 98.166 -33.5320
17.689787 98.141 -33.5108
17.817974 98.116 -33.4890
17.947090 98.091 -33.4663
18.077143 98.065 -33.4430
18.208138 98.040 -33.4198
18.340080 98.015 -33.3960
18.472980 97.990 -33.3715
18.606844 97.964 -33.3460
18.741676 97.939 -33.3196
18.877487 97.914 -33.2920
19.014280 97.888 -33.2628
19.152065 97.863 -33.2320
19.290850 97.838 -33.2000
19.430639 97.814 -33.1660
19.571442 97.790 -33.1289
19.713264 97.766 -33.0910
19.856115 97.744 -33.0540
20.000000 97.722 -33.0190
20.144928 97.701 -32.9877
20.290907 97.680 -32.9600
20.437943 97.660 -32.9358
20.586044 97.640 -32.9170
20.735220 97.620 -32.9063
20.885475 97.600 -32.9010
21.036821 97.578 -32.9001
21.189262 97.556 -32.9020
21.342808 97.534 -32.9042
21.497467 97.511 -32.9080
21.653246 97.487 -32.9151
21.810154 97.462 -32.9220
21.968201 97.435 -32.9259
22.127390 97.408 -32.9260
22.287735 97.381 -32.9201
22.449242 97.354 -32.9100
22.611917 97.326 -32.8975
22.775772 97.298 -32.8810
22.940815 97.270 -32.8594
23.107054 97.242 -32.8330
23.274498 97.215 -32.8014
23.443153 97.188 -32.7660
23.613033 97.163 -32.7277
23.784142 97.138 -32.6890
23.956491 97.114 -32.6539
24.130091 97.091 -32.6200
24.304947 97.067 -32.5861
24.481071 97.043 -32.5530
24.658470 97.021 -32.5214
24.837156 96.999 -32.4910
25.017136 96.976 -32.4630
25.198421 96.953 -32.4350
25.381020 96.931 -32.4045
25.564941 96.909 -32.3740
25.750195 96.888 -32.3454
25.936790 96.868 -32.3180
26.124741 96.847 -32.2907
26.314051 96.828 -32.2670
26.504732 96.811 -32.2495
26.696796 96.796 -32.2410
26.890253 96.781 -32.2456
27.085112 96.765 -32.2620
27.281382 96.749 -32.2892
27.479073 96.733 -32.3299
27.678198 96.717 -32.3879
27.878765 96.698 -32.4589
28.080786 96.676 -32.5416
28.284271 96.650 -32.6309
28.489231 96.622 -32.7225
28.695675 96.591 -32.8129
28.903616 96.555 -32.8993
29.113064 96.515 -32.9749
29.324028 96.472 -33.0327
29.536524 96.426 -33.0700
29.750557 96.378 -33.0818
29.966141 96.330 -33.0670
30.183289 96.281 -33.0213
30.402010 96.234 -32.9501
30.622314 96.191 -32.8540
30.844217 96.152 -32.7431
31.067726 96.118 -32.6253
31.292856 96.088 -32.5082
31.519617 96.063 -32.4004
31.748020 96.042 -32.3071
31.978081 96.023 -32.2366
32.209808 96.005 -32.1880
32.443211 95.986 -32.1666
32.678310 95.964 -32.1630
32.915108 95.938 -32.1728
33.153625 95.908 -32.1860
33.393871 95.873 -32.1941
33.635857 95.834 -32.1880
33.879597 95.791 -32.1562
34.125103 95.747 -32.0981
34.372387 95.703 -32.0065
34.621464 95.661 -31.8892
34.872345 95.624 -31.7488
35.125042 95.591 -31.5942
35.379574 95.563 -31.4323
35.635948 95.539 -31.2712
35.894180 95.521 -31.1197
36.154285 95.507 -30.9832
36.416275 95.496 -30.8707
36.680161 95.487 -30.7801
36.945961 95.477 -30.7137
37.213688 95.466 -30.6671
37.483353 95.454 -30.6377
37.754974 95.441 -30.6220
38.028561 95.425 -30.6161
38.304131 95.408 -30.6190
38.581699 95.390 -30.6293
38.861279 95.370 -30.6450
39.142883 95.347 -30.6648
39.426529 95.322 -30.6850
39.712231 95.294 -30.7012
40.000000 95.265 -30.7130
40.289856 95.235 -30.7196
40.581814 95.204 -30.7180
40.875885 95.170 -30.7051
41.172089 95.135 -30.6810
41.470440 95.102 -30.6434
41.770950 95.069 -30.5971
42.073643 95.038 -30.5459
42.378525 95.007 -30.4901
42.685616 94.977 -30.4308
42.994934 94.947 -30.3691
43.306492 94.918 -30.3062
43.620308 94.890 -30.2431
43.936401 94.863 -30.1814
44.254780 94.837 -30.1211
44.575470 94.811 -30.0625
44.898483 94.785 -30.0061
45.223835 94.760 -29.9517
45.551544 94.735 -29.9021
45.881630 94.712 -29.8598
46.214108 94.688 -29.8250
46.548996 94.664 -29.7999
46.886307 94.638 -29.7810
47.226067 94.611 -29.7662
47.568283 94.582 -29.7540
47.912983 94.552 -29.7430
48.260181 94.521 -29.7310
48.609894 94.487 -29.7163
48.962143 94.452 -29.6970
49.316940 94.416 -29.6704
49.674313 94.380 -29.6381
50.034271 94.343 -29.6005
50.396843 94.306 -29.5581
50.762039 94.268 -29.5112
51.129883 94.230 -29.4601
51.500389 94.191 -29.4058
51.873581 94.151 -29.3461
52.249481 94.110 -29.2803
52.628101 94.068 -29.2051
53.009464 94.024 -29.1164
53.393593 93.980 -29.0162
53.780506 93.937 -28.9049
54.170223 93.895 -28.7832
54.562763 93.852 -28.6516
54.958145 93.809 -28.5102
55.356396 93.768 -28.3581
55.757530 93.728 -28.1993
56.161572 93.690 -28.0382
56.568542 93.652 -27.8733
56.978462 93.613 -27.7052
57.391350 93.574 -27.5313
57.807232 93.536 -27.3494
58.226128 93.498 -27.1593
58.648056 93.460 -26.9607
59.073048 93.423 -26.7524
59.501114 93.385 -26.5325
59.932281 93.349 -26.3034
60.366577 93.316 -26.0658
60.804020 93.284 -25.8224
61.244629 93.253 -25.5770
61.688435 93.224 -25.3274
62.135452 93.195 -25.0726
62.585712 93.168 -24.8134
63.039234 93.142 -24.5507
63.496040 93.118 -24.2845
63.956161 93.094 -24.0158
64.419617 93.071 -23.7425
64.886421 93.049 -23.4615
65.356621 93.029 -23.1765
65.830215 93.012 -22.8897
66.307251 92.997 -22.6026
66.787743 92.983 -22.3187
67.271713 92.969 -22.0345
67.759193 92.956 -21.7474
68.250206 92.945 -21.4585
68.744774 92.936 -21.1684
69.242928 92.929 -20.8765
69.744690 92.922 -20.5822
70.250084 92.917 -20.2866
70.759148 92.915 -19.9891
71.271896 92.915 -19.6935
71.788361 92.918 -19.4036
72.308571 92.922 -19.1185
72.832550 92.928 -18.8391
73.360321 92.935 -18.5645
73.891922 92.944 -18.2944
74.427376 92.954 -18.0285
74.966705 92.967 -17.7662
75.509949 92.981 -17.5085
76.057121 92.997 -17.2555
76.608261 93.015 -17.0095
77.163399 93.036 -16.7710
77.722557 93.060 -16.5444
78.285767 93.087 -16.3341
78.853058 93.116 -16.1414
79.424461 93.146 -15.9700
80.000000 93.176 -15.8173
80.579712 93.206 -15.6828
81.163628 93.237 -15.5642
81.751770 93.267 -15.4593
82.344177 93.297 -15.3672
82.940880 93.327 -15.2865
83.541901 93.357 -15.2171
84.147285 93.387 -15.1577
84.757050 93.417 -15.1101
85.371231 93.449 -15.0759
85.989868 93.481 -15.0550
86.612984 93.512 -15.0472
87.240616 93.543 -15.0540
87.872803 93.576 -15.0764
88.509560 93.609 -15.1159
89.150940 93.641 -15.1754
89.796967 93.672 -15.2518
90.447670 93.701 -15.3427
91.103088 93.730 -15.4488
91.763260 93.758 -15.5703
92.428215 93.785 -15.7067
93.097992 93.810 -15.8586
93.772614 93.832 -16.0227
94.452133 93.852 -16.1959
95.136566 93.870 -16.3776
95.825966 93.887 -16.5656
96.520363 93.902 -16.7606
97.219788 93.917 -16.9613
97.924286 93.931 -17.1715
98.633881 93.945 -17.3951
99.348625 93.957 -17.6305
100.068542 93.966 -17.8774
100.793686 93.973 -18.1363
101.524078 93.980 -18.4080
102.259766 93.985 -18.6923
103.000778 93.986 -18.9913
103.747162 93.983 -19.2994
104.498962 93.977 -19.6119
105.256203 93.967 -19.9284
106.018929 93.955 -20.2483
106.787186 93.939 -20.5684
107.561012 93.919 -20.8861
108.340446 93.895 -21.1995
109.125526 93.869 -21.5050
109.916290 93.841 -21.8045
110.712791 93.810 -22.0985
111.515060 93.777 -22.3864
112.323143 93.741 -22.6679
113.137085 93.703 -22.9424
113.956924 93.664 -23.2091
114.782700 93.622 -23.4683
115.614464 93.578 -23.7209
116.452255 93.532 -23.9655
117.296112 93.484 -24.2012
118.146095 93.433 -24.4275
119.002228 93.380 -24.6453
119.864563 93.325 -24.8505
120.733154 93.267 -25.0396
121.608040 93.206 -25.2116
122.489258 93.145 -25.3631
123.376869 93.084 -25.4987
124.270905 93.023 -25.6228
125.171425 92.961 -25.7338
126.078468 92.897 -25.8319
126.992081 92.831 -25.9158
127.912323 92.767 -25.9830
128.839233 92.702 -26.0379
129.772842 92.638 -26.0855
130.713242 92.573 -26.1219
131.660431 92.506 -26.1460
132.614502 92.437 -26.1550
133.575485 92.369 -26.1450
134.543427 92.300 -26.1181
135.518387 92.232 -26.0743
136.500412 92.164 -26.0161
137.489548 92.097 -25.9463
138.485855 92.031 -25.8642
139.489380 91.965 -25.7697
140.500168 91.900 -25.6642
141.518295 91.837 -25.5487
142.543793 91.774 -25.4253
143.576721 91.712 -25.2980
144.617142 91.649 -25.1623
145.665100 91.585 -25.0154
146.720642 91.521 -24.8565
147.783844 91.458 -24.6830
148.854752 91.396 -24.4965
149.933411 91.334 -24.2973
151.019897 91.273 -24.0865
152.114243 91.214 -23.8654
153.216522 91.155 -23.6337
154.326797 91.097 -23.3921
155.445114 91.040 -23.1396
156.571533 90.984 -22.8753
157.706116 90.929 -22.5997
158.848923 90.876 -22.3118
160.000000 90.825 -22.0147
161.159424 90.776 -21.7114
162.327255 90.729 -21.4017
163.503540 90.684 -21.0859
164.688354 90.640 -20.7657
165.881760 90.599 -20.4410
167.083801 90.561 -20.1169
168.294571 90.526 -19.7991
169.514099 90.491 -19.4858
170.742462 90.456 -19.1782
171.979736 90.420 -18.8718
173.225967 90.385 -18.5629
174.481232 90.350 -18.2507
175.745605 90.315 -17.9343
177.019119 90.280 -17.6108
178.301880 90.245 -17.2764
179.593933 90.210 -16.9329
180.895340 90.178 -16.5800
182.206177 90.148 -16.2199
183.526520 90.120 -15.8545
184.856430 90.094 -15.4848
186.195984 90.069 -15.1109
187.545227 90.047 -14.7369
188.904266 90.029 -14.3664
190.273132 90.013 -14.0009
191.651932 89.997 -13.6439
193.040726 89.982 -13.2920
194.439575 89.968 -12.9423
195.848572 89.954 -12.5970
197.267761 89.942 -12.2580
198.697250 89.931 -11.9228
200.137085 89.918 -11.5911
201.587372 89.905 -11.2588
203.048157 89.893 -10.9208
204.519531 89.881 -10.5800
206.001556 89.872 -10.2375
207.494324 89.863 -9.8938
208.997925 89.855 -9.5500
210.512405 89.847 -9.2058
212.037857 89.841 -8.8606
213.574371 89.836 -8.5168
215.122025 89.833 -8.1770
216.680893 89.832 -7.8409
218.251053 89.831 -7.5093
219.832581 89.831 -7.1810
221.425583 89.831 -6.8552
223.030121 89.831 -6.5308
224.646286 89.831 -6.2068
226.274170 89.832 -5.8818
227.913849 89.833 -5.5539
229.565399 89.836 -5.2248
231.228928 89.841 -4.8945
232.904510 89.848 -4.5660
234.592224 89.857 -4.2419
236.292191 89.867 -3.9228
238.004456 89.878 -3.6096
239.729126 89.891 -3.3048
241.466309 89.906 -3.0123
243.216080 89.921 -2.7298
244.978516 89.935 -2.4566
246.753738 89.950 -2.1908
248.541809 89.965 -1.9299
250.342850 89.980 -1.6747
252.156937 89.995 -1.4254
253.984161 90.010 -1.1807
255.824646 90.025 -0.9386
257.678467 90.040 -0.7006
259.545685 90.057 -0.4665
261.426483 90.075 -0.2386
263.320862 90.093 -0.0194
265.229004 90.111 0.1914
267.150970 90.129 0.3933
269.086853 90.147 0.5865
271.036774 90.166 0.7708
273.000824 90.184 0.9465
274.979095 90.201 1.1129
276.971710 90.216 1.2725
278.978760 90.231 1.4269
281.000336 90.244 1.5786
283.036591 90.255 1.7308
285.087585 90.266 1.8825
287.153442 90.277 2.0343
289.234283 90.288 2.1856
291.330200 90.297 2.3355
293.441284 90.306 2.4856
295.567688 90.314 2.6372
297.709503 90.322 2.7896
299.866821 90.330 2.9423
302.039795 90.337 3.0965
304.228485 90.343 3.2524
306.433044 90.347 3.4135
308.653595 90.350 3.5833
310.890228 90.353 3.7625
313.143066 90.356 3.9541
315.412231 90.360 4.1554
317.697845 90.366 4.3663
320.000000 90.374 4.5814
322.318848 90.385 4.7958
324.654510 90.398 5.0073
327.007080 90.412 5.2120
329.376709 90.428 5.4094
331.763519 90.444 5.5981
334.167603 90.460 5.7774
336.589142 90.477 5.9457
339.028198 90.494 6.1046
341.484924 90.509 6.2535
343.959473 90.523 6.3976
346.451935 90.535 6.5415
348.962463 90.546 6.6866
351.491211 90.556 6.8363
354.038239 90.566 6.9886
356.603760 90.576 7.1425
359.187866 90.586 7.2985
361.790680 90.595 7.4561
364.412354 90.604 7.6165
367.053040 90.613 7.7812
369.712860 90.622 7.9495
372.391968 90.631 8.1215
375.090454 90.640 8.2965
377.808533 90.650 8.4739
380.546265 90.661 8.6535
383.303864 90.671 8.8337
386.081451 90.681 9.0175
388.879150 90.691 9.2077
391.697144 90.701 9.4024
394.535522 90.713 9.6011
397.394501 90.727 9.8014
400.274170 90.741 10.0001
403.174744 90.756 10.1994
406.096313 90.771 10.4012
409.039062 90.787 10.6034
412.003113 90.805 10.8045
414.988647 90.825 11.0034
417.995850 90.844 11.1984
421.024811 90.865 11.3894
424.075714 90.887 11.5759
427.148743 90.910 11.7574
430.244049 90.932 11.9324
433.361786 90.955 12.1035
436.502106 90.977 12.2733
439.665161 90.999 12.4405
442.851166 91.024 12.6042
446.060242 91.049 12.7645
449.292572 91.073 12.9216
452.548340 91.097 13.0745
455.827698 91.123 13.2238
459.130798 91.151 13.3646
462.457855 91.179 13.4905
465.809021 91.207 13.6066
469.184448 91.232 13.7152
472.584381 91.256 13.8177
476.008911 91.281 13.9168
479.458252 91.305 14.0117
482.932617 91.327 14.1003
486.432159 91.348 14.1887
489.957031 91.366 14.2838
493.507477 91.385 14.3807
497.083618 91.407 14.4783
500.685699 91.429 14.5727
504.313873 91.450 14.6595
507.968323 91.471 14.7398
511.649292 91.492 14.8141
515.356934 91.513 14.8798
519.091370 91.534 14.9333
522.852966 91.553 14.9779
526.641724 91.568 15.0143
530.458008 91.581 15.0459
534.301941 91.592 15.0764
538.173706 91.601 15.1049
542.073547 91.608 15.1316
546.001648 91.612 15.1569
549.958191 91.613 15.1803
553.943420 91.609 15.2049
557.957520 91.601 15.2308
562.000671 91.587 15.2669
566.073181 91.565 15.3156
570.175171 91.535 15.3957
574.306885 91.496 15.5194
578.468567 91.448 15.7082
582.660400 91.391 15.9833
586.882568 91.330 16.3585
591.135376 91.268 16.8548
595.419006 91.209 17.4717
599.733643 91.159 18.2239
604.079590 91.126 19.0858
608.456970 91.117 20.0522
612.866089 91.136 21.0765
617.307190 91.189 22.1249
621.780457 91.273 23.1537
626.286133 91.387 24.1177
630.824463 91.526 24.9873
635.395691 91.686 25.7207
640.000000 91.859 26.3092
644.637695 92.039 26.7247
649.309021 92.219 26.9844
654.014160 92.392 27.0868
658.753418 92.554 27.0613
663.527039 92.702 26.9284
668.335205 92.837 26.7138
673.178284 92.956 26.4450
678.056396 93.063 26.1371
682.969849 93.157 25.8121
687.918945 93.242 25.4772
692.903870 93.317 25.1462
697.924927 93.385 24.8201
702.982422 93.447 24.5052
708.076477 93.504 24.1991
713.207520 93.558 23.9018
718.375732 93.608 23.6130
723.581360 93.654 23.3325
728.824707 93.698 23.0600
734.106079 93.738 22.7946
739.425720 93.776 22.5369
744.783936 93.812 22.2867
750.180908 93.845 22.0448
755.617065 93.876 21.8129
761.092529 93.905 21.5888
766.607727 93.934 21.3711
772.162903 93.961 21.1597
777.758301 93.986 20.9537
783.394287 94.010 20.7547
789.071045 94.032 20.5648
794.789001 94.053 20.3816
800.548340 94.074 20.2022
806.349487 94.093 20.0296
812.192627 94.110 19.8654
818.078125 94.125 19.7105
824.006226 94.140 19.5672
829.977295 94.154 19.4335
835.991699 94.168 19.3065
842.049622 94.182 19.1904
848.151428 94.193 19.0891
854.297485 94.205 19.0003
860.488098 94.219 18.9244
866.723572 94.234 18.8572
873.004211 94.250 18.7952
879.330322 94.267 18.7372
885.702332 94.285 18.6828
892.120483 94.305 18.6272
898.585144 94.327 18.5651
905.096680 94.350 18.4983
911.655396 94.370 18.4253
918.261597 94.390 18.3503
924.915710 94.409 18.2766
931.618042 94.428 18.2043
938.368896 94.447 18.1335
945.168762 94.465 18.0662
952.017822 94.482 18.0046
958.916504 94.499 17.9482
965.865234 94.516 17.8984
972.864319 94.535 17.8522
979.914062 94.555 17.8080
987.014954 94.576 17.7632
994.167236 94.598 17.7143
1001.371399 94.620 17.6622
1008.627747 94.641 17.6062
1015.936646 94.663 17.5473
1023.298584 94.685 17.4868
1030.713867 94.707 17.4232
1038.182739 94.728 17.3541
1045.705933 94.749 17.2833
1053.283447 94.767 17.2136
1060.916016 94.785 17.1453
1068.603882 94.803 17.0798
1076.347412 94.821 17.0173
1084.147095 94.837 16.9564
1092.003296 94.851 16.9032
1099.916382 94.864 16.8638
1107.886841 94.878 16.8361
1115.915039 94.894 16.8212
1124.001343 94.911 16.8150
1132.146362 94.930 16.8147
1140.350342 94.952 16.8180
1148.613770 94.975 16.8225
1156.937134 95.000 16.8250
1165.320801 95.028 16.8229
1173.765137 95.059 16.8121
1182.270752 95.091 16.7873
1190.838013 95.124 16.7492
1199.467285 95.156 16.6962
1208.159180 95.189 16.6303
1216.913940 95.222 16.5529
1225.732178 95.254 16.4633
1234.614380 95.285 16.3593
1243.560913 95.314 16.2464
1252.572266 95.339 16.1291
1261.648926 95.362 16.0095
1270.791382 95.385 15.8918
1280.000000 95.407 15.7745
1289.275391 95.427 15.6555
1298.618042 95.446 15.5405
1308.028320 95.461 15.4349
1317.506836 95.476 15.3374
1327.054077 95.493 15.2504
1336.670410 95.510 15.1683
1346.356567 95.528 15.0862
1356.112793 95.546 15.0043
1365.939697 95.564 14.9221
1375.837891 95.583 14.8374
1385.807739 95.602 14.7481
1395.849854 95.621 14.6524
1405.964844 95.640 14.5466
1416.152954 95.658 14.4334
1426.415039 95.673 14.3134
1436.751465 95.685 14.1895
1447.162720 95.695 14.0647
1457.649414 95.703 13.9395
1468.212158 95.708 13.8136
1478.851440 95.709 13.6925
1489.567871 95.704 13.5789
1500.361816 95.695 13.4813
1511.234131 95.681 13.4057
1522.185059 95.662 13.3621
1533.215454 95.636 13.3581
1544.325806 95.606 13.4076
1555.516602 95.572 13.5249
1566.788574 95.536 13.7170
1578.142090 95.502 13.9983
1589.578003 95.473 14.3613
1601.096680 95.454 14.8100
1612.698975 95.449 15.3237
1624.385254 95.461 15.8920
1636.156250 95.491 16.4883
1648.012451 95.542 17.0913
1659.954590 95.613 17.6749
1671.983398 95.702 18.2100
1684.099243 95.807 18.6842
1696.302856 95.922 19.0753
1708.594971 96.045 19.3828
1720.976196 96.173 19.5967
1733.447144 96.303 19.7236
1746.008423 96.433 19.7634
1758.660645 96.560 19.7263
1771.404663 96.683 19.6198
1784.240967 96.801 19.4528
1797.170288 96.913 19.2346
1810.193359 97.020 18.9711
1823.310791 97.120 18.6687
1836.523193 97.214 18.3354
1849.831421 97.300 17.9792
1863.236084 97.381 17.6067
1876.737793 97.454 17.2253
1890.337524 97.522 16.8397
1904.035645 97.585 16.4555
1917.833008 97.643 16.0765
1931.730469 97.696 15.7081
1945.728638 97.745 15.3515
1959.828125 97.792 15.0107
1974.029907 97.838 14.6834
1988.334473 97.883 14.3684
2002.742798 97.927 14.0652
2017.255493 97.970 13.7724
2031.873291 98.013 13.4911
2046.597168 98.055 13.2227
2061.427734 98.098 12.9641
2076.365479 98.142 12.7134
2091.411865 98.188 12.4690
2106.566895 98.234 12.2284
2121.832031 98.281 11.9920
2137.207764 98.329 11.7601
2152.694824 98.380 11.5299
2168.294189 98.432 11.2997
2184.006592 98.487 11.0661
2199.832764 98.543 10.8258
2215.773682 98.602 10.5760
2231.830078 98.663 10.3132
2248.002686 98.725 10.0372
2264.292725 98.787 9.7466
2280.700684 98.851 9.4413
2297.227539 98.914 9.1213
2313.874268 98.978 8.7854
2330.641602 99.042 8.4323
2347.530273 99.105 8.0636
2364.541504 99.166 7.6792
2381.676025 99.226 7.2828
2398.934570 99.283 6.8777
2416.318359 99.340 6.4649
2433.827881 99.396 6.0466
2451.464355 99.451 5.6228
2469.228760 99.504 5.1927
2487.121826 99.556 4.7609
2505.144531 99.605 4.3314
2523.297852 99.654 3.9039
2541.582764 99.704 3.4806
2560.000000 99.755 3.0579
2578.550781 99.806 2.6326
2597.236084 99.859 2.2050
2616.056641 99.912 1.7757
2635.013672 99.966 1.3409
2654.108154 100.023 0.8977
2673.340820 100.082 0.4430
2692.713135 100.141 -0.0277
2712.225586 100.202 -0.5137
2731.879395 100.262 -1.0143
2751.675781 100.324 -1.5336
2771.615479 100.387 -2.0755
2791.699707 100.451 -2.6395
2811.929688 100.512 -3.2264
2832.305908 100.573 -3.8351
2852.830078 100.632 -4.4639
2873.502930 100.691 -5.1151
2894.325439 100.749 -5.7914
2915.298828 100.805 -6.4898
2936.424316 100.856 -7.2087
2957.702881 100.905 -7.9467
2979.135742 100.951 -8.7023
3000.723633 100.995 -9.4736
3022.468262 101.034 -10.2592
3044.370117 101.069 -11.0553
3066.430908 101.100 -11.8578
3088.651611 101.127 -12.6664
3111.033203 101.152 -13.4799
3133.577148 101.173 -14.2961
3156.284180 101.190 -15.1130
3179.156006 101.203 -15.9291
3202.193359 101.214 -16.7416
3225.397949 101.223 -17.5521
3248.770508 101.229 -18.3615
3272.312500 101.233 -19.1694
3296.024902 101.235 -19.9757
3319.909180 101.234 -20.7803
3343.966797 101.231 -21.5829
3368.198486 101.225 -22.3832
3392.605713 101.216 -23.1808
3417.189941 101.205 -23.9753
3441.952393 101.192 -24.7676
3466.894287 101.175 -25.5535
3492.016846 101.155 -26.3301
3517.321289 101.131 -27.0945
3542.809326 101.105 -27.8431
3568.481934 101.077 -28.5756
3594.340576 101.047 -29.2912
3620.386719 101.016 -29.9887
3646.621582 100.985 -30.6656
3673.046387 100.953 -31.3259
3699.662842 100.923 -31.9722
3726.472168 100.894 -32.6071
3753.475586 100.865 -33.2331
3780.675049 100.837 -33.8532
3808.071289 100.812 -34.4702
3835.666016 100.787 -35.0871
3863.460938 100.763 -35.7090
3891.457275 100.739 -36.3330
3919.656250 100.713 -36.9587
3948.059814 100.686 -37.5841
3976.668945 100.659 -38.2071
4005.485596 100.632 -38.8280
4034.510986 100.604 -39.4467
4063.746582 100.575 -40.0621
4093.194336 100.545 -40.6729
4122.855469 100.514 -41.2791
4152.730957 100.484 -41.8805
4182.823730 100.454 -42.4752
4213.133789 100.422 -43.0615
4243.664062 100.389 -43.6383
4274.415527 100.358 -44.2021
4305.389648 100.329 -44.7573
4336.588379 100.301 -45.3065
4368.013184 100.275 -45.8514
4399.665527 100.251 -46.3941
4431.547363 100.230 -46.9363
4463.660156 100.211 -47.4788
4496.005371 100.194 -48.0262
4528.585449 100.182 -48.5831
4561.401367 100.172 -49.1513
4594.455078 100.164 -49.7335
4627.748535 100.158 -50.3320
4661.283203 100.156 -50.9484
4695.060547 100.157 -51.5878
4729.083008 100.161 -52.2534
4763.352051 100.167 -52.9526
4797.869141 100.176 -53.6913
4832.636719 100.188 -54.4769
4867.655762 100.202 -55.3179
4902.928711 100.215 -56.2174
4938.457520 100.226 -57.1812
4974.243652 100.234 -58.2099
5010.289062 100.237 -59.3075
5046.595703 100.234 -60.4710
5083.165527 100.222 -61.7024
5120.000000 100.198 -62.9906
5157.101562 100.160 -64.3288
5194.472168 100.108 -65.7062
5232.113281 100.042 -67.1143
5270.027344 99.958 -68.5388
5308.216309 99.855 -69.9698
5346.681641 99.734 -71.3861
5385.426270 99.592 -72.7674
5424.451172 99.433 -74.1016
5463.758789 99.256 -75.3745
5503.351562 99.063 -76.5724
5543.230957 98.852 -77.6819
5583.399414 98.625 -78.6874
5623.859375 98.384 -79.5721
5664.611816 98.131 -80.3247
5705.660156 97.868 -80.9339
5747.005859 97.595 -81.3821
5788.650879 97.313 -81.6532
5830.597656 97.025 -81.7301
5872.848633 96.738 -81.5908
5915.405762 96.456 -81.2344
5958.271484 96.186 -80.6463
6001.447266 95.936 -79.8467
6044.936523 95.715 -78.8354
6088.740234 95.531 -77.6583
6132.861816 95.395 -76.3388
6177.303223 95.314 -74.9451
6222.066406 95.297 -73.5259
6267.154297 95.343 -72.1636
6312.568359 95.454 -70.9331
6358.312012 95.621 -69.9055
6404.386719 95.838 -69.1639
6450.795898 96.090 -68.7472
6497.541016 96.364 -68.7225
6544.625000 96.644 -69.0882
6592.049805 96.913 -69.8782
6639.818359 97.161 -71.0510
6687.933594 97.375 -72.5982
6736.396973 97.548 -74.4527
6785.211426 97.670 -76.5717
6834.379883 97.740 -78.8738
6883.904785 97.749 -81.2840
6933.788574 97.705 -83.7393
6984.033691 97.610 -86.1640
7034.642578 97.467 -88.5224
7085.618652 97.279 -90.7596
7136.963867 97.052 -92.8588
7188.681152 96.793 -94.7848
7240.773438 96.506 -96.5396
7293.243164 96.197 -98.1121
7346.092773 95.869 -99.5084
7399.325684 95.526 -100.7306
7452.944336 95.168 -101.7802
7506.951172 94.797 -102.6625
7561.350098 94.414 -103.3678
7616.142578 94.018 -103.8958
7671.332031 93.609 -104.2229
7726.921875 93.185 -104.3335
7782.914551 92.750 -104.2033
7839.312500 92.307 -103.8089
7896.119629 91.857 -103.1314
7953.337891 91.403 -102.1445
8010.971191 90.953 -100.8467
8069.021973 90.517 -99.2201
8127.493164 90.101 -97.2870
8186.388672 89.715 -95.0513
8245.710938 89.367 -92.5509
8305.461914 89.068 -89.8109
8365.647461 88.822 -86.8740
8426.267578 88.636 -83.7807
8487.328125 88.509 -80.5632
8548.831055 88.442 -77.2592
8610.779297 88.440 -73.8939
8673.176758 88.503 -70.4942
8736.026367 88.636 -67.0934
8799.331055 88.844 -63.7129
8863.094727 89.132 -60.4151
8927.320312 89.510 -57.2397
8992.010742 89.972 -54.2760
9057.170898 90.523 -51.5994
9122.802734 91.144 -49.2921
9188.910156 91.823 -47.4425
9255.497070 92.543 -46.1067
9322.566406 93.287 -45.3647
9390.121094 94.036 -45.2330
9458.166016 94.769 -45.7665
9526.704102 95.475 -46.9292
9595.738281 96.139 -48.7296
9665.273438 96.750 -51.0882
9735.311523 97.293 -53.9576
9805.857422 97.768 -57.2472
9876.915039 98.170 -60.8748
9948.487305 98.501 -64.7663
10020.578125 98.763 -68.8422
10093.191406 98.955 -73.0371
10166.331055 99.078 -77.2757
10240.000000 99.135 -81.5088
10314.203125 99.130 -85.6705
10388.944336 99.068 -89.7350
10464.226562 98.957 -93.6606
10540.054688 98.796 -97.4291
10616.432617 98.587 -101.0177
10693.363281 98.334 -104.3976
10770.852539 98.039 -107.5484
10848.902344 97.703 -110.4252
10927.517578 97.325 -112.9939
11006.703125 96.911 -115.2031
11086.461914 96.465 -117.0002
11166.798828 95.997 -118.3548
11247.718750 95.513 -119.2114
11329.223633 95.035 -119.5923
11411.320312 94.578 -119.4692
11494.011719 94.168 -118.9408
11577.301758 93.830 -118.0466
11661.195312 93.579 -116.9375
11745.697266 93.439 -115.7267
11830.811523 93.402 -114.5689
11916.542969 93.475 -113.6215
12002.894531 93.630 -112.9904
12089.873047 93.849 -112.8280
12177.480469 94.101 -113.1507
12265.723633 94.355 -114.0467
12354.606445 94.595 -115.4511
12444.132812 94.794 -117.3637
12534.308594 94.945 -119.6746
12625.136719 95.031 -122.3099
12716.624023 95.054 -125.1596
12808.773438 95.008 -128.1136
12901.591797 94.899 -131.0961
12995.082031 94.729 -134.0086
13089.250000 94.505 -136.8093
13184.099609 94.234 -139.4248
13279.636719 93.924 -141.8540
13375.867188 93.584 -144.0642
13472.793945 93.221 -146.0781
13570.422852 92.841 -147.9019
13668.759766 92.446 -149.5527
13767.809570 92.041 -151.0491
13867.577148 91.622 -152.3926
13968.067383 91.195 -153.6042
14069.285156 90.750 -154.6436
14171.237305 90.279 -155.5093
14273.927734 89.780 -156.1047
14377.362305 89.244 -156.3601
14481.546875 88.681 -156.1921
14586.486328 88.092 -155.5051
14692.185547 87.494 -154.2659
14798.651367 86.895 -152.3895
14905.888672 86.335 -149.9359
15013.902344 85.841 -146.8679
15122.700195 85.460 -143.3946
15232.285156 85.249 -139.6385
15342.664062 85.197 -135.8269
15453.843750 85.323 -132.1747
15565.829102 85.594 -128.8438
15678.625000 85.996 -126.0307
15792.239258 86.484 -123.8459
15906.675781 87.026 -122.4794
16021.942383 87.579 -121.8891
16138.043945 88.092 -122.1459
16254.986328 88.558 -123.0956
16372.777344 88.955 -124.6492
16491.421875 89.286 -126.6796
16610.923828 89.548 -129.0652
16731.294922 89.742 -131.7002
16852.535156 89.865 -134.4577
16974.656250 89.929 -137.2798
17097.662109 89.943 -140.0667
17221.558594 89.914 -142.8174
17346.353516 89.852 -145.4945
17472.052734 89.759 -148.1093
17598.662109 89.641 -150.6552
17726.189453 89.501 -153.1496
17854.640625 89.343 -155.6072
17984.021484 89.163 -158.0306
18114.341797 88.959 -160.4371
18245.605469 88.727 -162.7987
18377.820312 88.463 -165.1090
18510.994141 88.165 -167.3205
18645.132812 87.830 -169.3997
18780.242188 87.461 -171.2983
18916.332031 87.057 -172.9703
19053.408203 86.625 -174.3749
19191.476562 86.162 -175.4545
19330.546875 85.687 -176.2128
19470.623047 85.209 -176.6159
19611.714844 84.741 -176.7212
19753.830078 84.297 -176.5552
19896.974609 83.883 -176.1778
