* Measurement data measured by REW V5.20.13
* Source: C:\Users\kurin\Desktop\Targets and Curves\Resolve\Img\Files\Meze 109 Pro_SPL.txt
* Format: Comma/Tab/Space delimited data
* Dated: Aug 15, 2023 12:11:11 AM
* REW Settings:
*  C-weighting compensation: Off
*  Target level: 75.0 dB
* Note: ; Measurement imported from C:\Users\kurin\Desktop\Targets and Curves\Resolve\Img\Files\Meze 109 Pro_SPL.txt Format: Comma/Tab/Space delimited data 623 values loaded, 5 Hz to 39,792 Hz log spaced 
* Measurement: Meze 109 Pro_SPL
* Smoothing: 1/48 octave
* Frequency Step: 1/96 octave
* Start Frequency: 5.000 Hz
*
* Freq(Hz) SPL(dB) Phase(degrees)
5.000000 82.383 42.9080
5.036232 82.397 42.8954
5.072727 82.413 42.8820
5.109486 82.431 42.8666
5.146511 82.452 42.8490
5.183805 82.477 42.8278
5.221369 82.504 42.8050
5.259205 82.532 42.7824
5.297316 82.562 42.7590
5.335702 82.594 42.7342
5.374367 82.626 42.7090
5.413311 82.658 42.6845
5.452538 82.690 42.6600
5.492050 82.722 42.6351
5.531847 82.755 42.6100
5.571934 82.787 42.5851
5.612310 82.819 42.5600
5.652979 82.851 42.5341
5.693943 82.883 42.5080
5.735204 82.915 42.4826
5.776763 82.947 42.4570
5.818624 82.979 42.4306
5.860788 83.011 42.4040
5.903258 83.043 42.3776
5.946035 83.075 42.3510
5.989123 83.107 42.3241
6.032523 83.139 42.2970
6.076237 83.171 42.2696
6.120268 83.203 42.2420
6.164618 83.235 42.2146
6.209289 83.267 42.1870
6.254284 83.299 42.1591
6.299605 83.331 42.1310
6.345255 83.363 42.1026
6.391235 83.395 42.0740
6.437549 83.427 42.0451
6.484198 83.459 42.0160
6.531185 83.491 41.9866
6.578513 83.523 41.9570
6.626183 83.555 41.9271
6.674199 83.588 41.8970
6.722563 83.620 41.8671
6.771278 83.652 41.8370
6.820345 83.684 41.8066
6.869768 83.716 41.7760
6.919549 83.748 41.7451
6.969691 83.780 41.7140
7.020196 83.812 41.6826
7.071068 83.844 41.6510
7.122308 83.876 41.6191
7.173919 83.908 41.5870
7.225904 83.940 41.5546
7.278266 83.972 41.5220
7.331007 84.004 41.4891
7.384131 84.036 41.4560
7.437639 84.068 41.4226
7.491535 84.100 41.3890
7.545822 84.132 41.3551
7.600502 84.164 41.3210
7.655579 84.196 41.2866
7.711054 84.228 41.2520
7.766932 84.260 41.2171
7.823214 84.292 41.1820
7.879904 84.324 41.1471
7.937005 84.357 41.1120
7.994520 84.389 41.0763
8.052452 84.421 41.0400
8.110803 84.453 41.0031
8.169578 84.485 40.9660
8.228777 84.517 40.9291
8.288406 84.549 40.8920
8.348468 84.581 40.8547
8.408964 84.613 40.8170
8.469899 84.645 40.7786
8.531276 84.677 40.7400
8.593097 84.709 40.7016
8.655366 84.741 40.6630
8.718086 84.773 40.6237
8.781260 84.805 40.5840
8.844893 84.837 40.5441
8.908987 84.869 40.5040
8.973545 84.901 40.4637
9.038571 84.933 40.4230
9.104069 84.965 40.3817
9.170040 84.997 40.3400
9.236490 85.029 40.2981
9.303422 85.061 40.2560
9.370838 85.093 40.2136
9.438744 85.125 40.1710
9.507140 85.157 40.1282
9.576033 85.190 40.0850
9.645425 85.222 40.0412
9.715320 85.254 39.9970
9.785721 85.286 39.9527
9.856632 85.318 39.9080
9.928058 85.350 39.8627
10.000000 85.382 39.8170
10.072464 85.414 39.7712
10.145453 85.446 39.7251
10.218971 85.478 39.6787
10.293022 85.510 39.6320
10.367610 85.542 39.5847
10.442738 85.574 39.5370
10.518411 85.606 39.4892
10.594631 85.638 39.4410
10.671404 85.670 39.3923
10.748734 85.702 39.3430
10.826623 85.734 39.2932
10.905077 85.766 39.2430
10.984100 85.798 39.1927
11.063695 85.830 39.1420
11.143867 85.862 39.0907
11.224621 85.894 39.0390
11.305959 85.926 38.9873
11.387886 85.958 38.9350
11.470407 85.990 38.8818
11.553527 86.023 38.8280
11.637249 86.055 38.7742
11.721577 86.087 38.7201
11.806517 86.119 38.6658
11.892071 86.151 38.6111
11.978246 86.183 38.5553
12.065045 86.215 38.4990
12.152473 86.247 38.4428
12.240536 86.279 38.3860
12.329235 86.311 38.3283
12.418578 86.343 38.2701
12.508568 86.375 38.2117
12.599211 86.407 38.1530
12.690510 86.439 38.0939
12.782471 86.471 38.0341
12.875097 86.503 37.9733
12.968395 86.535 37.9120
13.062370 86.567 37.8508
13.157025 86.599 37.7890
13.252366 86.631 37.7263
13.348398 86.663 37.6630
13.445127 86.695 37.5998
13.542556 86.727 37.5361
13.640691 86.759 37.4714
13.739536 86.792 37.4060
13.839099 86.824 37.3398
13.939383 86.856 37.2731
14.040393 86.888 37.2064
14.142136 86.920 37.1390
14.244616 86.952 37.0703
14.347837 86.984 37.0010
14.451808 87.016 36.9318
14.556532 87.048 36.8620
14.662014 87.080 36.7909
14.768262 87.112 36.7191
14.875278 87.144 36.6468
14.983070 87.176 36.5741
15.091644 87.208 36.5009
15.201005 87.240 36.4271
15.311157 87.272 36.3520
15.422109 87.304 36.2761
15.533863 87.336 36.1994
15.646428 87.368 36.1220
15.759809 87.400 36.0439
15.874010 87.432 35.9651
15.989040 87.464 35.8854
16.104904 87.496 35.8051
16.221605 87.528 35.7240
16.339155 87.560 35.6421
16.457554 87.592 35.5595
16.576813 87.625 35.4761
16.696936 87.657 35.3916
16.817928 87.689 35.3061
16.939798 87.721 35.2196
17.062551 87.753 35.1321
17.186193 87.785 35.0436
17.310732 87.817 34.9541
17.436172 87.849 34.8636
17.562521 87.881 34.7721
17.689787 87.913 34.6792
17.817974 87.945 34.5851
17.947090 87.977 34.4897
18.077143 88.009 34.3931
18.208138 88.041 34.2953
18.340080 88.073 34.1961
18.472980 88.105 34.0955
18.606844 88.137 33.9931
18.741676 88.169 33.8888
18.877487 88.201 33.7821
19.014280 88.233 33.6726
19.152065 88.265 33.5601
19.290850 88.297 33.4445
19.430639 88.328 33.3261
19.571442 88.359 33.2042
19.713264 88.389 33.0812
19.856115 88.417 32.9581
20.000000 88.445 32.8371
20.144928 88.472 32.7206
20.290907 88.498 32.6081
20.437943 88.525 32.5000
20.586044 88.552 32.3961
20.735220 88.579 32.2962
20.885475 88.606 32.2001
21.036821 88.634 32.1086
21.189262 88.662 32.0191
21.342808 88.692 31.9303
21.497467 88.723 31.8401
21.653246 88.755 31.7459
21.810154 88.788 31.6481
21.968201 88.821 31.5463
22.127390 88.854 31.4401
22.287735 88.887 31.3287
22.449242 88.921 31.2131
22.611917 88.954 31.0946
22.775772 88.988 30.9722
22.940815 89.022 30.8455
23.107054 89.057 30.7132
23.274498 89.091 30.5723
23.443153 89.125 30.4272
23.613033 89.157 30.2814
23.784142 89.188 30.1341
23.956491 89.220 29.9865
24.130091 89.253 29.8362
24.304947 89.285 29.6795
24.481071 89.317 29.5222
24.658470 89.347 29.3708
24.837156 89.377 29.2192
25.017136 89.411 29.0653
25.198421 89.447 28.9042
25.381020 89.483 28.7289
25.564941 89.518 28.5432
25.750195 89.552 28.3500
25.936790 89.586 28.1453
26.124741 89.622 27.9253
26.314051 89.656 27.6913
26.504732 89.687 27.4403
26.696796 89.715 27.1813
26.890253 89.739 26.9227
27.085112 89.760 26.6633
27.281382 89.781 26.4049
27.479073 89.801 26.1473
27.678198 89.818 25.8897
27.878765 89.832 25.6363
28.080786 89.843 25.3915
28.284271 89.853 25.1553
28.489231 89.862 24.9294
28.695675 89.870 24.7133
28.903616 89.877 24.5057
29.113064 89.883 24.3103
29.324028 89.887 24.1310
29.536524 89.892 23.9652
29.750557 89.899 23.8129
29.966141 89.907 23.6702
30.183289 89.916 23.5338
30.402010 89.926 23.4012
30.622314 89.939 23.2696
30.844217 89.953 23.1362
31.067726 89.968 22.9964
31.292856 89.983 22.8522
31.519617 89.998 22.7024
31.748020 90.012 22.5512
31.978081 90.024 22.4025
32.209808 90.036 22.2562
32.443211 90.049 22.1135
32.678310 90.063 21.9742
32.915108 90.076 21.8389
33.153625 90.089 21.7062
33.393871 90.104 21.5754
33.635857 90.120 21.4442
33.879597 90.137 21.3107
34.125103 90.155 21.1732
34.372387 90.174 21.0289
34.621464 90.194 20.8792
34.872345 90.213 20.7245
35.125042 90.233 20.5652
35.379574 90.253 20.4023
35.635948 90.273 20.2342
35.894180 90.294 20.0609
36.154285 90.317 19.8783
36.416275 90.341 19.6837
36.680161 90.366 19.4723
36.945961 90.391 19.2375
37.213688 90.416 18.9814
37.483353 90.438 18.7033
37.754974 90.458 18.4055
38.028561 90.474 18.0883
38.304131 90.487 17.7564
38.581699 90.495 17.4113
38.861279 90.497 17.0625
39.142883 90.492 16.7187
39.426529 90.481 16.3845
39.712231 90.468 16.0667
40.000000 90.451 15.7664
40.289856 90.430 15.4857
40.581814 90.405 15.2284
40.875885 90.379 14.9998
41.172089 90.351 14.7973
41.470440 90.324 14.6206
41.770950 90.297 14.4672
42.073643 90.270 14.3348
42.378525 90.245 14.2221
42.685616 90.221 14.1297
42.994934 90.200 14.0501
43.306492 90.183 13.9782
43.620308 90.168 13.9081
43.936401 90.155 13.8326
44.254780 90.143 13.7501
44.575470 90.132 13.6563
44.898483 90.121 13.5522
45.223835 90.107 13.4348
45.551544 90.091 13.3122
45.881630 90.070 13.1898
46.214108 90.046 13.0722
46.548996 90.019 12.9625
46.886307 89.987 12.8701
47.226067 89.949 12.8037
47.568283 89.907 12.7680
47.912983 89.864 12.7705
48.260181 89.819 12.8119
48.609894 89.774 12.8946
48.962143 89.729 13.0208
49.316940 89.685 13.1954
49.674313 89.644 13.4126
50.034271 89.609 13.6697
50.396843 89.578 13.9625
50.762039 89.552 14.2868
51.129883 89.532 14.6404
51.500389 89.519 15.0229
51.873581 89.514 15.4243
52.249481 89.519 15.8369
52.628101 89.533 16.2533
53.009464 89.555 16.6646
53.393593 89.584 17.0673
53.780506 89.621 17.4578
54.170223 89.665 17.8284
54.562763 89.718 18.1722
54.958145 89.777 18.4835
55.356396 89.842 18.7547
55.757530 89.911 18.9857
56.161572 89.983 19.1735
56.568542 90.057 19.3188
56.978462 90.132 19.4199
57.391350 90.208 19.4799
57.807232 90.282 19.5000
58.226128 90.355 19.4851
58.648056 90.426 19.4402
59.073048 90.496 19.3661
59.501114 90.564 19.2642
59.932281 90.630 19.1382
60.366577 90.693 18.9919
60.804020 90.754 18.8273
61.244629 90.812 18.6481
61.688435 90.869 18.4533
62.135452 90.924 18.2428
62.585712 90.978 18.0184
63.039234 91.028 17.7820
63.496040 91.076 17.5344
63.956161 91.123 17.2770
64.419617 91.168 17.0095
64.886421 91.210 16.7317
65.356621 91.251 16.4445
65.830215 91.290 16.1483
66.307251 91.327 15.8436
66.787743 91.361 15.5309
67.271713 91.393 15.2106
67.759193 91.423 14.8837
68.250206 91.450 14.5496
68.744774 91.476 14.2068
69.242928 91.498 13.8586
69.744690 91.515 13.5074
70.250084 91.529 13.1557
70.759148 91.541 12.8055
71.271896 91.549 12.4606
71.788361 91.552 12.1234
72.308571 91.552 11.7996
72.832550 91.548 11.4964
73.360321 91.541 11.2125
73.891922 91.535 10.9497
74.427376 91.528 10.7064
74.966705 91.520 10.4823
75.509949 91.512 10.2754
76.057121 91.506 10.0853
76.608261 91.501 9.9073
77.163399 91.498 9.7366
77.722557 91.497 9.5723
78.285767 91.496 9.4122
78.853058 91.495 9.2563
79.424461 91.496 9.1041
80.000000 91.497 8.9553
80.579712 91.499 8.8101
81.163628 91.502 8.6663
81.751770 91.507 8.5227
82.344177 91.514 8.3763
82.940880 91.521 8.2234
83.541901 91.529 8.0643
84.147285 91.536 7.8982
84.757050 91.544 7.7253
85.371231 91.552 7.5454
85.989868 91.559 7.3594
86.612984 91.565 7.1672
87.240616 91.570 6.9724
87.872803 91.573 6.7781
88.509560 91.574 6.5854
89.150940 91.575 6.3963
89.796967 91.576 6.2104
90.447670 91.576 6.0279
91.103088 91.576 5.8484
91.763260 91.576 5.6718
92.428215 91.576 5.4974
93.097992 91.576 5.3244
93.772614 91.576 5.1524
94.452133 91.576 4.9806
95.136566 91.576 4.8094
95.825966 91.576 4.6388
96.520363 91.576 4.4684
97.219788 91.576 4.2976
97.924286 91.576 4.1264
98.633881 91.576 3.9547
99.348625 91.576 3.7824
100.068542 91.576 3.6095
100.793686 91.576 3.4354
101.524078 91.576 3.2594
102.259766 91.576 3.0814
103.000778 91.576 2.9014
103.747162 91.576 2.7184
104.498962 91.576 2.5315
105.256203 91.576 2.3404
106.018929 91.575 2.1444
106.787186 91.574 1.9434
107.561012 91.572 1.7364
108.340446 91.569 1.5254
109.125526 91.564 1.3108
109.916290 91.558 1.0954
110.712791 91.550 0.8820
111.515060 91.541 0.6704
112.323143 91.532 0.4614
113.137085 91.522 0.2554
113.956924 91.509 0.0526
114.782700 91.495 -0.1445
115.614464 91.481 -0.3313
116.452255 91.467 -0.5137
117.296112 91.455 -0.6961
118.146095 91.443 -0.8776
119.002228 91.428 -1.0594
119.864563 91.413 -1.2395
120.733154 91.398 -1.4157
121.608040 91.383 -1.5896
122.489258 91.367 -1.7629
123.376869 91.350 -1.9336
124.270905 91.332 -2.1011
125.171425 91.313 -2.2637
126.078468 91.294 -2.4191
126.992081 91.274 -2.5687
127.912323 91.254 -2.7127
128.839233 91.235 -2.8517
129.772842 91.216 -2.9860
130.713242 91.198 -3.1167
131.660431 91.179 -3.2446
132.614502 91.161 -3.3716
133.575485 91.144 -3.4995
134.543427 91.128 -3.6297
135.518387 91.111 -3.7654
136.500412 91.094 -3.9037
137.489548 91.075 -4.0425
138.485855 91.056 -4.1826
139.489380 91.037 -4.3249
140.500168 91.017 -4.4677
141.518295 90.995 -4.6102
142.543793 90.971 -4.7507
143.576721 90.947 -4.8857
144.617142 90.923 -5.0187
145.665100 90.899 -5.1529
146.720642 90.873 -5.2856
147.783844 90.845 -5.4159
148.854752 90.815 -5.5417
149.933411 90.784 -5.6611
151.019897 90.752 -5.7727
152.114243 90.718 -5.8762
153.216522 90.681 -5.9668
154.326797 90.642 -6.0391
155.445114 90.603 -6.0939
156.571533 90.565 -6.1299
157.706116 90.527 -6.1480
158.848923 90.489 -6.1477
160.000000 90.451 -6.1311
161.159424 90.416 -6.0983
162.327255 90.383 -6.0541
163.503540 90.352 -6.0037
164.688354 90.323 -5.9451
165.881760 90.294 -5.8777
167.083801 90.267 -5.8022
168.294571 90.243 -5.7182
169.514099 90.221 -5.6292
170.742462 90.201 -5.5384
171.979736 90.184 -5.4462
173.225967 90.169 -5.3531
174.481232 90.156 -5.2632
175.745605 90.146 -5.1799
177.019119 90.139 -5.1062
178.301880 90.134 -5.0459
179.593933 90.130 -5.0001
180.895340 90.127 -4.9719
182.206177 90.123 -4.9580
183.526520 90.117 -4.9581
184.856430 90.110 -4.9670
186.195984 90.101 -4.9800
187.545227 90.090 -4.9950
188.904266 90.078 -5.0093
190.273132 90.064 -5.0200
191.651932 90.049 -5.0224
193.040726 90.033 -5.0180
194.439575 90.019 -5.0054
195.848572 90.005 -4.9890
197.267761 89.993 -4.9730
198.697250 89.981 -4.9570
200.137085 89.969 -4.9422
201.587372 89.957 -4.9290
203.048157 89.946 -4.9177
204.519531 89.935 -4.9100
206.001556 89.925 -4.9089
207.494324 89.914 -4.9110
208.997925 89.901 -4.9147
210.512405 89.886 -4.9170
212.037857 89.871 -4.9136
213.574371 89.856 -4.9070
215.122025 89.841 -4.8987
216.680893 89.826 -4.8870
218.251053 89.809 -4.8711
219.832581 89.792 -4.8511
221.425583 89.776 -4.8261
223.030121 89.761 -4.7981
224.646286 89.745 -4.7691
226.274170 89.729 -4.7371
227.913849 89.713 -4.7003
229.565399 89.696 -4.6601
231.228928 89.680 -4.6177
232.904510 89.664 -4.5711
234.592224 89.647 -4.5188
236.292191 89.629 -4.4602
238.004456 89.613 -4.3938
239.729126 89.597 -4.3212
241.466309 89.581 -4.2440
243.216080 89.566 -4.1602
244.978516 89.551 -4.0670
246.753738 89.538 -3.9683
248.541809 89.527 -3.8668
250.342850 89.518 -3.7633
252.156937 89.509 -3.6595
253.984161 89.502 -3.5553
255.824646 89.496 -3.4496
257.678467 89.491 -3.3463
259.545685 89.488 -3.2486
261.426483 89.487 -3.1562
263.320862 89.486 -3.0703
265.229004 89.486 -2.9902
267.150970 89.486 -2.9160
269.086853 89.486 -2.8472
271.036774 89.486 -2.7836
273.000824 89.486 -2.7242
274.979095 89.486 -2.6680
276.971710 89.486 -2.6152
278.978760 89.486 -2.5657
281.000336 89.486 -2.5191
283.036591 89.486 -2.4747
285.087585 89.486 -2.4331
287.153442 89.486 -2.3950
289.234283 89.486 -2.3601
291.330200 89.486 -2.3278
293.441284 89.486 -2.2991
295.567688 89.486 -2.2744
297.709503 89.485 -2.2540
299.866821 89.484 -2.2384
302.039795 89.483 -2.2270
304.228485 89.482 -2.2208
306.433044 89.479 -2.2170
308.653595 89.474 -2.2138
310.890228 89.467 -2.2090
313.143066 89.460 -2.2001
315.412231 89.452 -2.1870
317.697845 89.444 -2.1689
320.000000 89.435 -2.1461
322.318848 89.425 -2.1190
324.654510 89.415 -2.0861
327.007080 89.404 -2.0457
329.376709 89.394 -1.9982
331.763519 89.384 -1.9428
334.167603 89.375 -1.8812
336.589142 89.366 -1.8147
339.028198 89.357 -1.7432
341.484924 89.349 -1.6670
343.959473 89.342 -1.5862
346.451935 89.336 -1.5002
348.962463 89.331 -1.4122
351.491211 89.328 -1.3252
354.038239 89.327 -1.2402
356.603760 89.326 -1.1594
359.187866 89.325 -1.0822
361.790680 89.325 -1.0091
364.412354 89.325 -0.9392
367.053040 89.325 -0.8721
369.712860 89.325 -0.8072
372.391968 89.325 -0.7439
375.090454 89.325 -0.6822
377.808533 89.325 -0.6217
380.546265 89.325 -0.5622
383.303864 89.325 -0.5034
386.081451 89.325 -0.4452
388.879150 89.325 -0.3874
391.697144 89.325 -0.3302
394.535522 89.325 -0.2735
397.394501 89.325 -0.2172
400.274170 89.325 -0.1607
403.174744 89.325 -0.1042
406.096313 89.325 -0.0477
409.039062 89.325 0.0088
412.003113 89.325 0.0652
414.988647 89.325 0.1218
417.995850 89.325 0.1791
421.024811 89.325 0.2368
424.075714 89.325 0.2945
427.148743 89.325 0.3528
430.244049 89.325 0.4124
433.361786 89.325 0.4728
436.502106 89.325 0.5338
439.665161 89.325 0.5958
442.851166 89.325 0.6589
446.060242 89.325 0.7238
449.292572 89.325 0.7910
452.548340 89.325 0.8608
455.827698 89.325 0.9336
459.130798 89.325 1.0097
462.457855 89.326 1.0899
465.809021 89.327 1.1737
469.184448 89.328 1.2621
472.584381 89.331 1.3527
476.008911 89.336 1.4445
479.458252 89.342 1.5347
482.932617 89.349 1.6204
486.432159 89.357 1.7017
489.957031 89.366 1.7781
493.507477 89.375 1.8498
497.083618 89.384 1.9173
500.685699 89.394 1.9788
504.313873 89.405 2.0323
507.968323 89.416 2.0789
511.649292 89.426 2.1183
515.356934 89.436 2.1519
519.091370 89.445 2.1807
522.852966 89.453 2.2049
526.641724 89.461 2.2252
530.458008 89.468 2.2410
534.301941 89.474 2.2505
538.173706 89.479 2.2580
542.073547 89.481 2.2667
546.001648 89.482 2.2780
549.958191 89.481 2.2935
553.943420 89.479 2.3159
557.957520 89.474 2.3469
562.000671 89.468 2.3908
566.073181 89.461 2.4523
570.175171 89.453 2.5317
574.306885 89.445 2.6306
578.468567 89.438 2.7506
582.660400 89.431 2.8938
586.882568 89.427 3.0594
591.135376 89.426 3.2498
595.419006 89.429 3.4563
599.733643 89.439 3.6747
604.079590 89.456 3.8932
608.456970 89.480 4.1004
612.866089 89.509 4.2914
617.307190 89.541 4.4574
621.780457 89.577 4.5986
626.286133 89.614 4.7129
630.824463 89.653 4.7988
635.395691 89.693 4.8519
640.000000 89.733 4.8789
644.637695 89.768 4.8820
649.309021 89.801 4.8701
654.014160 89.831 4.8541
658.753418 89.861 4.8311
663.527039 89.891 4.8017
668.335205 89.920 4.7651
673.178284 89.949 4.7204
678.056396 89.977 4.6682
682.969849 90.004 4.6100
687.918945 90.031 4.5433
692.903870 90.058 4.4658
697.924927 90.085 4.3783
702.982422 90.109 4.2791
708.076477 90.132 4.1734
713.207520 90.152 4.0662
718.375732 90.171 3.9574
723.581360 90.190 3.8491
728.824707 90.208 3.7394
734.106079 90.225 3.6268
739.425720 90.241 3.5124
744.783936 90.256 3.3978
750.180908 90.272 3.2794
755.617065 90.289 3.1543
761.092529 90.305 3.0225
766.607727 90.319 2.8818
772.162903 90.331 2.7355
777.758301 90.342 2.5862
783.394287 90.351 2.4345
789.071045 90.358 2.2813
794.789001 90.364 2.1295
800.548340 90.367 1.9824
806.349487 90.368 1.8405
812.192627 90.369 1.7057
818.078125 90.370 1.5765
824.006226 90.370 1.4523
829.977295 90.370 1.3324
835.991699 90.370 1.2162
842.049622 90.370 1.1024
848.151428 90.370 0.9899
854.297485 90.370 0.8774
860.488098 90.370 0.7637
866.723572 90.370 0.6484
873.004211 90.369 0.5310
879.330322 90.368 0.4114
885.702332 90.367 0.2889
892.120483 90.364 0.1654
898.585144 90.359 0.0416
905.096680 90.353 -0.0796
911.655396 90.345 -0.1940
918.261597 90.337 -0.3036
924.915710 90.330 -0.4086
931.618042 90.322 -0.5096
938.368896 90.314 -0.6068
945.168762 90.305 -0.7016
952.017822 90.297 -0.7953
958.916504 90.289 -0.8896
965.865234 90.281 -0.9874
972.864319 90.272 -1.0866
979.914062 90.262 -1.1865
987.014954 90.251 -1.2856
994.167236 90.239 -1.3835
1001.371399 90.225 -1.4767
1008.627747 90.209 -1.5611
1015.936646 90.192 -1.6387
1023.298584 90.176 -1.7093
1030.713867 90.161 -1.7748
1038.182739 90.145 -1.8372
1045.705933 90.129 -1.8958
1053.283447 90.113 -1.9499
1060.916016 90.096 -2.0018
1068.603882 90.080 -2.0542
1076.347412 90.064 -2.1048
1084.147095 90.046 -2.1531
1092.003296 90.026 -2.1969
1099.916382 90.006 -2.2339
1107.886841 89.985 -2.2639
1115.915039 89.963 -2.2864
1124.001343 89.941 -2.3000
1132.146362 89.919 -2.3014
1140.350342 89.897 -2.2950
1148.613770 89.877 -2.2844
1156.937134 89.857 -2.2691
1165.320801 89.836 -2.2494
1173.765137 89.816 -2.2261
1182.270752 89.798 -2.1990
1190.838013 89.780 -2.1711
1199.467285 89.762 -2.1461
1208.159180 89.744 -2.1221
1216.913940 89.725 -2.0992
1225.732178 89.704 -2.0751
1234.614380 89.683 -2.0484
1243.560913 89.660 -2.0171
1252.572266 89.636 -1.9805
1261.648926 89.610 -1.9342
1270.791382 89.582 -1.8736
1280.000000 89.554 -1.7993
1289.275391 89.527 -1.7105
1298.618042 89.499 -1.6075
1308.028320 89.471 -1.4901
1317.506836 89.443 -1.3586
1327.054077 89.417 -1.2118
1336.670410 89.392 -1.0536
1346.356567 89.369 -0.8881
1356.112793 89.347 -0.7147
1365.939697 89.326 -0.5340
1375.837891 89.305 -0.3458
1385.807739 89.285 -0.1503
1395.849854 89.266 0.0542
1405.964844 89.248 0.2694
1416.152954 89.231 0.4942
1426.415039 89.216 0.7286
1436.751465 89.203 0.9701
1447.162720 89.192 1.2163
1457.649414 89.183 1.4660
1468.212158 89.176 1.7180
1478.851440 89.170 1.9700
1489.567871 89.167 2.2196
1500.361816 89.166 2.4661
1511.234131 89.165 2.7074
1522.185059 89.164 2.9459
1533.215454 89.164 3.1830
1544.325806 89.164 3.4190
1555.516602 89.164 3.6542
1566.788574 89.164 3.8900
1578.142090 89.164 4.1277
1589.578003 89.164 4.3680
1601.096680 89.164 4.6115
1612.698975 89.164 4.8590
1624.385254 89.164 5.1108
1636.156250 89.164 5.3678
1648.012451 89.164 5.6311
1659.954590 89.164 5.9010
1671.983398 89.164 6.1779
1684.099243 89.164 6.4628
1696.302856 89.164 6.7568
1708.594971 89.164 7.0606
1720.976196 89.164 7.3748
1733.447144 89.164 7.7015
1746.008423 89.164 8.0430
1758.660645 89.164 8.4005
1771.404663 89.164 8.7749
1784.240967 89.165 9.1693
1797.170288 89.166 9.5870
1810.193359 89.169 10.0292
1823.310791 89.174 10.4988
1836.523193 89.181 10.9940
1849.831421 89.192 11.5149
1863.236084 89.207 12.0585
1876.737793 89.227 12.6245
1890.337524 89.253 13.2054
1904.035645 89.287 13.7945
1917.833008 89.326 14.3896
1931.730469 89.367 14.9851
1945.728638 89.413 15.5854
1959.828125 89.462 16.1938
1974.029907 89.516 16.8084
1988.334473 89.575 17.4268
2002.742798 89.639 18.0535
2017.255493 89.704 18.6907
2031.873291 89.774 19.3424
2046.597168 89.851 20.0164
2061.427734 89.937 20.7029
2076.365479 90.032 21.3979
2091.411865 90.139 22.0921
2106.566895 90.255 22.7787
2121.832031 90.383 23.4473
2137.207764 90.524 24.0895
2152.694824 90.675 24.6927
2168.294189 90.838 25.2422
2184.006592 91.008 25.7349
2199.832764 91.183 26.1632
2215.773682 91.363 26.5257
2231.830078 91.549 26.8169
2248.002686 91.735 27.0412
2264.292725 91.919 27.1962
2280.700684 92.101 27.2967
2297.227539 92.279 27.3558
2313.874268 92.455 27.3760
2330.641602 92.632 27.3637
2347.530273 92.808 27.3202
2364.541504 92.983 27.2460
2381.676025 93.156 27.1495
2398.934570 93.327 27.0410
2416.318359 93.499 26.9156
2433.827881 93.677 26.7732
2451.464355 93.858 26.6087
2469.228760 94.039 26.4165
2487.121826 94.223 26.1990
2505.144531 94.411 25.9606
2523.297852 94.604 25.6903
2541.582764 94.805 25.3809
2560.000000 95.010 25.0247
2578.550781 95.219 24.6140
2597.236084 95.432 24.1413
2616.056641 95.651 23.6003
2635.013672 95.873 22.9798
2654.108154 96.097 22.2668
2673.340820 96.320 21.4607
2692.713135 96.539 20.5547
2712.225586 96.752 19.5549
2731.879395 96.958 18.4632
2751.675781 97.154 17.2856
2771.615479 97.340 16.0245
2791.699707 97.514 14.6930
2811.929688 97.673 13.3011
2832.305908 97.818 11.8618
2852.830078 97.950 10.3887
2873.502930 98.069 8.8906
2894.325439 98.173 7.3788
2915.298828 98.265 5.8599
2936.424316 98.344 4.3425
2957.702881 98.413 2.8316
2979.135742 98.470 1.3330
3000.723633 98.517 -0.1476
3022.468262 98.554 -1.6030
3044.370117 98.582 -3.0315
3066.430908 98.603 -4.4307
3088.651611 98.616 -5.7969
3111.033203 98.622 -7.1265
3133.577148 98.622 -8.4170
3156.284180 98.617 -9.6646
3179.156006 98.609 -10.8694
3202.193359 98.598 -12.0299
3225.397949 98.585 -13.1458
3248.770508 98.570 -14.2151
3272.312500 98.556 -15.2405
3296.024902 98.545 -16.2210
3319.909180 98.538 -17.1657
3343.966797 98.537 -18.0791
3368.198486 98.542 -18.9738
3392.605713 98.556 -19.8578
3417.189941 98.579 -20.7488
3441.952393 98.612 -21.6627
3466.894287 98.654 -22.6136
3492.016846 98.702 -23.6173
3517.321289 98.756 -24.6849
3542.809326 98.814 -25.8309
3568.481934 98.874 -27.0611
3594.340576 98.932 -28.3869
3620.386719 98.985 -29.8060
3646.621582 99.030 -31.3225
3673.046387 99.064 -32.9282
3699.662842 99.085 -34.6216
3726.472168 99.091 -36.3867
3753.475586 99.077 -38.2144
3780.675049 99.042 -40.0816
3808.071289 98.984 -41.9690
3835.666016 98.903 -43.8551
3863.460938 98.799 -45.7206
3891.457275 98.671 -47.5385
3919.656250 98.516 -49.2825
3948.059814 98.341 -50.9306
3976.668945 98.147 -52.4536
4005.485596 97.937 -53.8465
4034.510986 97.715 -55.0956
4063.746582 97.485 -56.1981
4093.194336 97.248 -57.1433
4122.855469 97.011 -57.9424
4152.730957 96.779 -58.5970
4182.823730 96.554 -59.1258
4213.133789 96.339 -59.5423
4243.664062 96.135 -59.8647
4274.415527 95.944 -60.1097
4305.389648 95.766 -60.2952
4336.588379 95.603 -60.4429
4368.013184 95.451 -60.5575
4399.665527 95.306 -60.6535
4431.547363 95.169 -60.7227
4463.660156 95.037 -60.7649
4496.005371 94.910 -60.7711
4528.585449 94.786 -60.7334
4561.401367 94.670 -60.6485
4594.455078 94.561 -60.5097
4627.748535 94.463 -60.3200
4661.283203 94.377 -60.0747
4695.060547 94.307 -59.7915
4729.083008 94.259 -59.4760
4763.352051 94.233 -59.1605
4797.869141 94.233 -58.8699
4832.636719 94.256 -58.6310
4867.655762 94.301 -58.4728
4902.928711 94.366 -58.4140
4938.457520 94.447 -58.4785
4974.243652 94.542 -58.6797
5010.289062 94.645 -59.0384
5046.595703 94.753 -59.5560
5083.165527 94.861 -60.2434
5120.000000 94.966 -61.0935
5157.101562 95.062 -62.1065
5194.472168 95.147 -63.2700
5232.113281 95.217 -64.5738
5270.027344 95.271 -66.0105
5308.216309 95.309 -67.5745
5346.681641 95.326 -69.2496
5385.426270 95.316 -71.0254
5424.451172 95.279 -72.8778
5463.758789 95.214 -74.7877
5503.351562 95.119 -76.7295
5543.230957 94.991 -78.6842
5583.399414 94.828 -80.6127
5623.859375 94.627 -82.4829
5664.611816 94.390 -84.2546
5705.660156 94.118 -85.8877
5747.005859 93.813 -87.3500
5788.650879 93.477 -88.6046
5830.597656 93.114 -89.6244
5872.848633 92.726 -90.3758
5915.405762 92.321 -90.8414
5958.271484 91.906 -90.9959
6001.447266 91.485 -90.8297
6044.936523 91.064 -90.3211
6088.740234 90.654 -89.4811
6132.861816 90.266 -88.3003
6177.303223 89.910 -86.8182
6222.066406 89.597 -85.0505
6267.154297 89.339 -83.0585
6312.568359 89.147 -80.8792
6358.312012 89.028 -78.6006
6404.386719 88.995 -76.2923
6450.795898 89.041 -74.0463
6497.541016 89.168 -71.9568
6544.625000 89.361 -70.0867
6592.049805 89.610 -68.5204
6639.818359 89.900 -67.2874
6687.933594 90.219 -66.4468
6736.396973 90.552 -65.9943
6785.211426 90.883 -65.9584
6834.379883 91.203 -66.2993
6883.904785 91.499 -67.0036
6933.788574 91.769 -68.0200
6984.033691 92.005 -69.3090
7034.642578 92.206 -70.8219
7085.618652 92.369 -72.5137
7136.963867 92.492 -74.3346
7188.681152 92.576 -76.2330
7240.773438 92.622 -78.1702
7293.243164 92.633 -80.0976
7346.092773 92.614 -81.9936
7399.325684 92.568 -83.8209
7452.944336 92.500 -85.5784
7506.951172 92.418 -87.2468
7561.350098 92.324 -88.8439
7616.142578 92.223 -90.3736
7671.332031 92.118 -91.8594
7726.921875 92.012 -93.3192
7782.914551 91.904 -94.7745
7839.312500 91.794 -96.2505
7896.119629 91.678 -97.7559
7953.337891 91.553 -99.3110
8010.971191 91.415 -100.9055
8069.021973 91.258 -102.5415
8127.493164 91.081 -104.2012
8186.388672 90.880 -105.8756
8245.710938 90.652 -107.5393
8305.461914 90.395 -109.1724
8365.647461 90.108 -110.7489
8426.267578 89.790 -112.2506
8487.328125 89.438 -113.6331
8548.831055 89.048 -114.8681
8610.779297 88.619 -115.8873
8673.176758 88.150 -116.6395
8736.026367 87.643 -117.0449
8799.331055 87.095 -117.0314
8863.094727 86.518 -116.5231
8927.320312 85.911 -115.4191
8992.010742 85.303 -113.7216
9057.170898 84.713 -111.3792
9122.802734 84.168 -108.4530
9188.910156 83.686 -104.9333
9255.497070 83.316 -100.9823
9322.566406 83.110 -96.6792
9390.121094 83.070 -92.2663
9458.166016 83.225 -87.9641
9526.704102 83.537 -83.9214
9595.738281 83.986 -80.3123
9665.273438 84.547 -77.2782
9735.311523 85.207 -74.9911
9805.857422 85.914 -73.5335
9876.915039 86.620 -73.0774
9948.487305 87.294 -73.5252
10020.578125 87.894 -74.8719
10093.191406 88.416 -77.0064
10166.331055 88.853 -79.8628
10240.000000 89.189 -83.2995
10314.203125 89.407 -87.2380
10388.944336 89.499 -91.4229
10464.226562 89.444 -95.6540
10540.054688 89.256 -99.6841
10616.432617 88.931 -103.2536
10693.363281 88.492 -106.1977
10770.852539 87.946 -108.2744
10848.902344 87.326 -109.4601
10927.517578 86.646 -109.6155
11006.703125 85.959 -108.8525
11086.461914 85.300 -107.1609
11166.798828 84.729 -104.7709
11247.718750 84.317 -101.8180
11329.223633 84.065 -98.5790
11411.320312 84.013 -95.3207
11494.011719 84.116 -92.2121
11577.301758 84.357 -89.4923
11661.195312 84.696 -87.2162
11745.697266 85.095 -85.5240
11830.811523 85.526 -84.3955
11916.542969 85.953 -83.8898
12002.894531 86.364 -83.9076
12089.873047 86.733 -84.4011
12177.480469 87.062 -85.2721
12265.723633 87.347 -86.4337
12354.606445 87.587 -87.8042
12444.132812 87.776 -89.2970
12534.308594 87.923 -90.8396
12625.136719 88.032 -92.3420
12716.624023 88.115 -93.7707
12808.773438 88.177 -95.0564
12901.591797 88.237 -96.2188
12995.082031 88.312 -97.2266
13089.250000 88.412 -98.1644
13184.099609 88.555 -99.0701
13279.636719 88.737 -100.0546
13375.867188 88.966 -101.2165
13472.793945 89.221 -102.6311
13570.422852 89.492 -104.4023
13668.759766 89.757 -106.5431
13767.809570 90.003 -109.1221
13867.577148 90.209 -112.0758
13968.067383 90.356 -115.4101
14069.285156 90.434 -118.9832
14171.237305 90.425 -122.7073
14273.927734 90.336 -126.4236
14377.362305 90.159 -129.9717
14481.546875 89.914 -133.2678
14586.486328 89.611 -136.1714
14692.185547 89.270 -138.6935
14798.651367 88.906 -140.7739
14905.888672 88.542 -142.4841
15013.902344 88.200 -143.8391
15122.700195 87.894 -144.9512
15232.285156 87.645 -145.8984
15342.664062 87.450 -146.7994
15453.843750 87.321 -147.7760
15565.829102 87.237 -148.8984
15678.625000 87.189 -150.2736
15792.239258 87.159 -151.9123
15906.675781 87.133 -153.8687
16021.942383 87.098 -156.1180
16138.043945 87.039 -158.6741
16254.986328 86.946 -161.4751
16372.777344 86.805 -164.4859
16491.421875 86.614 -167.6392
16610.923828 86.370 -170.8849
16731.294922 86.065 -174.1353
16852.535156 85.689 -177.3093
16974.656250 85.251 179.6638
17097.662109 84.758 176.8751
17221.558594 84.212 174.3465
17346.353516 83.622 172.1075
17472.052734 82.984 170.2252
17598.662109 82.292 168.7778
17726.189453 81.572 167.7626
17854.640625 80.851 167.2206
17984.021484 80.128 167.0966
18114.341797 79.413 167.3424
18245.605469 78.704 167.9743
18377.820312 77.991 169.0168
18510.994141 77.313 170.3991
18645.132812 76.712 172.0908
18780.242188 76.171 173.9933
18916.332031 75.682 176.0089
19053.408203 75.250 178.1030
19191.476562 74.882 -179.7738
19330.546875 74.573 -177.6732
19470.623047 74.323 -175.6554
19611.714844 74.119 -173.7455
19753.830078 73.948 -171.9902
19896.974609 73.806 -170.3843
