* Measurement data measured by REW V5.20.13
* Source: C:\Users\kurin\Desktop\Targets and Curves\Resolve\Img\Lecram\DT990 Pro 250 Ohm_SPL.txt
* Format: Comma/Tab/Space delimited data
* Dated: Aug 15, 2023 3:31:21 PM
* REW Settings:
*  C-weighting compensation: Off
*  Target level: 75.0 dB
* Note: ; Measurement imported from C:\Users\kurin\Desktop\Targets and Curves\Resolve\Img\Lecram\DT990 Pro 250 Ohm_SPL.txt Format: Comma/Tab/Space delimited data 623 values loaded, 5 Hz to 39,792 Hz log spaced 
* Measurement: DT990 Pro 250 Ohm_SPL
* Smoothing: 1/48 octave
* Frequency Step: 1/96 octave
* Start Frequency: 5.000 Hz
*
* Freq(Hz) SPL(dB) Phase(degrees)
5.000000 76.609 60.3870
5.036232 76.629 60.3740
5.072727 76.650 60.3600
5.109486 76.675 60.3437
5.146511 76.704 60.3250
5.183805 76.739 60.3027
5.221369 76.777 60.2790
5.259205 76.815 60.2563
5.297316 76.856 60.2330
5.335702 76.900 60.2082
5.374367 76.945 60.1830
5.413311 76.989 60.1584
5.452538 77.033 60.1340
5.492050 77.077 60.1096
5.531847 77.122 60.0850
5.571934 77.166 60.0601
5.612310 77.210 60.0350
5.652979 77.254 60.0101
5.693943 77.298 59.9850
5.735204 77.342 59.9596
5.776763 77.387 59.9340
5.818624 77.431 59.9081
5.860788 77.475 59.8820
5.903258 77.519 59.8556
5.946035 77.563 59.8290
5.989123 77.607 59.8026
6.032523 77.652 59.7760
6.076237 77.696 59.7491
6.120268 77.740 59.7220
6.164618 77.784 59.6951
6.209289 77.828 59.6680
6.254284 77.872 59.6406
6.299605 77.917 59.6130
6.345255 77.961 59.5851
6.391235 78.005 59.5570
6.437549 78.049 59.5286
6.484198 78.093 59.5000
6.531185 78.137 59.4711
6.578513 78.182 59.4420
6.626183 78.226 59.4131
6.674199 78.270 59.3840
6.722563 78.314 59.3546
6.771278 78.358 59.3250
6.820345 78.402 59.2951
6.869768 78.447 59.2650
6.919549 78.491 59.2346
6.969691 78.535 59.2040
7.020196 78.579 59.1731
7.071068 78.624 59.1420
7.122308 78.668 59.1106
7.173919 78.712 59.0790
7.225904 78.756 59.0476
7.278266 78.800 59.0160
7.331007 78.844 58.9836
7.384131 78.889 58.9510
7.437639 78.933 58.9186
7.491535 78.977 58.8860
7.545822 79.021 58.8526
7.600502 79.065 58.8190
7.655579 79.109 58.7856
7.711054 79.154 58.7520
7.766932 79.198 58.7181
7.823214 79.242 58.6840
7.879904 79.286 58.6497
7.937005 79.330 58.6150
7.994520 79.374 58.5796
8.052452 79.419 58.5440
8.110803 79.463 58.5086
8.169578 79.507 58.4730
8.228777 79.551 58.4372
8.288406 79.595 58.4010
8.348468 79.639 58.3641
8.408964 79.684 58.3270
8.469899 79.728 58.2901
8.531276 79.772 58.2530
8.593097 79.816 58.2152
8.655366 79.860 58.1770
8.718086 79.904 58.1386
8.781260 79.949 58.1000
8.844893 79.993 58.0611
8.908987 80.037 58.0220
8.973545 80.081 57.9826
9.038571 80.126 57.9430
9.104069 80.170 57.9032
9.170040 80.214 57.8630
9.236490 80.258 57.8222
9.303422 80.302 57.7810
9.370838 80.346 57.7396
9.438744 80.391 57.6980
9.507140 80.435 57.6561
9.576033 80.479 57.6140
9.645425 80.523 57.5717
9.715320 80.567 57.5290
9.785721 80.611 57.4857
9.856632 80.656 57.4420
9.928058 80.700 57.3981
10.000000 80.744 57.3540
10.072464 80.788 57.3097
10.145453 80.832 57.2650
10.218971 80.876 57.2197
10.293022 80.921 57.1740
10.367610 80.965 57.1281
10.442738 81.009 57.0820
10.518411 81.053 57.0357
10.594631 81.097 56.9890
10.671404 81.141 56.9418
10.748734 81.186 56.8940
10.826623 81.230 56.8457
10.905077 81.274 56.7970
10.984100 81.318 56.7482
11.063695 81.362 56.6990
11.143867 81.406 56.6497
11.224621 81.451 56.6000
11.305959 81.495 56.5498
11.387886 81.539 56.4990
11.470407 81.583 56.4478
11.553527 81.628 56.3960
11.637249 81.672 56.3437
11.721577 81.716 56.2910
11.806517 81.760 56.2382
11.892071 81.804 56.1851
11.978246 81.848 56.1312
12.065045 81.893 56.0770
12.152473 81.937 56.0228
12.240536 81.981 55.9680
12.329235 82.025 55.9123
12.418578 82.069 55.8560
12.508568 82.113 55.7997
12.599211 82.158 55.7430
12.690510 82.202 55.6858
12.782471 82.246 55.6281
12.875097 82.290 55.5698
12.968395 82.334 55.5110
13.062370 82.378 55.4518
13.157025 82.423 55.3920
13.252366 82.467 55.3318
13.348398 82.511 55.2710
13.445127 82.555 55.2093
13.542556 82.599 55.1471
13.640691 82.643 55.0847
13.739536 82.688 55.0220
13.839099 82.732 54.9589
13.939383 82.776 54.8951
14.040393 82.820 54.8304
14.142136 82.864 54.7650
14.244616 82.908 54.6993
14.347837 82.953 54.6330
14.451808 82.997 54.5658
14.556532 83.041 54.4980
14.662014 83.085 54.4299
14.768262 83.130 54.3611
14.875278 83.174 54.2915
14.983070 83.218 54.2211
15.091644 83.262 54.1499
15.201005 83.306 54.0781
15.311157 83.350 54.0054
15.422109 83.395 53.9321
15.533863 83.439 53.8579
15.646428 83.483 53.7830
15.759809 83.527 53.7079
15.874010 83.571 53.6321
15.989040 83.615 53.5551
16.104904 83.660 53.4771
16.221605 83.704 53.3980
16.339155 83.748 53.3181
16.457554 83.792 53.2375
16.576813 83.836 53.1561
16.696936 83.880 53.0736
16.817928 83.925 52.9901
16.939798 83.969 52.9056
17.062551 84.013 52.8201
17.186193 84.057 52.7337
17.310732 84.101 52.6461
17.436172 84.145 52.5567
17.562521 84.190 52.4661
17.689787 84.234 52.3743
17.817974 84.278 52.2811
17.947090 84.322 52.1865
18.077143 84.366 52.0901
18.208138 84.410 51.9916
18.340080 84.455 51.8911
18.472980 84.499 51.7883
18.606844 84.543 51.6831
18.741676 84.587 51.5755
18.877487 84.631 51.4641
19.014280 84.676 51.3478
19.152065 84.720 51.2262
19.290850 84.763 51.0981
19.430639 84.806 50.9641
19.571442 84.848 50.8232
19.713264 84.888 50.6782
19.856115 84.926 50.5296
20.000000 84.961 50.3831
20.144928 84.993 50.2439
20.290907 85.024 50.1141
20.437943 85.053 49.9969
20.586044 85.081 49.8941
20.735220 85.108 49.8091
20.885475 85.136 49.7401
21.036821 85.166 49.6876
21.189262 85.197 49.6470
21.342808 85.231 49.6157
21.497467 85.267 49.5890
21.653246 85.306 49.5620
21.810154 85.347 49.5330
21.968201 85.389 49.4987
22.127390 85.433 49.4590
22.287735 85.477 49.4124
22.449242 85.522 49.3610
22.611917 85.567 49.3065
22.775772 85.612 49.2491
22.940815 85.658 49.1895
23.107054 85.704 49.1281
23.274498 85.750 49.0667
23.443153 85.798 49.0021
23.613033 85.848 48.9326
23.784142 85.899 48.8551
23.956491 85.951 48.7657
24.130091 86.004 48.6641
24.304947 86.057 48.5478
24.481071 86.109 48.4192
24.658470 86.159 48.2789
24.837156 86.208 48.1292
25.017136 86.256 47.9712
25.198421 86.301 47.8092
25.381020 86.343 47.6460
25.564941 86.383 47.4871
25.750195 86.421 47.3393
25.936790 86.458 47.2012
26.124741 86.496 47.0746
26.314051 86.535 46.9562
26.504732 86.575 46.8435
26.696796 86.616 46.7351
26.890253 86.658 46.6304
27.085112 86.702 46.5241
27.281382 86.749 46.4115
27.479073 86.798 46.2902
27.678198 86.846 46.1557
27.878765 86.894 46.0102
28.080786 86.942 45.8547
28.284271 86.990 45.6882
28.489231 87.037 45.5081
28.695675 87.082 45.3203
28.903616 87.123 45.1291
29.113064 87.163 44.9363
29.324028 87.203 44.7441
29.536524 87.241 44.5542
29.750557 87.277 44.3679
29.966141 87.311 44.1882
30.183289 87.344 44.0197
30.402010 87.377 43.8592
30.622314 87.412 43.7057
30.844217 87.448 43.5572
31.067726 87.483 43.4116
31.292856 87.519 43.2682
31.519617 87.557 43.1270
31.748020 87.597 42.9832
31.978081 87.638 42.8320
32.209808 87.679 42.6732
32.443211 87.720 42.5043
32.678310 87.761 42.3272
32.915108 87.801 42.1420
33.153625 87.839 41.9522
33.393871 87.875 41.7610
33.635857 87.909 41.5693
33.879597 87.944 41.3783
34.125103 87.977 41.1903
34.372387 88.008 41.0070
34.621464 88.038 40.8313
34.872345 88.068 40.6682
35.125042 88.098 40.5122
35.379574 88.131 40.3601
35.635948 88.165 40.2102
35.894180 88.199 40.0602
36.154285 88.234 39.9092
36.416275 88.271 39.7561
36.680161 88.308 39.5992
36.945961 88.345 39.4361
37.213688 88.382 39.2683
37.483353 88.419 39.0966
37.754974 88.456 38.9203
38.028561 88.494 38.7379
38.304131 88.531 38.5512
38.581699 88.566 38.3615
38.861279 88.601 38.1683
39.142883 88.637 37.9725
39.426529 88.673 37.7723
39.712231 88.708 37.5649
40.000000 88.742 37.3543
40.289856 88.774 37.1437
40.581814 88.805 36.9323
40.875885 88.837 36.7199
41.172089 88.867 36.5083
41.470440 88.894 36.2987
41.770950 88.921 36.0923
42.073643 88.949 35.8916
42.378525 88.977 35.6943
42.685616 89.004 35.4983
42.994934 89.030 35.3053
43.306492 89.056 35.1163
43.620308 89.082 34.9313
43.936401 89.109 34.7510
44.254780 89.136 34.5743
44.575470 89.163 34.4008
44.898483 89.190 34.2293
45.223835 89.218 34.0587
45.551544 89.247 33.8882
45.881630 89.276 33.7164
46.214108 89.306 33.5443
46.548996 89.336 33.3736
46.886307 89.366 33.2013
47.226067 89.398 33.0248
47.568283 89.431 32.8443
47.912983 89.463 32.6595
48.260181 89.496 32.4693
48.609894 89.530 32.2731
48.962143 89.565 32.0693
49.316940 89.598 31.8556
49.674313 89.631 31.6334
50.034271 89.664 31.4027
50.396843 89.696 31.1654
50.762039 89.726 30.9218
51.129883 89.754 30.6754
51.500389 89.780 30.4291
51.873581 89.805 30.1844
52.249481 89.829 29.9440
52.628101 89.852 29.7074
53.009464 89.875 29.4756
53.393593 89.898 29.2474
53.780506 89.920 29.0221
54.170223 89.942 28.7994
54.562763 89.964 28.5785
54.958145 89.987 28.3593
55.356396 90.009 28.1412
55.757530 90.031 27.9243
56.161572 90.054 27.7093
56.568542 90.077 27.4954
56.978462 90.100 27.2821
57.391350 90.123 27.0694
57.807232 90.147 26.8579
58.226128 90.171 26.6454
58.648056 90.196 26.4297
59.073048 90.222 26.2104
59.501114 90.248 25.9860
59.932281 90.274 25.7564
60.366577 90.301 25.5214
60.804020 90.328 25.2794
61.244629 90.355 25.0284
61.688435 90.381 24.7704
62.135452 90.406 24.5069
62.585712 90.430 24.2385
63.039234 90.454 23.9662
63.496040 90.477 23.6905
63.956161 90.499 23.4119
64.419617 90.521 23.1315
64.886421 90.542 22.8516
65.356621 90.563 22.5695
65.830215 90.584 22.2838
66.307251 90.606 21.9936
66.787743 90.627 21.6983
67.271713 90.648 21.3956
67.759193 90.671 21.0836
68.250206 90.694 20.7596
68.744774 90.715 20.4193
69.242928 90.735 20.0657
69.744690 90.753 19.6997
70.250084 90.769 19.3227
70.759148 90.783 18.9361
71.271896 90.794 18.5407
71.788361 90.803 18.1373
72.308571 90.809 17.7278
72.832550 90.812 17.3153
73.360321 90.813 16.8978
73.891922 90.812 16.4744
74.427376 90.808 16.0448
74.966705 90.801 15.6071
75.509949 90.789 15.1648
76.057121 90.772 14.7200
76.608261 90.750 14.2759
77.163399 90.723 13.8338
77.722557 90.690 13.4019
78.285767 90.649 12.9853
78.853058 90.601 12.5948
79.424461 90.546 12.2410
80.000000 90.485 11.9296
80.579712 90.420 11.6687
81.163628 90.352 11.4603
81.751770 90.282 11.3098
82.344177 90.211 11.2151
82.940880 90.141 11.1776
83.541901 90.074 11.1929
84.147285 90.011 11.2586
84.757050 89.952 11.3697
85.371231 89.898 11.5225
85.989868 89.849 11.7116
86.612984 89.807 11.9316
87.240616 89.771 12.1795
87.872803 89.741 12.4508
88.509560 89.717 12.7444
89.150940 89.700 13.0590
89.796967 89.690 13.3903
90.447670 89.689 13.7378
91.103088 89.697 14.0893
91.763260 89.716 14.4359
92.428215 89.746 14.7673
93.097992 89.785 15.0731
93.772614 89.833 15.3445
94.452133 89.888 15.5708
95.136566 89.950 15.7477
95.825966 90.016 15.8662
96.520363 90.084 15.9289
97.219788 90.151 15.9330
97.924286 90.217 15.8861
98.633881 90.281 15.7923
99.348625 90.341 15.6593
100.068542 90.396 15.4947
100.793686 90.447 15.3035
101.524078 90.495 15.0925
102.259766 90.539 14.8646
103.000778 90.580 14.6242
103.747162 90.617 14.3735
104.498962 90.651 14.1159
105.256203 90.682 13.8515
106.018929 90.711 13.5803
106.787186 90.738 13.3065
107.561012 90.760 13.0339
108.340446 90.779 12.7634
109.125526 90.798 12.4989
109.916290 90.815 12.2365
110.712791 90.831 11.9727
111.515060 90.846 11.7106
112.323143 90.858 11.4519
113.137085 90.868 11.1975
113.956924 90.878 10.9495
114.782700 90.888 10.7066
115.614464 90.896 10.4674
116.452255 90.902 10.2354
117.296112 90.907 10.0145
118.146095 90.912 9.8024
119.002228 90.919 9.5994
119.864563 90.926 9.4015
120.733154 90.934 9.2049
121.608040 90.943 9.0094
122.489258 90.953 8.8143
123.376869 90.963 8.6185
124.270905 90.974 8.4212
125.171425 90.987 8.2204
126.078468 91.001 8.0132
126.992081 91.015 7.8005
127.912323 91.028 7.5824
128.839233 91.041 7.3575
129.772842 91.057 7.1259
130.713242 91.073 6.8835
131.660431 91.090 6.6257
132.614502 91.106 6.3538
133.575485 91.121 6.0665
134.543427 91.134 5.7666
135.518387 91.145 5.4563
136.500412 91.155 5.1366
137.489548 91.163 4.8088
138.485855 91.169 4.4748
139.489380 91.172 4.1372
140.500168 91.174 3.7957
141.518295 91.175 3.4523
142.543793 91.174 3.1039
143.576721 91.173 2.7476
144.617142 91.169 2.3848
145.665100 91.162 2.0154
146.720642 91.153 1.6410
147.783844 91.142 1.2628
148.854752 91.127 0.8830
149.933411 91.108 0.5023
151.019897 91.086 0.1259
152.114243 91.060 -0.2408
153.216522 91.030 -0.5970
154.326797 90.998 -0.9401
155.445114 90.963 -1.2693
156.571533 90.926 -1.5841
157.706116 90.886 -1.8813
158.848923 90.844 -2.1569
160.000000 90.800 -2.4124
161.159424 90.756 -2.6479
162.327255 90.712 -2.8635
163.503540 90.666 -3.0600
164.688354 90.620 -3.2357
165.881760 90.575 -3.3878
167.083801 90.530 -3.5197
168.294571 90.487 -3.6331
169.514099 90.445 -3.7298
170.742462 90.405 -3.8113
171.979736 90.366 -3.8798
173.225967 90.331 -3.9357
174.481232 90.298 -3.9859
175.745605 90.269 -4.0369
177.019119 90.242 -4.0899
178.301880 90.216 -4.1488
179.593933 90.190 -4.2108
180.895340 90.165 -4.2737
182.206177 90.141 -4.3398
183.526520 90.118 -4.4118
184.856430 90.095 -4.4868
186.195984 90.070 -4.5643
187.545227 90.044 -4.6408
188.904266 90.019 -4.7118
190.273132 89.994 -4.7798
191.651932 89.969 -4.8453
193.040726 89.945 -4.9098
194.439575 89.921 -4.9752
195.848572 89.898 -5.0408
197.267761 89.875 -5.1068
198.697250 89.851 -5.1728
200.137085 89.828 -5.2386
201.587372 89.804 -5.3038
203.048157 89.780 -5.3679
204.519531 89.756 -5.4318
206.001556 89.733 -5.4963
207.494324 89.709 -5.5618
208.997925 89.685 -5.6302
210.512405 89.661 -5.6988
212.037857 89.636 -5.7657
213.574371 89.610 -5.8308
215.122025 89.584 -5.8932
216.680893 89.557 -5.9538
218.251053 89.531 -6.0147
219.832581 89.503 -6.0718
221.425583 89.473 -6.1215
223.030121 89.442 -6.1649
224.646286 89.413 -6.2009
226.274170 89.385 -6.2329
227.913849 89.357 -6.2654
229.565399 89.329 -6.2939
231.228928 89.298 -6.3158
232.904510 89.267 -6.3310
234.592224 89.238 -6.3376
236.292191 89.210 -6.3390
238.004456 89.181 -6.3385
239.729126 89.153 -6.3340
241.466309 89.125 -6.3235
243.216080 89.098 -6.3100
244.978516 89.072 -6.2954
246.753738 89.047 -6.2810
248.541809 89.022 -6.2689
250.342850 88.998 -6.2590
252.156937 88.974 -6.2531
253.984161 88.949 -6.2480
255.824646 88.923 -6.2414
257.678467 88.896 -6.2320
259.545685 88.870 -6.2174
261.426483 88.843 -6.1991
263.320862 88.816 -6.1779
265.229004 88.789 -6.1531
267.150970 88.762 -6.1230
269.086853 88.736 -6.0901
271.036774 88.711 -6.0555
273.000824 88.687 -6.0221
274.979095 88.663 -5.9935
276.971710 88.639 -5.9681
278.978760 88.615 -5.9459
281.000336 88.589 -5.9251
283.036591 88.562 -5.9049
285.087585 88.534 -5.8821
287.153442 88.504 -5.8525
289.234283 88.474 -5.8171
291.330200 88.444 -5.7755
293.441284 88.414 -5.7271
295.567688 88.383 -5.6710
297.709503 88.351 -5.6082
299.866821 88.321 -5.5380
302.039795 88.292 -5.4642
304.228485 88.264 -5.3913
306.433044 88.235 -5.3172
308.653595 88.205 -5.2420
310.890228 88.175 -5.1642
313.143066 88.145 -5.0821
315.412231 88.115 -4.9972
317.697845 88.085 -4.9114
320.000000 88.053 -4.8223
322.318848 88.020 -4.7289
324.654510 87.986 -4.6293
327.007080 87.951 -4.5213
329.376709 87.916 -4.4044
331.763519 87.880 -4.2782
334.167603 87.843 -4.1405
336.589142 87.805 -3.9895
339.028198 87.766 -3.8235
341.484924 87.727 -3.6397
343.959473 87.687 -3.4396
346.451935 87.649 -3.2239
348.962463 87.611 -2.9917
351.491211 87.573 -2.7430
354.038239 87.535 -2.4748
356.603760 87.498 -2.1846
359.187866 87.462 -1.8710
361.790680 87.427 -1.5332
364.412354 87.394 -1.1671
367.053040 87.362 -0.7679
369.712860 87.334 -0.3364
372.391968 87.312 0.1310
375.090454 87.297 0.6255
377.808533 87.292 1.1443
380.546265 87.297 1.6724
383.303864 87.315 2.2005
386.081451 87.345 2.7086
388.879150 87.388 3.1772
391.697144 87.442 3.5958
394.535522 87.502 3.9487
397.394501 87.568 4.2313
400.274170 87.638 4.4325
403.174744 87.709 4.5557
406.096313 87.775 4.5950
409.039062 87.835 4.5672
412.003113 87.885 4.4828
414.988647 87.927 4.3555
417.995850 87.961 4.1997
421.024811 87.986 4.0236
424.075714 88.002 3.8371
427.148743 88.010 3.6486
430.244049 88.009 3.4682
433.361786 88.002 3.3005
436.502106 87.990 3.1529
439.665161 87.972 3.0274
442.851166 87.950 2.9284
446.060242 87.924 2.8562
449.292572 87.897 2.8128
452.548340 87.868 2.7970
455.827698 87.838 2.8094
459.130798 87.807 2.8468
462.457855 87.778 2.9080
465.809021 87.750 2.9877
469.184448 87.724 3.0815
472.584381 87.700 3.1867
476.008911 87.676 3.2988
479.458252 87.653 3.4186
482.932617 87.630 3.5453
486.432159 87.608 3.6796
489.957031 87.586 3.8215
493.507477 87.564 3.9715
497.083618 87.541 4.1294
500.685699 87.519 4.2964
504.313873 87.498 4.4745
507.968323 87.478 4.6614
511.649292 87.458 4.8553
515.356934 87.439 5.0563
519.091370 87.421 5.2638
522.852966 87.404 5.4783
526.641724 87.387 5.7013
530.458008 87.372 5.9292
534.301941 87.359 6.1588
538.173706 87.347 6.3902
542.073547 87.335 6.6218
546.001648 87.323 6.8562
549.958191 87.311 7.0956
553.943420 87.300 7.3402
557.957520 87.289 7.5909
562.000671 87.278 7.8471
566.073181 87.268 8.1086
570.175171 87.259 8.3761
574.306885 87.251 8.6509
578.468567 87.243 8.9320
582.660400 87.237 9.2198
586.882568 87.232 9.5120
591.135376 87.229 9.8064
595.419006 87.228 10.1030
599.733643 87.227 10.4010
604.079590 87.227 10.7009
608.456970 87.228 11.0032
612.866089 87.231 11.3070
617.307190 87.235 11.6122
621.780457 87.241 11.9170
626.286133 87.248 12.2196
630.824463 87.256 12.5200
635.395691 87.264 12.8171
640.000000 87.273 13.1120
644.637695 87.282 13.4052
649.309021 87.292 13.6980
654.014160 87.301 13.9910
658.753418 87.311 14.2860
663.527039 87.321 14.5850
668.335205 87.331 14.8880
673.178284 87.342 15.1951
678.056396 87.354 15.5079
682.969849 87.366 15.8286
687.918945 87.379 16.1549
692.903870 87.395 16.4866
697.924927 87.413 16.8188
702.982422 87.434 17.1460
708.076477 87.457 17.4698
713.207520 87.478 17.7899
718.375732 87.501 18.1069
723.581360 87.526 18.4222
728.824707 87.552 18.7339
734.106079 87.578 19.0391
739.425720 87.604 19.3419
744.783936 87.629 19.6448
750.180908 87.654 19.9499
755.617065 87.679 20.2600
761.092529 87.705 20.5758
766.607727 87.731 20.8986
772.162903 87.758 21.2298
777.758301 87.786 21.5724
783.394287 87.817 21.9228
789.071045 87.851 22.2782
794.789001 87.887 22.6387
800.548340 87.924 23.0046
806.349487 87.965 23.3727
812.192627 88.010 23.7414
818.078125 88.060 24.1057
824.006226 88.113 24.4602
829.977295 88.169 24.8048
835.991699 88.227 25.1384
842.049622 88.288 25.4588
848.151428 88.352 25.7634
854.297485 88.419 26.0520
860.488098 88.486 26.3238
866.723572 88.556 26.5781
873.004211 88.627 26.8146
879.330322 88.701 27.0313
885.702332 88.775 27.2256
892.120483 88.851 27.3994
898.585144 88.925 27.5534
905.096680 89.000 27.6885
911.655396 89.075 27.8067
918.261597 89.151 27.9057
924.915710 89.227 27.9828
931.618042 89.302 28.0408
938.368896 89.375 28.0820
945.168762 89.448 28.1049
952.017822 89.522 28.1099
958.916504 89.595 28.0941
965.865234 89.666 28.0533
972.864319 89.734 27.9923
979.914062 89.798 27.9130
987.014954 89.860 27.8194
994.167236 89.918 27.7142
1001.371399 89.973 27.6034
1008.627747 90.021 27.4914
1015.936646 90.065 27.3854
1023.298584 90.106 27.2950
1030.713867 90.145 27.2182
1038.182739 90.183 27.1565
1045.705933 90.221 27.1092
1053.283447 90.258 27.0768
1060.916016 90.295 27.0571
1068.603882 90.335 27.0494
1076.347412 90.376 27.0490
1084.147095 90.419 27.0515
1092.003296 90.463 27.0550
1099.916382 90.509 27.0569
1107.886841 90.557 27.0550
1115.915039 90.607 27.0474
1124.001343 90.658 27.0311
1132.146362 90.710 27.0029
1140.350342 90.764 26.9622
1148.613770 90.817 26.9073
1156.937134 90.871 26.8383
1165.320801 90.924 26.7548
1173.765137 90.976 26.6565
1182.270752 91.027 26.5421
1190.838013 91.078 26.4145
1199.467285 91.126 26.2761
1208.159180 91.172 26.1266
1216.913940 91.216 25.9661
1225.732178 91.259 25.7966
1234.614380 91.298 25.6200
1243.560913 91.335 25.4377
1252.572266 91.369 25.2515
1261.648926 91.401 25.0628
1270.791382 91.429 24.8716
1280.000000 91.454 24.6827
1289.275391 91.474 24.4992
1298.618042 91.490 24.3257
1308.028320 91.503 24.1676
1317.506836 91.514 24.0256
1327.054077 91.522 23.9007
1336.670410 91.528 23.7964
1346.356567 91.531 23.7161
1356.112793 91.533 23.6612
1365.939697 91.535 23.6342
1375.837891 91.536 23.6349
1385.807739 91.537 23.6639
1395.849854 91.540 23.7207
1405.964844 91.545 23.8069
1416.152954 91.553 23.9175
1426.415039 91.564 24.0505
1436.751465 91.580 24.1994
1447.162720 91.601 24.3601
1457.649414 91.628 24.5233
1468.212158 91.660 24.6789
1478.851440 91.695 24.8255
1489.567871 91.732 24.9574
1500.361816 91.770 25.0776
1511.234131 91.808 25.1849
1522.185059 91.846 25.2856
1533.215454 91.882 25.3821
1544.325806 91.916 25.4845
1555.516602 91.947 25.6031
1566.788574 91.978 25.7394
1578.142090 92.012 25.9000
1589.578003 92.049 26.0802
1601.096680 92.089 26.2799
1612.698975 92.135 26.4911
1624.385254 92.188 26.7092
1636.156250 92.247 26.9241
1648.012451 92.312 27.1255
1659.954590 92.382 27.3094
1671.983398 92.456 27.4681
1684.099243 92.533 27.6025
1696.302856 92.611 27.7095
1708.594971 92.691 27.7937
1720.976196 92.769 27.8589
1733.447144 92.849 27.9048
1746.008423 92.931 27.9320
1758.660645 93.014 27.9410
1771.404663 93.094 27.9306
1784.240967 93.175 27.9061
1797.170288 93.255 27.8742
1810.193359 93.336 27.8292
1823.310791 93.418 27.7670
1836.523193 93.501 27.6893
1849.831421 93.581 27.5952
1863.236084 93.661 27.4895
1876.737793 93.740 27.3782
1890.337524 93.819 27.2566
1904.035645 93.899 27.1207
1917.833008 93.979 26.9736
1931.730469 94.056 26.8169
1945.728638 94.133 26.6507
1959.828125 94.210 26.4761
1974.029907 94.286 26.2928
1988.334473 94.360 26.1000
2002.742798 94.433 25.9008
2017.255493 94.505 25.6976
2031.873291 94.576 25.4918
2046.597168 94.645 25.2854
2061.427734 94.714 25.0789
2076.365479 94.782 24.8736
2091.411865 94.850 24.6698
2106.566895 94.917 24.4681
2121.832031 94.984 24.2688
2137.207764 95.051 24.0722
2152.694824 95.118 23.8798
2168.294189 95.184 23.6922
2184.006592 95.251 23.5118
2199.832764 95.319 23.3411
2215.773682 95.388 23.1806
2231.830078 95.458 23.0333
2248.002686 95.532 22.8946
2264.292725 95.611 22.7641
2280.700684 95.696 22.6326
2297.227539 95.787 22.4934
2313.874268 95.884 22.3377
2330.641602 95.987 22.1582
2347.530273 96.097 21.9440
2364.541504 96.210 21.6825
2381.676025 96.326 21.3715
2398.934570 96.443 21.0026
2416.318359 96.557 20.5820
2433.827881 96.668 20.1102
2451.464355 96.775 19.5962
2469.228760 96.874 19.0446
2487.121826 96.967 18.4695
2505.144531 97.050 17.8839
2523.297852 97.128 17.2957
2541.582764 97.201 16.7168
2560.000000 97.271 16.1475
2578.550781 97.338 15.5926
2597.236084 97.404 15.0505
2616.056641 97.469 14.5234
2635.013672 97.536 14.0042
2654.108154 97.606 13.4879
2673.340820 97.677 12.9693
2692.713135 97.748 12.4410
2712.225586 97.820 11.9035
2731.879395 97.891 11.3549
2751.675781 97.963 10.7956
2771.615479 98.034 10.2236
2791.699707 98.104 9.6446
2811.929688 98.170 9.0627
2832.305908 98.235 8.4807
2852.830078 98.301 7.9045
2873.502930 98.368 7.3285
2894.325439 98.437 6.7503
2915.298828 98.509 6.1667
2936.424316 98.582 5.5757
2957.702881 98.658 4.9707
2979.135742 98.738 4.3465
3000.723633 98.821 3.6959
3022.468262 98.906 3.0107
3044.370117 98.992 2.2884
3066.430908 99.077 1.5231
3088.651611 99.161 0.7167
3111.033203 99.241 -0.1329
3133.577148 99.318 -1.0197
3156.284180 99.389 -1.9413
3179.156006 99.455 -2.8894
3202.193359 99.514 -3.8572
3225.397949 99.567 -4.8383
3248.770508 99.614 -5.8251
3272.312500 99.656 -6.8146
3296.024902 99.694 -7.8005
3319.909180 99.729 -8.7854
3343.966797 99.763 -9.7680
3368.198486 99.796 -10.7543
3392.605713 99.828 -11.7482
3417.189941 99.859 -12.7553
3441.952393 99.890 -13.7803
3466.894287 99.920 -14.8292
3492.016846 99.948 -15.9094
3517.321289 99.973 -17.0218
3542.809326 99.994 -18.1694
3568.481934 100.010 -19.3524
3594.340576 100.021 -20.5727
3620.386719 100.024 -21.8289
3646.621582 100.019 -23.1226
3673.046387 100.003 -24.4466
3699.662842 99.975 -25.7967
3726.472168 99.935 -27.1656
3753.475586 99.882 -28.5494
3780.675049 99.813 -29.9348
3808.071289 99.727 -31.3122
3835.666016 99.624 -32.6666
3863.460938 99.503 -33.9853
3891.457275 99.365 -35.2521
3919.656250 99.207 -36.4540
3948.059814 99.031 -37.5691
3976.668945 98.836 -38.5777
4005.485596 98.624 -39.4600
4034.510986 98.396 -40.1978
4063.746582 98.153 -40.7667
4093.194336 97.896 -41.1413
4122.855469 97.631 -41.3067
4152.730957 97.363 -41.2391
4182.823730 97.097 -40.9410
4213.133789 96.839 -40.4028
4243.664062 96.596 -39.6382
4274.415527 96.375 -38.6452
4305.389648 96.185 -37.4612
4336.588379 96.035 -36.1064
4368.013184 95.928 -34.6312
4399.665527 95.870 -33.0778
4431.547363 95.859 -31.4928
4463.660156 95.898 -29.9236
4496.005371 95.982 -28.4104
4528.585449 96.109 -27.0014
4561.401367 96.271 -25.7188
4594.455078 96.463 -24.5992
4627.748535 96.678 -23.6472
4661.283203 96.910 -22.8823
4695.060547 97.154 -22.2954
4729.083008 97.402 -21.8907
4763.352051 97.654 -21.6478
4797.869141 97.904 -21.5521
4832.636719 98.154 -21.5905
4867.655762 98.404 -21.7461
4902.928711 98.654 -22.0164
4938.457520 98.905 -22.3937
4974.243652 99.156 -22.8774
5010.289062 99.407 -23.4632
5046.595703 99.659 -24.1553
5083.165527 99.911 -24.9527
5120.000000 100.164 -25.8672
5157.101562 100.417 -26.9075
5194.472168 100.668 -28.0819
5232.113281 100.914 -29.4037
5270.027344 101.151 -30.8663
5308.216309 101.374 -32.4713
5346.681641 101.582 -34.2072
5385.426270 101.773 -36.0681
5424.451172 101.945 -38.0381
5463.758789 102.094 -40.1077
5503.351562 102.218 -42.2514
5543.230957 102.317 -44.4472
5583.399414 102.391 -46.6741
5623.859375 102.441 -48.9092
5664.611816 102.468 -51.1362
5705.660156 102.472 -53.3349
5747.005859 102.454 -55.4930
5788.650879 102.417 -57.5931
5830.597656 102.363 -59.6277
5872.848633 102.294 -61.5848
5915.405762 102.211 -63.4606
5958.271484 102.117 -65.2477
6001.447266 102.013 -66.9445
6044.936523 101.900 -68.5457
6088.740234 101.783 -70.0546
6132.861816 101.663 -71.4686
6177.303223 101.543 -72.8005
6222.066406 101.424 -74.0594
6267.154297 101.308 -75.2542
6312.568359 101.192 -76.3960
6358.312012 101.079 -77.4866
6404.386719 100.966 -78.5312
6450.795898 100.854 -79.5300
6497.541016 100.742 -80.4891
6544.625000 100.629 -81.3966
6592.049805 100.511 -82.2462
6639.818359 100.392 -83.0262
6687.933594 100.272 -83.7239
6736.396973 100.155 -84.3351
6785.211426 100.039 -84.8520
6834.379883 99.930 -85.2721
6883.904785 99.830 -85.5863
6933.788574 99.743 -85.8061
6984.033691 99.675 -85.9329
7034.642578 99.629 -85.9879
7085.618652 99.609 -85.9824
7136.963867 99.619 -85.9482
7188.681152 99.662 -85.9074
7240.773438 99.741 -85.8999
7293.243164 99.856 -85.9574
7346.092773 100.007 -86.1268
7399.325684 100.196 -86.4500
7452.944336 100.416 -86.9738
7506.951172 100.662 -87.7499
7561.350098 100.925 -88.8058
7616.142578 101.195 -90.1850
7671.332031 101.463 -91.8903
7726.921875 101.717 -93.9472
7782.914551 101.949 -96.3299
7839.312500 102.146 -99.0372
7896.119629 102.304 -102.0235
7953.337891 102.416 -105.2642
8010.971191 102.475 -108.6945
8069.021973 102.472 -112.2685
8127.493164 102.408 -115.9047
8186.388672 102.276 -119.5318
8245.710938 102.080 -123.0727
8305.461914 101.822 -126.4546
8365.647461 101.502 -129.5942
8426.267578 101.116 -132.4081
8487.328125 100.676 -134.8215
8548.831055 100.188 -136.7392
8610.779297 99.668 -138.1371
8673.176758 99.128 -138.9442
8736.026367 98.594 -139.2070
8799.331055 98.085 -138.9086
8863.094727 97.629 -138.1699
8927.320312 97.257 -137.0550
8992.010742 96.977 -135.7204
9057.170898 96.815 -134.2986
9122.802734 96.755 -132.9269
9188.910156 96.802 -131.7607
9255.497070 96.927 -130.8778
9322.566406 97.111 -130.4098
9390.121094 97.327 -130.3502
9458.166016 97.547 -130.7586
9526.704102 97.760 -131.5658
9595.738281 97.945 -132.7495
9665.273438 98.100 -134.2255
9735.311523 98.215 -135.9240
9805.857422 98.294 -137.7776
9876.915039 98.333 -139.7079
9948.487305 98.341 -141.6783
10020.578125 98.322 -143.6296
10093.191406 98.280 -145.5527
10166.331055 98.222 -147.4167
10240.000000 98.151 -149.2286
10314.203125 98.073 -150.9794
10388.944336 97.991 -152.6870
10464.226562 97.911 -154.3594
10540.054688 97.830 -156.0171
10616.432617 97.752 -157.6800
10693.363281 97.673 -159.3579
10770.852539 97.595 -161.0677
10848.902344 97.514 -162.8105
10927.517578 97.429 -164.5963
11006.703125 97.336 -166.4151
11086.461914 97.232 -168.2648
11166.798828 97.117 -170.1306
11247.718750 96.989 -172.0011
11329.223633 96.850 -173.8644
11411.320312 96.699 -175.7051
11494.011719 96.539 -177.5222
11577.301758 96.372 -179.3064
11661.195312 96.200 178.9317
11745.697266 96.024 177.1888
11830.811523 95.845 175.4524
11916.542969 95.663 173.7112
12002.894531 95.475 171.9588
12089.873047 95.281 170.1808
12177.480469 95.075 168.3902
12265.723633 94.854 166.5819
12354.606445 94.612 164.7956
12444.132812 94.345 163.0503
12534.308594 94.051 161.4036
12625.136719 93.727 159.8981
12716.624023 93.376 158.5982
12808.773438 92.994 157.5698
12901.591797 92.595 156.8511
12995.082031 92.186 156.5108
13089.250000 91.787 156.5250
13184.099609 91.414 156.9214
13279.636719 91.089 157.6118
13375.867188 90.832 158.5590
13472.793945 90.656 159.6367
13570.422852 90.580 160.7490
13668.759766 90.596 161.7665
13767.809570 90.709 162.5587
13867.577148 90.897 163.0314
13968.067383 91.146 163.0541
14069.285156 91.429 162.6050
14171.237305 91.722 161.6023
14273.927734 92.007 160.0963
14377.362305 92.260 158.0827
14481.546875 92.477 155.6456
14586.486328 92.642 152.8375
14692.185547 92.756 149.7506
14798.651367 92.809 146.4701
14905.888672 92.808 143.0720
15013.902344 92.754 139.6508
15122.700195 92.657 136.2363
15232.285156 92.523 132.8953
15342.664062 92.361 129.6098
15453.843750 92.182 126.3990
15565.829102 91.990 123.2162
15678.625000 91.795 120.0399
15792.239258 91.594 116.8127
15906.675781 91.392 113.4760
16021.942383 91.178 110.0121
16138.043945 90.945 106.3730
16254.986328 90.683 102.5924
16372.777344 90.381 98.6544
16491.421875 90.026 94.6612
16610.923828 89.602 90.6667
16731.294922 89.108 86.8018
16852.535156 88.534 83.1947
16974.656250 87.891 79.9108
17097.662109 87.186 77.0491
17221.558594 86.424 74.6372
17346.353516 85.603 72.7348
17472.052734 84.747 71.3429
17598.662109 83.873 70.5072
17726.189453 83.006 70.1518
17854.640625 82.178 70.2410
17984.021484 81.386 70.6966
18114.341797 80.639 71.4475
18245.605469 79.942 72.4359
18377.820312 79.306 73.5998
18510.994141 78.727 74.8813
18645.132812 78.206 76.2140
18780.242188 77.738 77.5617
18916.332031 77.320 78.8738
19053.408203 76.946 80.1281
19191.476562 76.613 81.2867
19330.546875 76.312 82.3465
19470.623047 76.031 83.2859
19611.714844 75.766 84.1245
19753.830078 75.510 84.8716
19896.974609 75.262 85.5372
