* Measurement data measured by REW V5.20.13
* Source: C:\Users\kurin\Desktop\Targets and Curves\Resolve\Img\Files\audeze lcd-5_SPL.txt
* Format: Comma/Tab/Space delimited data
* Dated: Aug 14, 2023 3:01:41 PM
* REW Settings:
*  C-weighting compensation: Off
*  Target level: 75.0 dB
* Note: ; Measurement imported from C:\Users\kurin\Desktop\Targets and Curves\Resolve\Img\Files\audeze lcd-5_SPL.txt Format: Comma/Tab/Space delimited data 623 values loaded, 5 Hz to 39,792 Hz log spaced 
* Measurement: audeze lcd-5_SPL
* Smoothing: 1/48 octave
* Frequency Step: 1/96 octave
* Start Frequency: 5.000 Hz
*
* Freq(Hz) SPL(dB) Phase(degrees)
5.000000 82.824 9.7190
5.036232 82.827 9.7195
5.072727 82.830 9.7200
5.109486 82.834 9.7204
5.146511 82.838 9.7210
5.183805 82.843 9.7219
5.221369 82.848 9.7230
5.259205 82.854 9.7244
5.297316 82.860 9.7260
5.335702 82.866 9.7279
5.374367 82.873 9.7300
5.413311 82.880 9.7320
5.452538 82.887 9.7340
5.492050 82.894 9.7360
5.531847 82.900 9.7380
5.571934 82.907 9.7400
5.612310 82.913 9.7420
5.652979 82.920 9.7440
5.693943 82.926 9.7460
5.735204 82.933 9.7479
5.776763 82.939 9.7500
5.818624 82.945 9.7525
5.860788 82.952 9.7550
5.903258 82.959 9.7571
5.946035 82.966 9.7590
5.989123 82.973 9.7609
6.032523 82.979 9.7630
6.076237 82.985 9.7654
6.120268 82.992 9.7680
6.164618 82.998 9.7706
6.209289 83.005 9.7730
6.254284 83.011 9.7750
6.299605 83.018 9.7770
6.345255 83.024 9.7794
6.391235 83.031 9.7820
6.437549 83.037 9.7845
6.484198 83.044 9.7870
6.531185 83.051 9.7895
6.578513 83.058 9.7920
6.626183 83.065 9.7945
6.674199 83.071 9.7970
6.722563 83.077 9.7995
6.771278 83.084 9.8020
6.820345 83.090 9.8044
6.869768 83.097 9.8070
6.919549 83.104 9.8100
6.969691 83.110 9.8130
7.020196 83.116 9.8156
7.071068 83.123 9.8180
7.122308 83.130 9.8204
7.173919 83.137 9.8230
7.225904 83.144 9.8259
7.278266 83.150 9.8290
7.331007 83.157 9.8321
7.384131 83.163 9.8350
7.437639 83.170 9.8375
7.491535 83.176 9.8400
7.545822 83.183 9.8429
7.600502 83.189 9.8460
7.655579 83.195 9.8490
7.711054 83.202 9.8520
7.766932 83.209 9.8550
7.823214 83.216 9.8580
7.879904 83.223 9.8610
7.937005 83.229 9.8640
7.994520 83.235 9.8670
8.052452 83.242 9.8700
8.110803 83.248 9.8729
8.169578 83.255 9.8760
8.228777 83.261 9.8795
8.288406 83.268 9.8830
8.348468 83.274 9.8860
8.408964 83.281 9.8890
8.469899 83.287 9.8925
8.531276 83.294 9.8960
8.593097 83.301 9.8990
8.655366 83.308 9.9020
8.718086 83.315 9.9054
8.781260 83.321 9.9090
8.844893 83.327 9.9125
8.908987 83.334 9.9160
8.973545 83.340 9.9195
9.038571 83.347 9.9230
9.104069 83.354 9.9265
9.170040 83.360 9.9300
9.236490 83.366 9.9335
9.303422 83.373 9.9370
9.370838 83.380 9.9405
9.438744 83.387 9.9440
9.507140 83.394 9.9474
9.576033 83.400 9.9510
9.645425 83.407 9.9550
9.715320 83.413 9.9590
9.785721 83.420 9.9625
9.856632 83.426 9.9660
9.928058 83.433 9.9699
10.000000 83.439 9.9740
10.072464 83.445 9.9781
10.145453 83.452 9.9820
10.218971 83.459 9.9855
10.293022 83.466 9.9890
10.367610 83.473 9.9929
10.442738 83.479 9.9970
10.518411 83.485 10.0009
10.594631 83.492 10.0050
10.671404 83.498 10.0095
10.748734 83.505 10.0140
10.826623 83.511 10.0181
10.905077 83.518 10.0220
10.984100 83.524 10.0259
11.063695 83.531 10.0300
11.143867 83.537 10.0345
11.224621 83.544 10.0390
11.305959 83.551 10.0430
11.387886 83.558 10.0470
11.470407 83.565 10.0514
11.553527 83.571 10.0560
11.637249 83.577 10.0605
11.721577 83.584 10.0650
11.806517 83.590 10.0695
11.892071 83.597 10.0740
11.978246 83.604 10.0785
12.065045 83.610 10.0830
12.152473 83.616 10.0875
12.240536 83.623 10.0920
12.329235 83.630 10.0965
12.418578 83.637 10.1010
12.508568 83.644 10.1054
12.599211 83.650 10.1100
12.690510 83.656 10.1150
12.782471 83.663 10.1200
12.875097 83.669 10.1245
12.968395 83.676 10.1290
13.062370 83.683 10.1339
13.157025 83.689 10.1390
13.252366 83.696 10.1440
13.348398 83.702 10.1490
13.445127 83.708 10.1540
13.542556 83.715 10.1590
13.640691 83.722 10.1640
13.739536 83.729 10.1690
13.839099 83.736 10.1740
13.939383 83.742 10.1790
14.040393 83.748 10.1840
14.142136 83.755 10.1890
14.244616 83.761 10.1940
14.347837 83.768 10.1990
14.451808 83.774 10.2040
14.556532 83.781 10.2090
14.662014 83.787 10.2139
14.768262 83.794 10.2190
14.875278 83.801 10.2245
14.983070 83.808 10.2300
15.091644 83.815 10.2351
15.201005 83.821 10.2400
15.311157 83.827 10.2449
15.422109 83.834 10.2500
15.533863 83.840 10.2555
15.646428 83.847 10.2610
15.759809 83.853 10.2661
15.874010 83.860 10.2710
15.989040 83.866 10.2759
16.104904 83.873 10.2810
16.221605 83.880 10.2865
16.339155 83.887 10.2920
16.457554 83.894 10.2971
16.576813 83.900 10.3020
16.696936 83.906 10.3070
16.817928 83.913 10.3120
16.939798 83.919 10.3171
17.062551 83.926 10.3220
17.186193 83.932 10.3265
17.310732 83.939 10.3310
17.436172 83.946 10.3360
17.562521 83.952 10.3410
17.689787 83.958 10.3456
17.817974 83.965 10.3500
17.947090 83.972 10.3541
18.077143 83.979 10.3580
18.208138 83.986 10.3621
18.340080 83.992 10.3660
18.472980 83.998 10.3697
18.606844 84.005 10.3730
18.741676 84.011 10.3757
18.877487 84.018 10.3780
19.014280 84.024 10.3802
19.152065 84.031 10.3820
19.290850 84.037 10.3830
19.430639 84.044 10.3830
19.571442 84.051 10.3816
19.713264 84.057 10.3790
19.856115 84.063 10.3754
20.000000 84.069 10.3710
20.144928 84.075 10.3655
20.290907 84.080 10.3600
20.437943 84.084 10.3549
20.586044 84.088 10.3520
20.735220 84.091 10.3534
20.885475 84.093 10.3590
21.036821 84.096 10.3695
21.189262 84.099 10.3850
21.342808 84.102 10.4063
21.497467 84.106 10.4310
21.653246 84.111 10.4580
21.810154 84.118 10.4840
21.968201 84.126 10.5047
22.127390 84.134 10.5210
22.287735 84.142 10.5321
22.449242 84.150 10.5390
22.611917 84.158 10.5423
22.775772 84.165 10.5430
22.940815 84.171 10.5411
23.107054 84.177 10.5400
23.274498 84.181 10.5439
23.443153 84.186 10.5510
23.613033 84.192 10.5626
23.784142 84.199 10.5740
23.956491 84.206 10.5806
24.130091 84.214 10.5830
24.304947 84.222 10.5803
24.481071 84.231 10.5720
24.658470 84.239 10.5570
24.837156 84.246 10.5360
25.017136 84.253 10.5081
25.198421 84.258 10.4770
25.381020 84.261 10.4461
25.564941 84.262 10.4160
25.750195 84.263 10.3891
25.936790 84.264 10.3640
26.124741 84.264 10.3403
26.314051 84.263 10.3180
26.504732 84.262 10.2969
26.696796 84.259 10.2780
26.890253 84.255 10.2613
27.085112 84.250 10.2500
27.281382 84.243 10.2472
27.479073 84.235 10.2530
27.678198 84.227 10.2682
27.878765 84.219 10.2930
28.080786 84.211 10.3282
28.284271 84.203 10.3719
28.489231 84.196 10.4234
28.695675 84.190 10.4799
28.903616 84.186 10.5392
29.113064 84.182 10.5989
29.324028 84.179 10.6552
29.536524 84.175 10.7109
29.750557 84.170 10.7663
29.966141 84.163 10.8249
30.183289 84.155 10.8907
30.402010 84.147 10.9639
30.622314 84.138 11.0457
30.844217 84.129 11.1369
31.067726 84.119 11.2377
31.292856 84.108 11.3508
31.519617 84.097 11.4791
31.748020 84.086 11.6228
31.978081 84.075 11.7831
32.209808 84.065 11.9608
32.443211 84.055 12.1561
32.678310 84.047 12.3717
32.915108 84.040 12.6099
33.153625 84.035 12.8717
33.393871 84.033 13.1611
33.635857 84.036 13.4715
33.879597 84.046 13.8011
34.125103 84.064 14.1385
34.372387 84.090 14.4747
34.621464 84.123 14.8015
34.872345 84.165 15.1122
35.125042 84.214 15.3937
35.379574 84.272 15.6330
35.635948 84.335 15.8228
35.894180 84.401 15.9506
36.154285 84.468 16.0189
36.416275 84.532 16.0240
36.680161 84.593 15.9731
36.945961 84.649 15.8681
37.213688 84.698 15.7212
37.483353 84.736 15.5404
37.754974 84.765 15.3413
38.028561 84.783 15.1382
38.304131 84.792 14.9442
38.581699 84.791 14.7738
38.861279 84.782 14.6372
39.142883 84.767 14.5485
39.426529 84.747 14.5100
39.712231 84.725 14.5294
40.000000 84.703 14.6038
40.289856 84.683 14.7355
40.581814 84.666 14.9167
40.875885 84.656 15.1446
41.172089 84.652 15.4076
41.470440 84.657 15.6959
41.770950 84.670 16.0005
42.073643 84.691 16.3115
42.378525 84.721 16.6216
42.685616 84.758 16.9228
42.994934 84.803 17.2076
43.306492 84.855 17.4671
43.620308 84.914 17.6977
43.936401 84.977 17.8937
44.254780 85.045 18.0518
44.575470 85.117 18.1679
44.898483 85.192 18.2379
45.223835 85.269 18.2554
45.551544 85.345 18.2231
45.881630 85.419 18.1397
46.214108 85.490 18.0112
46.548996 85.556 17.8406
46.886307 85.618 17.6354
47.226067 85.674 17.4012
47.568283 85.724 17.1464
47.912983 85.767 16.8799
48.260181 85.805 16.6055
48.609894 85.839 16.3296
48.962143 85.868 16.0534
49.316940 85.894 15.7810
49.674313 85.916 15.5104
50.034271 85.936 15.2417
50.396843 85.953 14.9734
50.762039 85.968 14.7037
51.129883 85.979 14.4345
51.500389 85.986 14.1655
51.873581 85.988 13.9014
52.249481 85.987 13.6453
52.628101 85.981 13.4024
53.009464 85.970 13.1773
53.393593 85.954 12.9753
53.780506 85.935 12.8028
54.170223 85.913 12.6612
54.562763 85.889 12.5540
54.958145 85.864 12.4821
55.356396 85.838 12.4476
55.757530 85.813 12.4510
56.161572 85.789 12.4949
56.568542 85.768 12.5748
56.978462 85.751 12.6886
57.391350 85.739 12.8317
57.807232 85.732 13.0007
58.226128 85.730 13.1897
58.648056 85.735 13.3942
59.073048 85.748 13.6056
59.501114 85.768 13.8155
59.932281 85.795 14.0186
60.366577 85.828 14.2091
60.804020 85.868 14.3807
61.244629 85.915 14.5273
61.688435 85.967 14.6428
62.135452 86.023 14.7200
62.585712 86.083 14.7560
63.039234 86.146 14.7460
63.496040 86.211 14.6881
63.956161 86.276 14.5781
64.419617 86.339 14.4183
64.886421 86.399 14.2075
65.356621 86.454 13.9525
65.830215 86.503 13.6567
66.307251 86.546 13.3297
66.787743 86.581 12.9783
67.271713 86.609 12.6137
67.759193 86.627 12.2464
68.250206 86.638 11.8847
68.744774 86.642 11.5401
69.242928 86.642 11.2126
69.744690 86.639 10.9058
70.250084 86.632 10.6195
70.759148 86.622 10.3547
71.271896 86.610 10.1114
71.788361 86.597 9.8915
72.308571 86.583 9.6904
72.832550 86.571 9.5042
73.360321 86.558 9.3323
73.891922 86.544 9.1720
74.427376 86.529 9.0253
74.966705 86.514 8.8945
75.509949 86.499 8.7762
76.057121 86.486 8.6685
76.608261 86.474 8.5692
77.163399 86.462 8.4753
77.722557 86.450 8.3872
78.285767 86.438 8.3044
78.853058 86.427 8.2272
79.424461 86.415 8.1558
80.000000 86.404 8.0891
80.579712 86.393 8.0250
81.163628 86.382 7.9671
81.751770 86.369 7.9173
82.344177 86.355 7.8791
82.940880 86.340 7.8579
83.541901 86.327 7.8500
84.147285 86.317 7.8540
84.757050 86.309 7.8680
85.371231 86.301 7.8902
85.989868 86.295 7.9179
86.612984 86.293 7.9503
87.240616 86.295 7.9799
87.872803 86.300 7.9992
88.509560 86.307 8.0080
89.150940 86.314 8.0032
89.796967 86.321 7.9860
90.447670 86.329 7.9565
91.103088 86.337 7.9151
91.763260 86.343 7.8612
92.428215 86.348 7.7991
93.097992 86.351 7.7326
93.772614 86.353 7.6631
94.452133 86.354 7.5934
95.136566 86.353 7.5231
95.825966 86.351 7.4523
96.520363 86.348 7.3831
97.219788 86.343 7.3171
97.924286 86.337 7.2571
98.633881 86.329 7.2067
99.348625 86.321 7.1651
100.068542 86.313 7.1329
100.793686 86.305 7.1100
101.524078 86.297 7.0968
102.259766 86.289 7.0920
103.000778 86.282 7.0961
103.747162 86.277 7.1050
104.498962 86.274 7.1150
105.256203 86.273 7.1250
106.018929 86.272 7.1325
106.787186 86.271 7.1380
107.561012 86.271 7.1406
108.340446 86.271 7.1410
109.125526 86.271 7.1396
109.916290 86.271 7.1370
110.712791 86.271 7.1339
111.515060 86.271 7.1300
112.323143 86.271 7.1251
113.137085 86.271 7.1200
113.956924 86.271 7.1155
114.782700 86.271 7.1110
115.614464 86.271 7.1060
116.452255 86.271 7.1010
117.296112 86.271 7.0964
118.146095 86.271 7.0920
119.002228 86.271 7.0879
119.864563 86.271 7.0840
120.733154 86.271 7.0803
121.608040 86.271 7.0770
122.489258 86.271 7.0744
123.376869 86.271 7.0720
124.270905 86.271 7.0694
125.171425 86.271 7.0670
126.078468 86.271 7.0653
126.992081 86.271 7.0640
127.912323 86.271 7.0633
128.839233 86.271 7.0630
129.772842 86.271 7.0628
130.713242 86.271 7.0630
131.660431 86.271 7.0637
132.614502 86.271 7.0650
133.575485 86.271 7.0667
134.543427 86.271 7.0690
135.518387 86.271 7.0717
136.500412 86.271 7.0750
137.489548 86.271 7.0788
138.485855 86.271 7.0830
139.489380 86.271 7.0872
140.500168 86.271 7.0920
141.518295 86.271 7.0977
142.543793 86.271 7.1040
143.576721 86.271 7.1107
144.617142 86.271 7.1180
145.665100 86.271 7.1262
146.720642 86.271 7.1350
147.783844 86.271 7.1437
148.854752 86.271 7.1530
149.933411 86.271 7.1631
151.019897 86.271 7.1740
152.114243 86.271 7.1857
153.216522 86.271 7.1980
154.326797 86.271 7.2106
155.445114 86.271 7.2240
156.571533 86.271 7.2386
157.706116 86.271 7.2540
158.848923 86.271 7.2696
160.000000 86.271 7.2860
161.159424 86.271 7.3035
162.327255 86.271 7.3220
163.503540 86.271 7.3415
164.688354 86.271 7.3620
165.881760 86.271 7.3834
167.083801 86.271 7.4059
168.294571 86.271 7.4297
169.514099 86.271 7.4549
170.742462 86.271 7.4816
171.979736 86.271 7.5099
173.225967 86.271 7.5401
174.481232 86.271 7.5729
175.745605 86.271 7.6092
177.019119 86.271 7.6489
178.301880 86.272 7.6923
179.593933 86.273 7.7389
180.895340 86.275 7.7893
182.206177 86.278 7.8409
183.526520 86.283 7.8922
184.856430 86.290 7.9399
186.195984 86.298 7.9799
187.545227 86.306 8.0129
188.904266 86.314 8.0382
190.273132 86.322 8.0560
191.651932 86.330 8.0659
193.040726 86.337 8.0690
194.439575 86.343 8.0645
195.848572 86.348 8.0570
197.267761 86.351 8.0506
198.697250 86.353 8.0460
200.137085 86.354 8.0452
201.587372 86.355 8.0480
203.048157 86.355 8.0547
204.519531 86.355 8.0650
206.001556 86.355 8.0790
207.494324 86.355 8.0960
208.997925 86.355 8.1148
210.512405 86.355 8.1359
212.037857 86.355 8.1594
213.574371 86.355 8.1849
215.122025 86.355 8.2121
216.680893 86.355 8.2409
218.251053 86.355 8.2715
219.832581 86.355 8.3039
221.425583 86.355 8.3380
223.030121 86.355 8.3739
224.646286 86.355 8.4118
226.274170 86.355 8.4519
227.913849 86.355 8.4942
229.565399 86.355 8.5389
231.228928 86.355 8.5860
232.904510 86.355 8.6358
234.592224 86.355 8.6885
236.292191 86.355 8.7448
238.004456 86.355 8.8055
239.729126 86.355 8.8708
241.466309 86.356 8.9413
243.216080 86.357 9.0168
244.978516 86.358 9.0980
246.753738 86.361 9.1827
248.541809 86.366 9.2699
250.342850 86.372 9.3568
252.156937 86.380 9.4398
253.984161 86.388 9.5198
255.824646 86.397 9.5964
257.678467 86.406 9.6698
259.545685 86.416 9.7404
261.426483 86.427 9.8068
263.320862 86.439 9.8675
265.229004 86.450 9.9238
267.150970 86.460 9.9763
269.086853 86.470 10.0269
271.036774 86.480 10.0779
273.000824 86.490 10.1288
274.979095 86.500 10.1802
276.971710 86.511 10.2308
278.978760 86.523 10.2797
281.000336 86.535 10.3269
283.036591 86.546 10.3716
285.087585 86.558 10.4149
287.153442 86.570 10.4582
289.234283 86.583 10.4989
291.330200 86.597 10.5352
293.441284 86.612 10.5659
295.567688 86.626 10.5883
297.709503 86.639 10.6060
299.866821 86.651 10.6218
302.039795 86.663 10.6360
304.228485 86.675 10.6495
306.433044 86.687 10.6620
308.653595 86.699 10.6729
310.890228 86.710 10.6830
313.143066 86.721 10.6925
315.412231 86.732 10.7020
317.697845 86.743 10.7132
320.000000 86.754 10.7230
322.318848 86.766 10.7292
324.654510 86.779 10.7310
327.007080 86.791 10.7256
329.376709 86.803 10.7160
331.763519 86.813 10.7041
334.167603 86.823 10.6910
336.589142 86.832 10.6785
339.028198 86.840 10.6670
341.484924 86.847 10.6566
343.959473 86.854 10.6500
346.451935 86.859 10.6509
348.962463 86.865 10.6570
351.491211 86.872 10.6683
354.038239 86.881 10.6820
356.603760 86.890 10.6955
359.187866 86.901 10.7070
361.790680 86.913 10.7145
364.412354 86.926 10.7150
367.053040 86.940 10.7043
369.712860 86.955 10.6831
372.391968 86.968 10.6494
375.090454 86.980 10.6071
377.808533 86.990 10.5591
380.546265 86.999 10.5062
383.303864 87.007 10.4490
386.081451 87.013 10.3902
388.879150 87.017 10.3321
391.697144 87.020 10.2762
394.535522 87.022 10.2247
397.394501 87.023 10.1771
400.274170 87.023 10.1338
403.174744 87.023 10.0941
406.096313 87.023 10.0580
409.039062 87.023 10.0241
412.003113 87.023 9.9912
414.988647 87.023 9.9581
417.995850 87.023 9.9236
421.024811 87.023 9.8871
424.075714 87.022 9.8482
427.148743 87.021 9.8061
430.244049 87.020 9.7595
433.361786 87.017 9.7102
436.502106 87.012 9.6587
439.665161 87.006 9.6072
442.851166 86.998 9.5581
446.060242 86.988 9.5111
449.292572 86.977 9.4659
452.548340 86.965 9.4241
455.827698 86.951 9.3857
459.130798 86.934 9.3551
462.457855 86.914 9.3374
465.809021 86.893 9.3310
469.184448 86.872 9.3360
472.584381 86.850 9.3529
476.008911 86.826 9.3805
479.458252 86.800 9.4238
482.932617 86.772 9.4885
486.432159 86.744 9.5727
489.957031 86.718 9.6773
493.507477 86.692 9.7996
497.083618 86.666 9.9360
500.685699 86.640 10.0895
504.313873 86.615 10.2623
507.968323 86.590 10.4524
511.649292 86.568 10.6584
515.356934 86.547 10.8802
519.091370 86.527 11.1174
522.852966 86.509 11.3701
526.641724 86.493 11.6393
530.458008 86.479 11.9220
534.301941 86.469 12.2158
538.173706 86.461 12.5210
542.073547 86.455 12.8386
546.001648 86.452 13.1649
549.958191 86.454 13.4977
553.943420 86.460 13.8329
557.957520 86.469 14.1650
562.000671 86.481 14.4959
566.073181 86.495 14.8270
570.175171 86.513 15.1539
574.306885 86.535 15.4727
578.468567 86.560 15.7830
582.660400 86.585 16.0824
586.882568 86.613 16.3730
591.135376 86.643 16.6574
595.419006 86.676 16.9311
599.733643 86.711 17.1894
604.079590 86.748 17.4352
608.456970 86.784 17.6696
612.866089 86.821 17.8923
617.307190 86.861 18.1046
621.780457 86.902 18.3024
626.286133 86.945 18.4803
630.824463 86.987 18.6435
635.395691 87.026 18.7947
640.000000 87.065 18.9355
644.637695 87.105 19.0685
649.309021 87.145 19.1936
654.014160 87.183 19.3108
658.753418 87.221 19.4226
663.527039 87.257 19.5316
668.335205 87.294 19.6376
673.178284 87.331 19.7422
678.056396 87.369 19.8427
682.969849 87.407 19.9369
687.918945 87.444 20.0257
692.903870 87.481 20.1084
697.924927 87.517 20.1877
702.982422 87.552 20.2656
708.076477 87.587 20.3437
713.207520 87.621 20.4240
718.375732 87.654 20.5077
723.581360 87.688 20.5970
728.824707 87.722 20.6907
734.106079 87.757 20.7886
739.425720 87.794 20.8896
744.783936 87.832 20.9941
750.180908 87.872 21.0976
755.617065 87.915 21.1973
761.092529 87.960 21.2897
766.607727 88.007 21.3700
772.162903 88.055 21.4388
777.758301 88.103 21.4946
783.394287 88.152 21.5379
789.071045 88.201 21.5678
794.789001 88.251 21.5860
800.548340 88.299 21.5931
806.349487 88.347 21.5910
812.192627 88.394 21.5814
818.078125 88.441 21.5661
824.006226 88.487 21.5479
829.977295 88.533 21.5251
835.991699 88.580 21.4973
842.049622 88.627 21.4631
848.151428 88.674 21.4208
854.297485 88.721 21.3712
860.488098 88.769 21.3157
866.723572 88.817 21.2513
873.004211 88.866 21.1746
879.330322 88.914 21.0873
885.702332 88.961 20.9897
892.120483 89.007 20.8824
898.585144 89.053 20.7671
905.096680 89.099 20.6415
911.655396 89.145 20.5035
918.261597 89.191 20.3536
924.915710 89.235 20.1917
931.618042 89.278 20.0167
938.368896 89.321 19.8266
945.168762 89.362 19.6238
952.017822 89.399 19.4085
958.916504 89.433 19.1849
965.865234 89.465 18.9577
972.864319 89.495 18.7259
979.914062 89.522 18.4886
987.014954 89.546 18.2499
994.167236 89.567 18.0136
1001.371399 89.586 17.7788
1008.627747 89.604 17.5465
1015.936646 89.620 17.3150
1023.298584 89.634 17.0816
1030.713867 89.644 16.8507
1038.182739 89.650 16.6249
1045.705933 89.653 16.4079
1053.283447 89.653 16.2042
1060.916016 89.651 16.0148
1068.603882 89.646 15.8408
1076.347412 89.638 15.6866
1084.147095 89.627 15.5561
1092.003296 89.615 15.4523
1099.916382 89.601 15.3808
1107.886841 89.588 15.3371
1115.915039 89.577 15.3185
1124.001343 89.568 15.3249
1132.146362 89.558 15.3549
1140.350342 89.550 15.4097
1148.613770 89.544 15.4914
1156.937134 89.542 15.5965
1165.320801 89.543 15.7233
1173.765137 89.549 15.8683
1182.270752 89.561 16.0302
1190.838013 89.578 16.2003
1199.467285 89.602 16.3709
1208.159180 89.632 16.5374
1216.913940 89.667 16.6944
1225.732178 89.709 16.8355
1234.614380 89.756 16.9549
1243.560913 89.809 17.0447
1252.572266 89.866 17.0946
1261.648926 89.925 17.1060
1270.791382 89.983 17.0754
1280.000000 90.040 17.0073
1289.275391 90.096 16.9036
1298.618042 90.150 16.7686
1308.028320 90.199 16.6046
1317.506836 90.244 16.4198
1327.054077 90.284 16.2213
1336.670410 90.319 16.0148
1346.356567 90.350 15.8061
1356.112793 90.376 15.6017
1365.939697 90.397 15.4097
1375.837891 90.416 15.2317
1385.807739 90.434 15.0732
1395.849854 90.452 14.9305
1405.964844 90.470 14.8020
1416.152954 90.488 14.6874
1426.415039 90.506 14.5880
1436.751465 90.526 14.4983
1447.162720 90.550 14.4153
1457.649414 90.578 14.3323
1468.212158 90.607 14.2428
1478.851440 90.639 14.1444
1489.567871 90.673 14.0343
1500.361816 90.709 13.9075
1511.234131 90.747 13.7585
1522.185059 90.786 13.5858
1533.215454 90.823 13.3850
1544.325806 90.859 13.1591
1555.516602 90.892 12.9084
1566.788574 90.921 12.6372
1578.142090 90.946 12.3468
1589.578003 90.965 12.0453
1601.096680 90.978 11.7377
1612.698975 90.984 11.4342
1624.385254 90.983 11.1451
1636.156250 90.977 10.8761
1648.012451 90.967 10.6352
1659.954590 90.953 10.4257
1671.983398 90.936 10.2542
1684.099243 90.918 10.1195
1696.302856 90.902 10.0265
1708.594971 90.888 9.9642
1720.976196 90.879 9.9254
1733.447144 90.873 9.9041
1746.008423 90.871 9.8942
1758.660645 90.872 9.8890
1771.404663 90.878 9.8815
1784.240967 90.887 9.8671
1797.170288 90.897 9.8380
1810.193359 90.908 9.7972
1823.310791 90.918 9.7445
1836.523193 90.927 9.6823
1849.831421 90.935 9.6121
1863.236084 90.940 9.5364
1876.737793 90.942 9.4555
1890.337524 90.941 9.3763
1904.035645 90.935 9.3032
1917.833008 90.924 9.2442
1931.730469 90.909 9.2050
1945.728638 90.888 9.1970
1959.828125 90.862 9.2297
1974.029907 90.831 9.3145
1988.334473 90.797 9.4647
2002.742798 90.763 9.6840
2017.255493 90.731 9.9816
2031.873291 90.703 10.3534
2046.597168 90.684 10.8035
2061.427734 90.675 11.3166
2076.365479 90.681 11.8853
2091.411865 90.703 12.4904
2106.566895 90.741 13.1154
2121.832031 90.796 13.7444
2137.207764 90.867 14.3614
2152.694824 90.955 14.9497
2168.294189 91.057 15.4899
2184.006592 91.172 15.9749
2199.832764 91.297 16.3920
2215.773682 91.430 16.7387
2231.830078 91.570 17.0077
2248.002686 91.712 17.2014
2264.292725 91.856 17.3180
2280.700684 92.000 17.3630
2297.227539 92.144 17.3387
2313.874268 92.285 17.2525
2330.641602 92.422 17.1092
2347.530273 92.554 16.9189
2364.541504 92.682 16.6914
2381.676025 92.805 16.4322
2398.934570 92.925 16.1486
2416.318359 93.041 15.8454
2433.827881 93.154 15.5288
2451.464355 93.264 15.2014
2469.228760 93.372 14.8692
2487.121826 93.481 14.5275
2505.144531 93.591 14.1747
2523.297852 93.701 13.8067
2541.582764 93.813 13.4199
2560.000000 93.925 13.0109
2578.550781 94.038 12.5757
2597.236084 94.150 12.1122
2616.056641 94.262 11.6146
2635.013672 94.370 11.0903
2654.108154 94.473 10.5409
2673.340820 94.572 9.9785
2692.713135 94.665 9.4127
2712.225586 94.755 8.8516
2731.879395 94.843 8.3063
2751.675781 94.932 7.7764
2771.615479 95.023 7.2690
2791.699707 95.120 6.7722
2811.929688 95.225 6.2841
2832.305908 95.340 5.7814
2852.830078 95.469 5.2484
2873.502930 95.608 4.6607
2894.325439 95.758 3.9945
2915.298828 95.913 3.2327
2936.424316 96.074 2.3496
2957.702881 96.232 1.3466
2979.135742 96.382 0.2095
3000.723633 96.519 -1.0393
3022.468262 96.639 -2.3922
3044.370117 96.739 -3.8173
3066.430908 96.817 -5.2918
3088.651611 96.874 -6.7823
3111.033203 96.909 -8.2535
3133.577148 96.927 -9.6873
3156.284180 96.931 -11.0521
3179.156006 96.927 -12.3540
3202.193359 96.920 -13.5815
3225.397949 96.914 -14.7555
3248.770508 96.912 -15.8857
3272.312500 96.915 -16.9950
3296.024902 96.925 -18.1048
3319.909180 96.938 -19.2297
3343.966797 96.954 -20.3906
3368.198486 96.970 -21.5902
3392.605713 96.984 -22.8409
3417.189941 96.992 -24.1349
3441.952393 96.991 -25.4715
3466.894287 96.980 -26.8408
3492.016846 96.960 -28.2352
3517.321289 96.929 -29.6474
3542.809326 96.887 -31.0717
3568.481934 96.831 -32.4954
3594.340576 96.762 -33.9089
3620.386719 96.679 -35.2975
3646.621582 96.582 -36.6495
3673.046387 96.472 -37.9460
3699.662842 96.346 -39.1674
3726.472168 96.211 -40.3030
3753.475586 96.067 -41.3332
3780.675049 95.921 -42.2640
3808.071289 95.774 -43.0892
3835.666016 95.631 -43.8257
3863.460938 95.495 -44.4802
3891.457275 95.370 -45.0773
3919.656250 95.257 -45.6378
3948.059814 95.155 -46.1805
3976.668945 95.062 -46.7304
4005.485596 94.975 -47.2892
4034.510986 94.892 -47.8697
4063.746582 94.809 -48.4631
4093.194336 94.724 -49.0705
4122.855469 94.635 -49.6761
4152.730957 94.542 -50.2685
4182.823730 94.444 -50.8354
4213.133789 94.343 -51.3607
4243.664062 94.241 -51.8438
4274.415527 94.143 -52.2771
4305.389648 94.047 -52.6652
4336.588379 93.957 -53.0069
4368.013184 93.874 -53.3126
4399.665527 93.802 -53.5865
4431.547363 93.741 -53.8457
4463.660156 93.694 -54.1033
4496.005371 93.660 -54.3766
4528.585449 93.640 -54.6821
4561.401367 93.632 -55.0362
4594.455078 93.636 -55.4569
4627.748535 93.648 -55.9554
4661.283203 93.667 -56.5492
4695.060547 93.689 -57.2374
4729.083008 93.710 -58.0270
4763.352051 93.728 -58.9106
4797.869141 93.741 -59.8873
4832.636719 93.746 -60.9435
4867.655762 93.740 -62.0678
4902.928711 93.726 -63.2521
4938.457520 93.704 -64.4823
4974.243652 93.675 -65.7648
5010.289062 93.641 -67.0987
5046.595703 93.599 -68.4919
5083.165527 93.551 -69.9495
5120.000000 93.493 -71.4783
5157.101562 93.426 -73.0869
5194.472168 93.346 -74.7746
5232.113281 93.251 -76.5500
5270.027344 93.135 -78.3936
5308.216309 92.992 -80.2989
5346.681641 92.821 -82.2345
5385.426270 92.619 -84.1782
5424.451172 92.384 -86.0957
5463.758789 92.115 -87.9590
5503.351562 91.812 -89.7267
5543.230957 91.472 -91.3613
5583.399414 91.100 -92.8223
5623.859375 90.695 -94.0661
5664.611816 90.264 -95.0648
5705.660156 89.810 -95.7780
5747.005859 89.340 -96.1996
5788.650879 88.863 -96.3030
5830.597656 88.387 -96.1078
5872.848633 87.922 -95.6097
5915.405762 87.477 -94.8545
5958.271484 87.064 -93.8678
6001.447266 86.688 -92.7064
6044.936523 86.356 -91.4187
6088.740234 86.067 -90.0550
6132.861816 85.825 -88.6706
6177.303223 85.623 -87.2978
6222.066406 85.457 -85.9826
6267.154297 85.323 -84.7390
6312.568359 85.212 -83.5958
6358.312012 85.122 -82.5540
6404.386719 85.047 -81.6237
6450.795898 84.983 -80.8059
6497.541016 84.929 -80.1049
6544.625000 84.879 -79.5206
6592.049805 84.831 -79.0581
6639.818359 84.780 -78.7065
6687.933594 84.722 -78.4654
6736.396973 84.653 -78.3086
6785.211426 84.568 -78.2213
6834.379883 84.466 -78.1682
6883.904785 84.343 -78.1242
6933.788574 84.200 -78.0446
6984.033691 84.032 -77.8914
7034.642578 83.845 -77.6197
7085.618652 83.639 -77.1758
7136.963867 83.426 -76.5477
7188.681152 83.215 -75.7001
7240.773438 83.015 -74.6498
7293.243164 82.834 -73.3869
7346.092773 82.684 -71.9556
7399.325684 82.579 -70.3713
7452.944336 82.525 -68.7104
7506.951172 82.536 -67.0262
7561.350098 82.607 -65.4051
7616.142578 82.745 -63.9268
7671.332031 82.938 -62.6648
7726.921875 83.181 -61.7027
7782.914551 83.459 -61.0902
7839.312500 83.760 -60.9018
7896.119629 84.067 -61.1445
7953.337891 84.364 -61.8624
8010.971191 84.637 -63.0178
8069.021973 84.871 -64.6103
8127.493164 85.058 -66.5708
8186.388672 85.188 -68.8588
8245.710938 85.256 -71.3861
8305.461914 85.255 -74.0790
8365.647461 85.188 -76.8533
8426.267578 85.051 -79.6183
8487.328125 84.851 -82.3190
8548.831055 84.593 -84.8761
8610.779297 84.283 -87.2718
8673.176758 83.926 -89.4604
8736.026367 83.529 -91.4478
8799.331055 83.101 -93.2162
8863.094727 82.645 -94.7922
8927.320312 82.172 -96.1972
8992.010742 81.675 -97.4289
9057.170898 81.151 -98.5135
9122.802734 80.597 -99.3870
9188.910156 80.006 -100.0226
9255.497070 79.377 -100.3343
9322.566406 78.705 -100.2587
9390.121094 77.991 -99.7004
9458.166016 77.226 -98.5554
9526.704102 76.429 -96.7851
9595.738281 75.610 -94.2957
9665.273438 74.797 -91.1493
9735.311523 74.017 -87.3499
9805.857422 73.290 -82.9821
9876.915039 72.637 -78.0991
9948.487305 72.087 -72.7997
10020.578125 71.671 -67.1624
10093.191406 71.394 -61.3012
10166.331055 71.270 -55.3129
10240.000000 71.305 -49.3274
10314.203125 71.515 -43.4503
10388.944336 71.882 -37.8517
10464.226562 72.409 -32.6948
10540.054688 73.051 -28.1063
10616.432617 73.774 -24.2433
10693.363281 74.539 -21.1806
10770.852539 75.309 -19.0495
10848.902344 76.053 -17.8331
10927.517578 76.735 -17.6103
11006.703125 77.340 -18.2206
11086.461914 77.840 -19.5966
11166.798828 78.239 -21.5350
11247.718750 78.529 -23.8612
11329.223633 78.717 -26.4205
11411.320312 78.806 -29.0327
11494.011719 78.803 -31.5994
11577.301758 78.716 -33.9781
11661.195312 78.555 -36.1219
11745.697266 78.329 -37.9434
11830.811523 78.047 -39.4240
11916.542969 77.720 -40.5188
12002.894531 77.356 -41.2202
12089.873047 76.962 -41.5067
12177.480469 76.547 -41.3750
12265.723633 76.120 -40.8054
12354.606445 75.693 -39.8254
12444.132812 75.280 -38.4401
12534.308594 74.887 -36.6973
12625.136719 74.525 -34.6333
12716.624023 74.198 -32.2881
12808.773438 73.914 -29.7045
12901.591797 73.673 -26.9114
12995.082031 73.479 -23.9452
13089.250000 73.335 -20.8260
13184.099609 73.239 -17.5742
13279.636719 73.201 -14.2255
13375.867188 73.229 -10.7969
13472.793945 73.325 -7.3644
13570.422852 73.500 -3.9793
13668.759766 73.744 -0.7337
13767.809570 74.060 2.2788
13867.577148 74.419 5.0101
13968.067383 74.802 7.3675
14069.285156 75.189 9.3924
14171.237305 75.554 11.0628
14273.927734 75.898 12.4781
14377.362305 76.210 13.6980
14481.546875 76.505 14.8223
14586.486328 76.782 15.9660
14692.185547 77.070 17.1430
14798.651367 77.393 18.4401
14905.888672 77.766 19.7515
15013.902344 78.214 21.0484
15122.700195 78.723 22.1832
15232.285156 79.294 23.0359
15342.664062 79.899 23.4937
15453.843750 80.524 23.4082
15565.829102 81.138 22.7641
15678.625000 81.712 21.4650
15792.239258 82.233 19.6095
15906.675781 82.678 17.2191
16021.942383 83.045 14.4310
16138.043945 83.327 11.3531
16254.986328 83.528 8.0972
16372.777344 83.648 4.7857
16491.421875 83.693 1.4940
16610.923828 83.667 -1.6749
16731.294922 83.578 -4.6821
16852.535156 83.430 -7.4657
16974.656250 83.229 -9.9916
17097.662109 82.980 -12.2176
17221.558594 82.687 -14.1047
17346.353516 82.355 -15.6112
17472.052734 81.993 -16.7017
17598.662109 81.604 -17.3288
17726.189453 81.204 -17.4865
17854.640625 80.804 -17.1304
17984.021484 80.428 -16.3296
18114.341797 80.099 -15.0977
18245.605469 79.830 -13.5584
18377.820312 79.646 -11.7976
18510.994141 79.543 -9.9438
18645.132812 79.536 -8.1224
18780.242188 79.602 -6.4296
18916.332031 79.734 -4.9972
19053.408203 79.906 -3.8427
19191.476562 80.093 -3.0442
19330.546875 80.284 -2.5499
19470.623047 80.458 -2.3576
19611.714844 80.612 -2.3933
19753.830078 80.735 -2.6020
19896.974609 80.831 -2.9228
