* Measurement data measured by REW V5.20.13
* Source: C:\Users\kurin\Desktop\Targets and Curves\Resolve\Img\Files\harmonicdyne poseidon_SPL.txt
* Format: Comma/Tab/Space delimited data
* Dated: Aug 14, 2023 4:42:47 PM
* REW Settings:
*  C-weighting compensation: Off
*  Target level: 75.0 dB
* Note: ; Measurement imported from C:\Users\kurin\Desktop\Targets and Curves\Resolve\Img\Files\harmonicdyne poseidon_SPL.txt Format: Comma/Tab/Space delimited data 623 values loaded, 5 Hz to 39,792 Hz log spaced 
* Measurement: harmonicdyne poseidon_SPL
* Smoothing: 1/48 octave
* Frequency Step: 1/96 octave
* Start Frequency: 5.000 Hz
*
* Freq(Hz) SPL(dB) Phase(degrees)
5.000000 59.462 135.0860
5.036232 59.506 135.0652
5.072727 59.553 135.0430
5.109486 59.608 135.0176
5.146511 59.672 134.9890
5.183805 59.749 134.9557
5.221369 59.832 134.9210
5.259205 59.917 134.8881
5.297316 60.007 134.8550
5.335702 60.103 134.8201
5.374367 60.201 134.7850
5.413311 60.298 134.7508
5.452538 60.395 134.7170
5.492050 60.492 134.6836
5.531847 60.589 134.6500
5.571934 60.686 134.6156
5.612310 60.783 134.5810
5.652979 60.880 134.5465
5.693943 60.977 134.5120
5.735204 61.074 134.4776
5.776763 61.171 134.4430
5.818624 61.268 134.4076
5.860788 61.365 134.3720
5.903258 61.461 134.3366
5.946035 61.558 134.3010
5.989123 61.655 134.2651
6.032523 61.752 134.2290
6.076237 61.849 134.1926
6.120268 61.946 134.1560
6.164618 62.043 134.1191
6.209289 62.140 134.0820
6.254284 62.237 134.0446
6.299605 62.334 134.0070
6.345255 62.431 133.9691
6.391235 62.528 133.9310
6.437549 62.625 133.8931
6.484198 62.722 133.8550
6.531185 62.819 133.8162
6.578513 62.916 133.7770
6.626183 63.012 133.7376
6.674199 63.109 133.6980
6.722563 63.206 133.6586
6.771278 63.303 133.6190
6.820345 63.400 133.5787
6.869768 63.497 133.5380
6.919549 63.594 133.4971
6.969691 63.691 133.4560
7.020196 63.788 133.4146
7.071068 63.885 133.3730
7.122308 63.982 133.3312
7.173919 64.079 133.2890
7.225904 64.176 133.2461
7.278266 64.273 133.2030
7.331007 64.370 133.1601
7.384131 64.467 133.1170
7.437639 64.563 133.0737
7.491535 64.660 133.0300
7.545822 64.757 132.9857
7.600502 64.854 132.9410
7.655579 64.951 132.8961
7.711054 65.048 132.8510
7.766932 65.145 132.8056
7.823214 65.242 132.7600
7.879904 65.339 132.7142
7.937005 65.436 132.6680
7.994520 65.533 132.6212
8.052452 65.630 132.5740
8.110803 65.727 132.5267
8.169578 65.824 132.4790
8.228777 65.921 132.4306
8.288406 66.018 132.3820
8.348468 66.114 132.3336
8.408964 66.211 132.2850
8.469899 66.308 132.2358
8.531276 66.405 132.1860
8.593097 66.502 132.1357
8.655366 66.599 132.0850
8.718086 66.696 132.0341
8.781260 66.793 131.9830
8.844893 66.890 131.9317
8.908987 66.987 131.8800
8.973545 67.084 131.8278
9.038571 67.181 131.7750
9.104069 67.278 131.7216
9.170040 67.375 131.6680
9.236490 67.472 131.6147
9.303422 67.569 131.5610
9.370838 67.665 131.5063
9.438744 67.762 131.4510
9.507140 67.859 131.3956
9.576033 67.956 131.3400
9.645425 68.053 131.2842
9.715320 68.150 131.2280
9.785721 68.247 131.1713
9.856632 68.344 131.1140
9.928058 68.441 131.0562
10.000000 68.538 130.9980
10.072464 68.635 130.9397
10.145453 68.732 130.8811
10.218971 68.829 130.8218
10.293022 68.926 130.7620
10.367610 69.023 130.7018
10.442738 69.120 130.6410
10.518411 69.216 130.5797
10.594631 69.313 130.5180
10.671404 69.410 130.4562
10.748734 69.507 130.3940
10.826623 69.604 130.3313
10.905077 69.701 130.2681
10.984100 69.798 130.2043
11.063695 69.895 130.1400
11.143867 69.992 130.0752
11.224621 70.089 130.0100
11.305959 70.186 129.9448
11.387886 70.283 129.8790
11.470407 70.380 129.8123
11.553527 70.477 129.7450
11.637249 70.574 129.6778
11.721577 70.671 129.6101
11.806517 70.767 129.5413
11.892071 70.864 129.4721
11.978246 70.961 129.4028
12.065045 71.058 129.3330
12.152473 71.155 129.2623
12.240536 71.252 129.1910
12.329235 71.349 129.1192
12.418578 71.446 129.0471
12.508568 71.543 128.9748
12.599211 71.640 128.9020
12.690510 71.737 128.8284
12.782471 71.834 128.7541
12.875097 71.931 128.6793
12.968395 72.028 128.6041
13.062370 72.125 128.5284
13.157025 72.222 128.4520
13.252366 72.318 128.3748
13.348398 72.415 128.2971
13.445127 72.512 128.2188
13.542556 72.609 128.1401
13.640691 72.706 128.0608
13.739536 72.803 127.9810
13.839099 72.900 127.9009
13.939383 72.997 127.8201
14.040393 73.094 127.7384
14.142136 73.191 127.6560
14.244616 73.288 127.5733
14.347837 73.385 127.4900
14.451808 73.482 127.4063
14.556532 73.579 127.3220
14.662014 73.676 127.2369
14.768262 73.773 127.1511
14.875278 73.869 127.0644
14.983070 73.966 126.9771
15.091644 74.063 126.8894
15.201005 74.160 126.8011
15.311157 74.257 126.7119
15.422109 74.354 126.6221
15.533863 74.451 126.5314
15.646428 74.548 126.4401
15.759809 74.645 126.3484
15.874010 74.742 126.2561
15.989040 74.839 126.1629
16.104904 74.936 126.0691
16.221605 75.033 125.9744
16.339155 75.130 125.8791
16.457554 75.227 125.7834
16.576813 75.324 125.6871
16.696936 75.420 125.5899
16.817928 75.517 125.4921
16.939798 75.614 125.3935
17.062551 75.711 125.2941
17.186193 75.808 125.1940
17.310732 75.905 125.0931
17.436172 76.002 124.9914
17.562521 76.099 124.8891
17.689787 76.196 124.7865
17.817974 76.293 124.6831
17.947090 76.390 124.5785
18.077143 76.487 124.4731
18.208138 76.584 124.3673
18.340080 76.681 124.2611
18.472980 76.777 124.1544
18.606844 76.874 124.0471
18.741676 76.971 123.9389
18.877487 77.068 123.8301
19.014280 77.165 123.7209
19.152065 77.262 123.6111
19.290850 77.359 123.5007
19.430639 77.456 123.3901
19.571442 77.553 123.2797
19.713264 77.650 123.1701
19.856115 77.746 123.0622
20.000000 77.843 122.9561
20.144928 77.940 122.8524
20.290907 78.038 122.7501
20.437943 78.138 122.6495
20.586044 78.239 122.5471
20.735220 78.341 122.4410
20.885475 78.445 122.3261
21.036821 78.551 122.1969
21.189262 78.658 122.0532
21.342808 78.763 121.8920
21.497467 78.867 121.7172
21.653246 78.968 121.5302
21.810154 79.067 121.3353
21.968201 79.163 121.1348
22.127390 79.256 120.9362
22.287735 79.345 120.7467
22.449242 79.432 120.5701
22.611917 79.518 120.4148
22.775772 79.604 120.2752
22.940815 79.693 120.1502
23.107054 79.785 120.0341
23.274498 79.878 119.9230
23.443153 79.974 119.8112
23.613033 80.073 119.6935
23.784142 80.175 119.5651
23.956491 80.277 119.4188
24.130091 80.380 119.2562
24.304947 80.481 119.0756
24.481071 80.581 118.8793
24.658470 80.678 118.6669
24.837156 80.773 118.4443
25.017136 80.863 118.2141
25.198421 80.948 117.9852
25.381020 81.028 117.7651
25.564941 81.104 117.5612
25.750195 81.176 117.3816
25.936790 81.246 117.2312
26.124741 81.313 117.1166
26.314051 81.381 117.0401
26.504732 81.450 117.0077
26.696796 81.522 117.0140
26.890253 81.600 117.0599
27.085112 81.685 117.1319
27.281382 81.780 117.2211
27.479073 81.884 117.3139
27.678198 81.997 117.3971
27.878765 82.119 117.4599
28.080786 82.247 117.4885
28.284271 82.381 117.4790
28.489231 82.518 117.4222
28.695675 82.656 117.3212
28.903616 82.792 117.1740
29.113064 82.927 116.9873
29.324028 83.059 116.7639
29.536524 83.189 116.5123
29.750557 83.313 116.2396
29.966141 83.434 115.9523
30.183289 83.551 115.6598
30.402010 83.667 115.3614
30.622314 83.781 115.0609
30.844217 83.894 114.7544
31.067726 84.007 114.4392
31.292856 84.119 114.1155
31.519617 84.228 113.7812
31.748020 84.336 113.4394
31.978081 84.441 113.0934
32.209808 84.545 112.7415
32.443211 84.648 112.3819
32.678310 84.749 112.0175
32.915108 84.846 111.6493
33.153625 84.941 111.2814
33.393871 85.033 110.9181
33.635857 85.123 110.5595
33.879597 85.212 110.2070
34.125103 85.301 109.8615
34.372387 85.387 109.5249
34.621464 85.473 109.1955
34.872345 85.560 108.8731
35.125042 85.647 108.5554
35.379574 85.734 108.2400
35.635948 85.821 107.9264
35.894180 85.909 107.6149
36.154285 85.997 107.3005
36.416275 86.087 106.9776
36.680161 86.176 106.6475
36.945961 86.263 106.3084
37.213688 86.349 105.9645
37.483353 86.433 105.6186
37.754974 86.515 105.2725
38.028561 86.596 104.9287
38.304131 86.675 104.5884
38.581699 86.753 104.2535
38.861279 86.829 103.9255
39.142883 86.904 103.6071
39.426529 86.979 103.2974
39.712231 87.055 102.9972
40.000000 87.131 102.7034
40.289856 87.208 102.4133
40.581814 87.285 102.1274
40.875885 87.362 101.8456
41.172089 87.439 101.5674
41.470440 87.517 101.2936
41.770950 87.597 101.0204
42.073643 87.678 100.7444
42.378525 87.760 100.4664
42.685616 87.841 100.1858
42.994934 87.922 99.9034
43.306492 88.004 99.6207
43.620308 88.087 99.3344
43.936401 88.171 99.0416
44.254780 88.256 98.7425
44.575470 88.341 98.4357
44.898483 88.425 98.1225
45.223835 88.508 97.8038
45.551544 88.591 97.4795
45.881630 88.675 97.1501
46.214108 88.759 96.8145
46.548996 88.842 96.4716
46.886307 88.924 96.1216
47.226067 89.006 95.7646
47.568283 89.088 95.3996
47.912983 89.169 95.0254
48.260181 89.250 94.6416
48.609894 89.329 94.2466
48.962143 89.406 93.8426
49.316940 89.480 93.4301
49.674313 89.552 93.0137
50.034271 89.620 92.5977
50.396843 89.686 92.1836
50.762039 89.750 91.7743
51.129883 89.813 91.3697
51.500389 89.873 90.9699
51.873581 89.932 90.5767
52.249481 89.989 90.1924
52.628101 90.045 89.8146
53.009464 90.101 89.4419
53.393593 90.156 89.0736
53.780506 90.208 88.7062
54.170223 90.258 88.3466
54.562763 90.305 88.0002
54.958145 90.351 87.6675
55.356396 90.395 87.3508
55.757530 90.439 87.0505
56.161572 90.482 86.7670
56.568542 90.524 86.5024
56.978462 90.565 86.2598
57.391350 90.607 86.0374
57.807232 90.650 85.8344
58.226128 90.694 85.6513
58.648056 90.738 85.4889
59.073048 90.785 85.3462
59.501114 90.834 85.2239
59.932281 90.887 85.1182
60.366577 90.943 85.0259
60.804020 91.003 84.9451
61.244629 91.067 84.8750
61.688435 91.135 84.8091
62.135452 91.209 84.7425
62.585712 91.287 84.6701
63.039234 91.369 84.5849
63.496040 91.455 84.4882
63.956161 91.542 84.3798
64.419617 91.633 84.2572
64.886421 91.727 84.1175
65.356621 91.824 83.9613
65.830215 91.920 83.7878
66.307251 92.018 83.5984
66.787743 92.118 83.3953
67.271713 92.220 83.1744
67.759193 92.324 82.9330
68.250206 92.430 82.6695
68.744774 92.536 82.3815
69.242928 92.643 82.0686
69.744690 92.749 81.7293
70.250084 92.855 81.3647
70.759148 92.959 80.9743
71.271896 93.062 80.5618
71.788361 93.162 80.1296
72.308571 93.260 79.6809
72.832550 93.355 79.2186
73.360321 93.447 78.7449
73.891922 93.537 78.2634
74.427376 93.626 77.7729
74.966705 93.713 77.2735
75.509949 93.799 76.7659
76.057121 93.882 76.2508
76.608261 93.963 75.7290
77.163399 94.042 75.2015
77.722557 94.120 74.6681
78.285767 94.195 74.1289
78.853058 94.269 73.5851
79.424461 94.340 73.0372
80.000000 94.410 72.4871
80.579712 94.476 71.9370
81.163628 94.541 71.3871
81.751770 94.604 70.8383
82.344177 94.666 70.2901
82.940880 94.726 69.7413
83.541901 94.784 69.1951
84.147285 94.839 68.6542
84.757050 94.893 68.1190
85.371231 94.946 67.5913
85.989868 94.999 67.0691
86.612984 95.051 66.5507
87.240616 95.102 66.0360
87.872803 95.154 65.5255
88.509560 95.206 65.0160
89.150940 95.258 64.5049
89.796967 95.309 63.9921
90.447670 95.360 63.4765
91.103088 95.410 62.9581
91.763260 95.459 62.4366
92.428215 95.508 61.9121
93.097992 95.555 61.3840
93.772614 95.601 60.8541
94.452133 95.645 60.3242
95.136566 95.688 59.7941
95.825966 95.731 59.2642
96.520363 95.772 58.7352
97.219788 95.811 58.2071
97.924286 95.848 57.6821
98.633881 95.884 57.1628
99.348625 95.920 56.6471
100.068542 95.956 56.1337
100.793686 95.991 55.6233
101.524078 96.024 55.1162
102.259766 96.057 54.6112
103.000778 96.091 54.1082
103.747162 96.124 53.6050
104.498962 96.156 53.0982
105.256203 96.187 52.5910
106.018929 96.215 52.0848
106.787186 96.242 51.5810
107.561012 96.269 51.0814
108.340446 96.295 50.5858
109.125526 96.319 50.0936
109.916290 96.341 49.6069
110.712791 96.362 49.1274
111.515060 96.382 48.6560
112.323143 96.402 48.1945
113.137085 96.421 47.7410
113.956924 96.440 47.2939
114.782700 96.459 46.8531
115.614464 96.478 46.4172
116.452255 96.496 45.9878
117.296112 96.513 45.5667
118.146095 96.531 45.1529
119.002228 96.550 44.7459
119.864563 96.569 44.3451
120.733154 96.587 43.9490
121.608040 96.606 43.5588
122.489258 96.624 43.1765
123.376869 96.644 42.7989
124.270905 96.666 42.4238
125.171425 96.689 42.0507
126.078468 96.712 41.6784
126.992081 96.735 41.3068
127.912323 96.759 40.9369
128.839233 96.785 40.5638
129.772842 96.813 40.1823
130.713242 96.842 39.7938
131.660431 96.869 39.3969
132.614502 96.896 38.9941
133.575485 96.922 38.5879
134.543427 96.948 38.1768
135.518387 96.974 37.7598
136.500412 97.000 37.3388
137.489548 97.023 36.9150
138.485855 97.045 36.4901
139.489380 97.067 36.0661
140.500168 97.088 35.6429
141.518295 97.109 35.2210
142.543793 97.129 34.8001
143.576721 97.149 34.3809
144.617142 97.169 33.9609
145.665100 97.190 33.5376
146.720642 97.210 33.1112
147.783844 97.229 32.6806
148.854752 97.247 32.2471
149.933411 97.265 31.8116
151.019897 97.282 31.3751
152.114243 97.297 30.9392
153.216522 97.311 30.5042
154.326797 97.325 30.0706
155.445114 97.338 29.6390
156.571533 97.349 29.2097
157.706116 97.360 28.7840
158.848923 97.371 28.3641
160.000000 97.381 27.9480
161.159424 97.391 27.5354
162.327255 97.402 27.1239
163.503540 97.414 26.7114
164.688354 97.426 26.2969
165.881760 97.437 25.8781
167.083801 97.447 25.4571
168.294571 97.456 25.0354
169.514099 97.465 24.6120
170.742462 97.474 24.1865
171.979736 97.482 23.7592
173.225967 97.488 23.3292
174.481232 97.493 22.9000
175.745605 97.496 22.4743
177.019119 97.498 22.0530
178.301880 97.499 21.6382
179.593933 97.500 21.2290
180.895340 97.500 20.8259
182.206177 97.500 20.4279
183.526520 97.500 20.0344
184.856430 97.500 19.6449
186.195984 97.500 19.2590
187.545227 97.500 18.8759
188.904266 97.500 18.4945
190.273132 97.500 18.1149
191.651932 97.500 17.7369
193.040726 97.500 17.3600
194.439575 97.500 16.9842
195.848572 97.500 16.6091
197.267761 97.500 16.2346
198.697250 97.500 15.8599
200.137085 97.500 15.4846
201.587372 97.500 15.1079
203.048157 97.500 14.7292
204.519531 97.500 14.3481
206.001556 97.499 13.9640
207.494324 97.498 13.5770
208.997925 97.496 13.1860
210.512405 97.493 12.7939
212.037857 97.488 12.4022
213.574371 97.482 12.0139
215.122025 97.474 11.6332
216.680893 97.465 11.2590
218.251053 97.457 10.8919
219.832581 97.449 10.5310
221.425583 97.440 10.1762
223.030121 97.432 9.8259
224.646286 97.426 9.4801
226.274170 97.421 9.1339
227.913849 97.417 8.7825
229.565399 97.414 8.4249
231.228928 97.411 8.0579
232.904510 97.407 7.6831
234.592224 97.402 7.3002
236.292191 97.395 6.9130
238.004456 97.387 6.5253
239.729126 97.377 6.1371
241.466309 97.367 5.7488
243.216080 97.356 5.3620
244.978516 97.343 4.9778
246.753738 97.328 4.5981
248.541809 97.313 4.2271
250.342850 97.298 3.8590
252.156937 97.285 3.4895
253.984161 97.272 3.1190
255.824646 97.256 2.7462
257.678467 97.240 2.3729
259.545685 97.224 2.0017
261.426483 97.207 1.6299
263.320862 97.190 1.2550
265.229004 97.172 0.8790
267.150970 97.152 0.5031
269.086853 97.130 0.1281
271.036774 97.109 -0.2453
273.000824 97.086 -0.6159
274.979095 97.061 -0.9825
276.971710 97.035 -1.3439
278.978760 97.008 -1.6977
281.000336 96.981 -2.0471
283.036591 96.954 -2.3956
285.087585 96.927 -2.7400
287.153442 96.897 -3.0775
289.234283 96.867 -3.4101
291.330200 96.839 -3.7376
293.441284 96.811 -4.0641
295.567688 96.782 -4.3954
297.709503 96.752 -4.7271
299.866821 96.720 -5.0566
302.039795 96.687 -5.3840
304.228485 96.654 -5.7087
306.433044 96.619 -6.0301
308.653595 96.583 -6.3487
310.890228 96.545 -6.6611
313.143066 96.505 -6.9644
315.412231 96.464 -7.2582
317.697845 96.422 -7.5413
320.000000 96.380 -7.8142
322.318848 96.337 -8.0767
324.654510 96.294 -8.3292
327.007080 96.251 -8.5719
329.376709 96.208 -8.8053
331.763519 96.165 -9.0299
334.167603 96.122 -9.2453
336.589142 96.079 -9.4514
339.028198 96.036 -9.6484
341.484924 95.994 -9.8364
343.959473 95.952 -10.0155
346.451935 95.911 -10.1853
348.962463 95.870 -10.3486
351.491211 95.832 -10.5067
354.038239 95.795 -10.6635
356.603760 95.760 -10.8238
359.187866 95.725 -10.9865
361.790680 95.691 -11.1520
364.412354 95.656 -11.3205
367.053040 95.622 -11.4926
369.712860 95.587 -11.6675
372.391968 95.551 -11.8455
375.090454 95.514 -12.0235
377.808533 95.476 -12.1984
380.546265 95.436 -12.3695
383.303864 95.396 -12.5350
386.081451 95.355 -12.6945
388.879150 95.313 -12.8476
391.697144 95.270 -12.9936
394.535522 95.228 -13.1309
397.394501 95.186 -13.2616
400.274170 95.144 -13.3881
403.174744 95.102 -13.5086
406.096313 95.059 -13.6225
409.039062 95.015 -13.7287
412.003113 94.972 -13.8253
414.988647 94.929 -13.9137
417.995850 94.887 -13.9946
421.024811 94.845 -14.0688
424.075714 94.805 -14.1372
427.148743 94.765 -14.2008
430.244049 94.725 -14.2603
433.361786 94.686 -14.3168
436.502106 94.649 -14.3711
439.665161 94.612 -14.4248
442.851166 94.576 -14.4803
446.060242 94.540 -14.5368
449.292572 94.503 -14.5959
452.548340 94.466 -14.6538
455.827698 94.428 -14.7074
459.130798 94.389 -14.7559
462.457855 94.351 -14.7974
465.809021 94.312 -14.8319
469.184448 94.273 -14.8582
472.584381 94.234 -14.8779
476.008911 94.198 -14.8917
479.458252 94.162 -14.9020
482.932617 94.127 -14.9114
486.432159 94.093 -14.9210
489.957031 94.059 -14.9322
493.507477 94.026 -14.9460
497.083618 93.994 -14.9631
500.685699 93.961 -14.9849
504.313873 93.929 -15.0149
507.968323 93.894 -15.0479
511.649292 93.856 -15.0821
515.356934 93.814 -15.1109
519.091370 93.771 -15.1284
522.852966 93.725 -15.1300
526.641724 93.676 -15.1118
530.458008 93.624 -15.0662
534.301941 93.570 -14.9854
538.173706 93.516 -14.8665
542.073547 93.463 -14.7021
546.001648 93.413 -14.4978
549.958191 93.369 -14.2526
553.943420 93.332 -13.9779
557.957520 93.304 -13.6800
562.000671 93.285 -13.3730
566.073181 93.277 -13.0699
570.175171 93.277 -12.7809
574.306885 93.286 -12.5195
578.468567 93.301 -12.2897
582.660400 93.322 -12.0993
586.882568 93.347 -11.9504
591.135376 93.374 -11.8491
595.419006 93.403 -11.7911
599.733643 93.430 -11.7755
604.079590 93.457 -11.7979
608.456970 93.482 -11.8534
612.866089 93.505 -11.9426
617.307190 93.527 -12.0647
621.780457 93.547 -12.2184
626.286133 93.563 -12.4035
630.824463 93.576 -12.6172
635.395691 93.584 -12.8584
640.000000 93.587 -13.1231
644.637695 93.584 -13.4117
649.309021 93.573 -13.7100
654.014160 93.551 -14.0079
658.753418 93.521 -14.2931
663.527039 93.483 -14.5520
668.335205 93.439 -14.7773
673.178284 93.389 -14.9585
678.056396 93.335 -15.0916
682.969849 93.280 -15.1662
687.918945 93.226 -15.1920
692.903870 93.178 -15.1706
697.924927 93.136 -15.1162
702.982422 93.100 -15.0398
708.076477 93.071 -14.9523
713.207520 93.050 -14.8653
718.375732 93.035 -14.7882
723.581360 93.027 -14.7341
728.824707 93.022 -14.7041
734.106079 93.018 -14.7043
739.425720 93.015 -14.7328
744.783936 93.013 -14.7907
750.180908 93.011 -14.8747
755.617065 93.005 -14.9829
761.092529 92.997 -15.1115
766.607727 92.986 -15.2566
772.162903 92.973 -15.4164
777.758301 92.957 -15.5899
783.394287 92.937 -15.7714
789.071045 92.912 -15.9563
794.789001 92.884 -16.1404
800.548340 92.852 -16.3170
806.349487 92.818 -16.4874
812.192627 92.782 -16.6508
818.078125 92.744 -16.8064
824.006226 92.703 -16.9531
829.977295 92.660 -17.0915
835.991699 92.617 -17.2219
842.049622 92.573 -17.3446
848.151428 92.527 -17.4607
854.297485 92.478 -17.5686
860.488098 92.428 -17.6668
866.723572 92.377 -17.7557
873.004211 92.325 -17.8354
879.330322 92.272 -17.9048
885.702332 92.216 -17.9632
892.120483 92.159 -18.0089
898.585144 92.101 -18.0385
905.096680 92.042 -18.0560
911.655396 91.985 -18.0642
918.261597 91.927 -18.0630
924.915710 91.867 -18.0547
931.618042 91.806 -18.0351
938.368896 91.744 -18.0002
945.168762 91.680 -17.9512
952.017822 91.617 -17.8889
958.916504 91.552 -17.8113
965.865234 91.486 -17.7174
972.864319 91.419 -17.6054
979.914062 91.353 -17.4720
987.014954 91.287 -17.3206
994.167236 91.222 -17.1538
1001.371399 91.158 -16.9717
1008.627747 91.094 -16.7749
1015.936646 91.031 -16.5639
1023.298584 90.970 -16.3390
1030.713867 90.909 -16.1018
1038.182739 90.849 -15.8554
1045.705933 90.789 -15.5961
1053.283447 90.729 -15.3207
1060.916016 90.669 -15.0303
1068.603882 90.612 -14.7251
1076.347412 90.555 -14.4053
1084.147095 90.499 -14.0713
1092.003296 90.444 -13.7222
1099.916382 90.392 -13.3554
1107.886841 90.341 -12.9766
1115.915039 90.294 -12.5911
1124.001343 90.249 -12.1985
1132.146362 90.204 -11.7997
1140.350342 90.161 -11.3956
1148.613770 90.121 -10.9868
1156.937134 90.083 -10.5747
1165.320801 90.045 -10.1620
1173.765137 90.007 -9.7449
1182.270752 89.970 -9.3206
1190.838013 89.932 -8.8888
1199.467285 89.895 -8.4498
1208.159180 89.857 -7.9978
1216.913940 89.818 -7.5274
1225.732178 89.778 -7.0378
1234.614380 89.741 -6.5267
1243.560913 89.705 -5.9940
1252.572266 89.670 -5.4406
1261.648926 89.636 -4.8624
1270.791382 89.605 -4.2537
1280.000000 89.577 -3.6205
1289.275391 89.555 -2.9668
1298.618042 89.538 -2.2938
1308.028320 89.524 -1.6039
1317.506836 89.515 -0.8991
1327.054077 89.513 -0.1796
1336.670410 89.517 0.5472
1346.356567 89.528 1.2748
1356.112793 89.546 2.0003
1365.939697 89.569 2.7196
1375.837891 89.598 3.4301
1385.807739 89.632 4.1292
1395.849854 89.672 4.8123
1405.964844 89.717 5.4737
1416.152954 89.767 6.1137
1426.415039 89.819 6.7306
1436.751465 89.874 7.3248
1447.162720 89.932 7.8962
1457.649414 89.992 8.4448
1468.212158 90.053 8.9698
1478.851440 90.116 9.4731
1489.567871 90.179 9.9561
1500.361816 90.242 10.4203
1511.234131 90.305 10.8664
1522.185059 90.369 11.2971
1533.215454 90.432 11.7145
1544.325806 90.494 12.1212
1555.516602 90.555 12.5192
1566.788574 90.616 12.9123
1578.142090 90.675 13.3038
1589.578003 90.734 13.6973
1601.096680 90.792 14.0975
1612.698975 90.851 14.5053
1624.385254 90.910 14.9233
1636.156250 90.972 15.3511
1648.012451 91.035 15.7899
1659.954590 91.101 16.2373
1671.983398 91.171 16.6927
1684.099243 91.246 17.1521
1696.302856 91.324 17.6132
1708.594971 91.408 18.0710
1720.976196 91.497 18.5209
1733.447144 91.591 18.9591
1746.008423 91.688 19.3807
1758.660645 91.790 19.7844
1771.404663 91.894 20.1675
1784.240967 92.002 20.5296
1797.170288 92.112 20.8679
1810.193359 92.225 21.1858
1823.310791 92.336 21.4850
1836.523193 92.450 21.7679
1849.831421 92.565 22.0376
1863.236084 92.681 22.2939
1876.737793 92.800 22.5372
1890.337524 92.920 22.7690
1904.035645 93.043 22.9902
1917.833008 93.167 23.2022
1931.730469 93.292 23.4076
1945.728638 93.420 23.6042
1959.828125 93.554 23.7917
1974.029907 93.692 23.9663
1988.334473 93.835 24.1249
2002.742798 93.982 24.2655
2017.255493 94.134 24.3871
2031.873291 94.291 24.4827
2046.597168 94.457 24.5482
2061.427734 94.628 24.5740
2076.365479 94.805 24.5500
2091.411865 94.986 24.4724
2106.566895 95.171 24.3359
2121.832031 95.359 24.1350
2137.207764 95.550 23.8614
2152.694824 95.740 23.5185
2168.294189 95.926 23.1055
2184.006592 96.108 22.6273
2199.832764 96.288 22.0878
2215.773682 96.462 21.4896
2231.830078 96.631 20.8328
2248.002686 96.792 20.1290
2264.292725 96.945 19.3875
2280.700684 97.090 18.6154
2297.227539 97.229 17.8228
2313.874268 97.362 17.0104
2330.641602 97.491 16.1807
2347.530273 97.613 15.3376
2364.541504 97.730 14.4858
2381.676025 97.842 13.6259
2398.934570 97.953 12.7611
2416.318359 98.060 11.8889
2433.827881 98.163 11.0085
2451.464355 98.265 10.1177
2469.228760 98.365 9.2142
2487.121826 98.463 8.2980
2505.144531 98.557 7.3677
2523.297852 98.648 6.4253
2541.582764 98.736 5.4734
2560.000000 98.822 4.5093
2578.550781 98.907 3.5322
2597.236084 98.991 2.5386
2616.056641 99.072 1.5236
2635.013672 99.151 0.4904
2654.108154 99.226 -0.5581
2673.340820 99.299 -1.6253
2692.713135 99.371 -2.7133
2712.225586 99.440 -3.8227
2731.879395 99.504 -4.9561
2751.675781 99.565 -6.1096
2771.615479 99.622 -7.2794
2791.699707 99.676 -8.4687
2811.929688 99.727 -9.6794
2832.305908 99.775 -10.9122
2852.830078 99.818 -12.1671
2873.502930 99.859 -13.4474
2894.325439 99.897 -14.7543
2915.298828 99.931 -16.0938
2936.424316 99.961 -17.4738
2957.702881 99.984 -18.8897
2979.135742 99.998 -20.3413
3000.723633 100.003 -21.8235
3022.468262 99.999 -23.3318
3044.370117 99.986 -24.8629
3066.430908 99.962 -26.4160
3088.651611 99.926 -27.9810
3111.033203 99.877 -29.5492
3133.577148 99.816 -31.1146
3156.284180 99.744 -32.6691
3179.156006 99.659 -34.2097
3202.193359 99.564 -35.7326
3225.397949 99.457 -37.2319
3248.770508 99.337 -38.7021
3272.312500 99.207 -40.1386
3296.024902 99.066 -41.5368
3319.909180 98.914 -42.8918
3343.966797 98.750 -44.2003
3368.198486 98.575 -45.4532
3392.605713 98.388 -46.6416
3417.189941 98.191 -47.7610
3441.952393 97.986 -48.8065
3466.894287 97.771 -49.7709
3492.016846 97.547 -50.6488
3517.321289 97.314 -51.4296
3542.809326 97.073 -52.1016
3568.481934 96.827 -52.6617
3594.340576 96.579 -53.1015
3620.386719 96.331 -53.4257
3646.621582 96.084 -53.6354
3673.046387 95.839 -53.7338
3699.662842 95.599 -53.7201
3726.472168 95.367 -53.6077
3753.475586 95.146 -53.4045
3780.675049 94.936 -53.1264
3808.071289 94.738 -52.7901
3835.666016 94.550 -52.4020
3863.460938 94.372 -51.9736
3891.457275 94.203 -51.5063
3919.656250 94.041 -51.0089
3948.059814 93.885 -50.4696
3976.668945 93.730 -49.8833
4005.485596 93.579 -49.2383
4034.510986 93.433 -48.5231
4063.746582 93.293 -47.7320
4093.194336 93.159 -46.8556
4122.855469 93.036 -45.8929
4152.730957 92.925 -44.8349
4182.823730 92.833 -43.6966
4213.133789 92.764 -42.4804
4243.664062 92.720 -41.2151
4274.415527 92.706 -39.9213
4305.389648 92.721 -38.6263
4336.588379 92.765 -37.3567
4368.013184 92.837 -36.1357
4399.665527 92.936 -34.9897
4431.547363 93.057 -33.9349
4463.660156 93.199 -32.9956
4496.005371 93.356 -32.1738
4528.585449 93.525 -31.4828
4561.401367 93.702 -30.9134
4594.455078 93.883 -30.4648
4627.748535 94.067 -30.1244
4661.283203 94.254 -29.8833
4695.060547 94.443 -29.7305
4729.083008 94.634 -29.6518
4763.352051 94.831 -29.6478
4797.869141 95.035 -29.7078
4832.636719 95.251 -29.8520
4867.655762 95.482 -30.0869
4902.928711 95.728 -30.4449
4938.457520 95.988 -30.9501
4974.243652 96.260 -31.6353
5010.289062 96.540 -32.5325
5046.595703 96.822 -33.6677
5083.165527 97.100 -35.0795
5120.000000 97.364 -36.7611
5157.101562 97.601 -38.7320
5194.472168 97.804 -40.9506
5232.113281 97.966 -43.4037
5270.027344 98.080 -46.0245
5308.216309 98.137 -48.7672
5346.681641 98.140 -51.5544
5385.426270 98.086 -54.3143
5424.451172 97.979 -56.9843
5463.758789 97.819 -59.4894
5503.351562 97.617 -61.7943
5543.230957 97.377 -63.8386
5583.399414 97.111 -65.6219
5623.859375 96.829 -67.1171
5664.611816 96.537 -68.3456
5705.660156 96.246 -69.3097
5747.005859 95.961 -70.0418
5788.650879 95.692 -70.5626
5830.597656 95.440 -70.9086
5872.848633 95.211 -71.1147
5915.405762 95.004 -71.2068
5958.271484 94.818 -71.2141
6001.447266 94.656 -71.1614
6044.936523 94.519 -71.0768
6088.740234 94.403 -70.9785
6132.861816 94.304 -70.8910
6177.303223 94.223 -70.8233
6222.066406 94.158 -70.7899
6267.154297 94.106 -70.7988
6312.568359 94.065 -70.8639
6358.312012 94.030 -70.9813
6404.386719 93.999 -71.1552
6450.795898 93.971 -71.3748
6497.541016 93.942 -71.6335
6544.625000 93.914 -71.9215
6592.049805 93.886 -72.2296
6639.818359 93.858 -72.5493
6687.933594 93.830 -72.8688
6736.396973 93.806 -73.1884
6785.211426 93.788 -73.4973
6834.379883 93.780 -73.8173
6883.904785 93.787 -74.1567
6933.788574 93.809 -74.5458
6984.033691 93.846 -75.0087
7034.642578 93.896 -75.5729
7085.618652 93.959 -76.2675
7136.963867 94.029 -77.1123
7188.681152 94.101 -78.1368
7240.773438 94.170 -79.3415
7293.243164 94.229 -80.7436
7346.092773 94.272 -82.3226
7399.325684 94.290 -84.0745
7452.944336 94.281 -85.9662
7506.951172 94.240 -87.9738
7561.350098 94.166 -90.0661
7616.142578 94.057 -92.2141
7671.332031 93.910 -94.3858
7726.921875 93.725 -96.5528
7782.914551 93.501 -98.6752
7839.312500 93.235 -100.7196
7896.119629 92.930 -102.6413
7953.337891 92.585 -104.3993
8010.971191 92.202 -105.9494
8069.021973 91.782 -107.2459
8127.493164 91.329 -108.2515
8186.388672 90.849 -108.9194
8245.710938 90.349 -109.2333
8305.461914 89.834 -109.1552
8365.647461 89.320 -108.7044
8426.267578 88.819 -107.8703
8487.328125 88.341 -106.7050
8548.831055 87.901 -105.2373
8610.779297 87.505 -103.5266
8673.176758 87.164 -101.6222
8736.026367 86.878 -99.5833
8799.331055 86.655 -97.4689
8863.094727 86.490 -95.3293
8927.320312 86.381 -93.2250
8992.010742 86.321 -91.1836
9057.170898 86.305 -89.2480
9122.802734 86.328 -87.4313
9188.910156 86.384 -85.7599
9255.497070 86.468 -84.2358
9322.566406 86.574 -82.8688
9390.121094 86.700 -81.6619
9458.166016 86.847 -80.6173
9526.704102 87.011 -79.7471
9595.738281 87.192 -79.0591
9665.273438 87.386 -78.5690
9735.311523 87.593 -78.2895
9805.857422 87.807 -78.2386
9876.915039 88.025 -78.4361
9948.487305 88.239 -78.8898
10020.578125 88.443 -79.6202
10093.191406 88.628 -80.6099
10166.331055 88.786 -81.8652
10240.000000 88.909 -83.3357
10314.203125 88.987 -84.9985
10388.944336 89.018 -86.7764
10464.226562 88.995 -88.6122
10540.054688 88.920 -90.4215
10616.432617 88.788 -92.1245
10693.363281 88.609 -93.6496
10770.852539 88.385 -94.9040
10848.902344 88.133 -95.8736
10927.517578 87.867 -96.4988
11006.703125 87.602 -96.8260
11086.461914 87.355 -96.8544
11166.798828 87.137 -96.6675
11247.718750 86.967 -96.3148
11329.223633 86.844 -95.8992
11411.320312 86.782 -95.5153
11494.011719 86.765 -95.2381
11577.301758 86.788 -95.1659
11661.195312 86.835 -95.3224
11745.697266 86.892 -95.7691
11830.811523 86.948 -96.4893
11916.542969 86.986 -97.5009
12002.894531 87.000 -98.7604
12089.873047 86.977 -100.2494
12177.480469 86.912 -101.9102
12265.723633 86.797 -103.7010
12354.606445 86.629 -105.5539
12444.132812 86.403 -107.4238
12534.308594 86.114 -109.1998
12625.136719 85.751 -110.8028
12716.624023 85.318 -112.0922
12808.773438 84.814 -112.9453
12901.591797 84.245 -113.2293
12995.082031 83.609 -112.7924
13089.250000 82.935 -111.5663
13184.099609 82.235 -109.4019
13279.636719 81.564 -106.3936
13375.867188 80.963 -102.5006
13472.793945 80.492 -97.9821
13570.422852 80.230 -92.9865
13668.759766 80.173 -87.8088
13767.809570 80.358 -82.7173
13867.577148 80.736 -77.9443
13968.067383 81.290 -73.7704
14069.285156 81.954 -70.3183
14171.237305 82.669 -67.8188
14273.927734 83.401 -66.2260
14377.362305 84.098 -65.6238
14481.546875 84.749 -65.8479
14586.486328 85.327 -66.8112
14692.185547 85.836 -68.3615
14798.651367 86.272 -70.3541
14905.888672 86.638 -72.6787
15013.902344 86.933 -75.1999
15122.700195 87.167 -77.8488
15232.285156 87.346 -80.5206
15342.664062 87.477 -83.1889
15453.843750 87.566 -85.7916
15565.829102 87.624 -88.3314
15678.625000 87.660 -90.7781
15792.239258 87.681 -93.1702
15906.675781 87.694 -95.5222
16021.942383 87.698 -97.8762
16138.043945 87.698 -100.2729
16254.986328 87.686 -102.7315
16372.777344 87.658 -105.2900
16491.421875 87.607 -107.9321
16610.923828 87.528 -110.6691
16731.294922 87.413 -113.4547
16852.535156 87.255 -116.2671
16974.656250 87.053 -119.0424
17097.662109 86.802 -121.7210
17221.558594 86.509 -124.2660
17346.353516 86.178 -126.6197
17472.052734 85.817 -128.7854
17598.662109 85.432 -130.7406
17726.189453 85.029 -132.5063
17854.640625 84.616 -134.0900
17984.021484 84.193 -135.5105
18114.341797 83.767 -136.7940
18245.605469 83.332 -137.9270
18377.820312 82.883 -138.9183
18510.994141 82.421 -139.7269
18645.132812 81.940 -140.3300
18780.242188 81.442 -140.6809
18916.332031 80.922 -140.7311
19053.408203 80.393 -140.4635
19191.476562 79.858 -139.8297
19330.546875 79.335 -138.8740
19470.623047 78.842 -137.5997
19611.714844 78.387 -136.0842
19753.830078 77.984 -134.3817
19896.974609 77.635 -132.5662
