* Measurement data measured by REW V5.20.13
* Source: C:\Users\kurin\Desktop\Targets and Curves\Resolve\Img\Lecram\Abyss AB1266_SPL.txt
* Format: Comma/Tab/Space delimited data
* Dated: Aug 15, 2023 3:15:47 PM
* REW Settings:
*  C-weighting compensation: Off
*  Target level: 75.0 dB
* Note: ; Measurement imported from C:\Users\kurin\Desktop\Targets and Curves\Resolve\Img\Lecram\Abyss AB1266_SPL.txt Format: Comma/Tab/Space delimited data 623 values loaded, 5 Hz to 39,792 Hz log spaced 
* Measurement: Abyss AB1266_SPL
* Smoothing: 1/48 octave
* Frequency Step: 1/96 octave
* Start Frequency: 5.000 Hz
*
* Freq(Hz) SPL(dB) Phase(degrees)
5.000000 78.201 73.9620
5.036232 78.227 73.9331
5.072727 78.255 73.9020
5.109486 78.287 73.8656
5.146511 78.324 73.8240
5.183805 78.368 73.7749
5.221369 78.417 73.7220
5.259205 78.467 73.6691
5.297316 78.520 73.6140
5.335702 78.576 73.5552
5.374367 78.633 73.4950
5.413311 78.689 73.4356
5.452538 78.746 73.3760
5.492050 78.803 73.3161
5.531847 78.860 73.2560
5.571934 78.916 73.1957
5.612310 78.973 73.1350
5.652979 79.030 73.0738
5.693943 79.087 73.0120
5.735204 79.143 72.9498
5.776763 79.200 72.8870
5.818624 79.257 72.8237
5.860788 79.314 72.7600
5.903258 79.371 72.6963
5.946035 79.427 72.6320
5.989123 79.483 72.5668
6.032523 79.540 72.5010
6.076237 79.597 72.4352
6.120268 79.654 72.3690
6.164618 79.710 72.3023
6.209289 79.767 72.2350
6.254284 79.824 72.1673
6.299605 79.881 72.0990
6.345255 79.937 72.0303
6.391235 79.994 71.9610
6.437549 80.051 71.8913
6.484198 80.108 71.8210
6.531185 80.165 71.7503
6.578513 80.221 71.6790
6.626183 80.277 71.6073
6.674199 80.334 71.5350
6.722563 80.391 71.4623
6.771278 80.448 71.3890
6.820345 80.504 71.3148
6.869768 80.561 71.2400
6.919549 80.618 71.1653
6.969691 80.675 71.0900
7.020196 80.731 71.0138
7.071068 80.788 70.9370
7.122308 80.845 70.8598
7.173919 80.902 70.7820
7.225904 80.959 70.7033
7.278266 81.015 70.6240
7.331007 81.071 70.5443
7.384131 81.128 70.4640
7.437639 81.185 70.3833
7.491535 81.242 70.3020
7.545822 81.298 70.2198
7.600502 81.355 70.1370
7.655579 81.412 70.0538
7.711054 81.469 69.9700
7.766932 81.525 69.8854
7.823214 81.582 69.8000
7.879904 81.639 69.7138
7.937005 81.696 69.6270
7.994520 81.753 69.5398
8.052452 81.809 69.4520
8.110803 81.865 69.3633
8.169578 81.922 69.2740
8.228777 81.979 69.1844
8.288406 82.036 69.0940
8.348468 82.092 69.0024
8.408964 82.149 68.9100
8.469899 82.206 68.8173
8.531276 82.263 68.7240
8.593097 82.319 68.6299
8.655366 82.376 68.5350
8.718086 82.433 68.4394
8.781260 82.490 68.3430
8.844893 82.547 68.2460
8.908987 82.603 68.1480
8.973545 82.659 68.0489
9.038571 82.716 67.9490
9.104069 82.773 67.8489
9.170040 82.830 67.7480
9.236490 82.886 67.6460
9.303422 82.943 67.5430
9.370838 83.000 67.4394
9.438744 83.057 67.3350
9.507140 83.114 67.2299
9.576033 83.170 67.1240
9.645425 83.226 67.0175
9.715320 83.283 66.9101
9.785721 83.340 66.8016
9.856632 83.397 66.6921
9.928058 83.453 66.5815
10.000000 83.510 66.4701
10.072464 83.567 66.3580
10.145453 83.624 66.2451
10.218971 83.680 66.1311
10.293022 83.737 66.0160
10.367610 83.794 65.8999
10.442738 83.851 65.7830
10.518411 83.908 65.6655
10.594631 83.964 65.5470
10.671404 84.020 65.4270
10.748734 84.077 65.3060
10.826623 84.134 65.1846
10.905077 84.191 65.0621
10.984100 84.247 64.9381
11.063695 84.304 64.8131
11.143867 84.361 64.6876
11.224621 84.418 64.5610
11.305959 84.474 64.4332
11.387886 84.531 64.3041
11.470407 84.588 64.1736
11.553527 84.645 64.0420
11.637249 84.702 63.9101
11.721577 84.758 63.7771
11.806517 84.814 63.6423
11.892071 84.871 63.5061
11.978246 84.928 63.3691
12.065045 84.985 63.2310
12.152473 85.041 63.0916
12.240536 85.098 62.9510
12.329235 85.155 62.8091
12.418578 85.212 62.6661
12.508568 85.268 62.5222
12.599211 85.325 62.3771
12.690510 85.382 62.2304
12.782471 85.439 62.0821
12.875097 85.496 61.9323
12.968395 85.552 61.7811
13.062370 85.608 61.6293
13.157025 85.665 61.4761
13.252366 85.722 61.3208
13.348398 85.779 61.1641
13.445127 85.835 61.0068
13.542556 85.892 60.8482
13.640691 85.949 60.6874
13.739536 86.006 60.5251
13.839099 86.062 60.3613
13.939383 86.119 60.1961
14.040393 86.176 60.0294
14.142136 86.233 59.8611
14.244616 86.290 59.6909
14.347837 86.346 59.5191
14.451808 86.402 59.3459
14.556532 86.459 59.1711
14.662014 86.516 58.9945
14.768262 86.573 58.8162
14.875278 86.629 58.6366
14.983070 86.686 58.4552
15.091644 86.743 58.2711
15.201005 86.800 58.0851
15.311157 86.856 57.8981
15.422109 86.913 57.7091
15.533863 86.970 57.5176
15.646428 87.027 57.3241
15.759809 87.084 57.1291
15.874010 87.140 56.9321
15.989040 87.196 56.7327
16.104904 87.253 56.5312
16.221605 87.310 56.3278
16.339155 87.367 56.1223
16.457554 87.423 55.9144
16.576813 87.480 55.7041
16.696936 87.537 55.4913
16.817928 87.594 55.2761
16.939798 87.650 55.0590
17.062551 87.707 54.8393
17.186193 87.764 54.6165
17.310732 87.821 54.3911
17.436172 87.878 54.1635
17.562521 87.934 53.9332
17.689787 87.990 53.7002
17.817974 88.047 53.4643
17.947090 88.104 53.2253
18.077143 88.161 52.9831
18.208138 88.217 52.7379
18.340080 88.274 52.4893
18.472980 88.331 52.2370
18.606844 88.388 51.9812
18.741676 88.444 51.7221
18.877487 88.501 51.4593
19.014280 88.558 51.1921
19.152065 88.615 50.9203
19.290850 88.671 50.6436
19.430639 88.727 50.3622
19.571442 88.783 50.0763
19.713264 88.839 49.7864
19.856115 88.895 49.4924
20.000000 88.950 49.1953
20.144928 89.004 48.8964
20.290907 89.058 48.5943
20.437943 89.114 48.2895
20.586044 89.170 47.9782
20.735220 89.226 47.6565
20.885475 89.282 47.3254
21.036821 89.337 46.9841
21.189262 89.391 46.6335
21.342808 89.444 46.2731
21.497467 89.495 45.9065
21.653246 89.542 45.5341
21.810154 89.587 45.1645
21.968201 89.628 44.8056
22.127390 89.668 44.4594
22.287735 89.708 44.1309
22.449242 89.749 43.8192
22.611917 89.790 43.5273
22.775772 89.834 43.2483
22.940815 89.884 42.9810
23.107054 89.940 42.7124
23.274498 90.002 42.4325
23.443153 90.070 42.1314
23.613033 90.143 41.7989
23.784142 90.219 41.4263
23.956491 90.299 41.0018
24.130091 90.379 40.5256
24.304947 90.456 39.9919
24.481071 90.529 39.4078
24.658470 90.597 38.7758
24.837156 90.658 38.1030
25.017136 90.711 37.3918
25.198421 90.755 36.6588
25.381020 90.786 35.9177
25.564941 90.808 35.1787
25.750195 90.823 34.4564
25.936790 90.832 33.7509
26.124741 90.835 33.0663
26.314051 90.832 32.4039
26.504732 90.826 31.7671
26.696796 90.816 31.1527
26.890253 90.805 30.5603
27.085112 90.791 29.9857
27.281382 90.776 29.4248
27.479073 90.759 28.8767
27.678198 90.739 28.3365
27.878765 90.714 27.8127
28.080786 90.683 27.3089
28.284271 90.647 26.8346
28.489231 90.607 26.3999
28.695675 90.564 26.0065
28.903616 90.519 25.6584
29.113064 90.472 25.3594
29.324028 90.423 25.1153
29.536524 90.376 24.9242
29.750557 90.334 24.7898
29.966141 90.298 24.7001
30.183289 90.269 24.6472
30.402010 90.248 24.6220
30.622314 90.235 24.6163
30.844217 90.230 24.6200
31.067726 90.235 24.6234
31.292856 90.248 24.6170
31.519617 90.268 24.5893
31.748020 90.295 24.5361
31.978081 90.326 24.4498
32.209808 90.361 24.3292
32.443211 90.399 24.1695
32.678310 90.438 23.9733
32.915108 90.475 23.7396
33.153625 90.511 23.4743
33.393871 90.545 23.1821
33.635857 90.578 22.8655
33.879597 90.608 22.5273
34.125103 90.635 22.1715
34.372387 90.658 21.8026
34.621464 90.678 21.4226
34.872345 90.697 21.0359
35.125042 90.714 20.6395
35.379574 90.729 20.2302
35.635948 90.741 19.8135
35.894180 90.748 19.3929
36.154285 90.751 18.9716
36.416275 90.753 18.5546
36.680161 90.752 18.1396
36.945961 90.749 17.7253
37.213688 90.743 17.3146
37.483353 90.734 16.9098
37.754974 90.723 16.5116
38.028561 90.710 16.1215
38.304131 90.695 15.7395
38.581699 90.678 15.3660
38.861279 90.659 15.0015
39.142883 90.639 14.6466
39.426529 90.617 14.3025
39.712231 90.593 13.9690
40.000000 90.566 13.6505
40.289856 90.537 13.3519
40.581814 90.508 13.0704
40.875885 90.480 12.8049
41.172089 90.452 12.5544
41.470440 90.423 12.3169
41.770950 90.394 12.0934
42.073643 90.366 11.8845
42.378525 90.338 11.6883
42.685616 90.311 11.5027
42.994934 90.285 11.3282
43.306492 90.260 11.1649
43.620308 90.235 11.0122
43.936401 90.211 10.8700
44.254780 90.189 10.7372
44.575470 90.168 10.6134
44.898483 90.148 10.4962
45.223835 90.131 10.3845
45.551544 90.117 10.2742
45.881630 90.105 10.1609
46.214108 90.095 10.0432
46.548996 90.086 9.9196
46.886307 90.078 9.7862
47.226067 90.073 9.6383
47.568283 90.068 9.4773
47.912983 90.061 9.3012
48.260181 90.051 9.1163
48.609894 90.039 8.9270
48.962143 90.025 8.7363
49.316940 90.009 8.5470
49.674313 89.991 8.3643
50.034271 89.969 8.1938
50.396843 89.946 8.0372
50.762039 89.923 7.9000
51.129883 89.901 7.7772
51.500389 89.881 7.6667
51.873581 89.862 7.5652
52.249481 89.845 7.4697
52.628101 89.829 7.3762
53.009464 89.816 7.2804
53.393593 89.805 7.1802
53.780506 89.794 7.0712
54.170223 89.783 6.9562
54.562763 89.772 6.8364
54.958145 89.760 6.7112
55.356396 89.749 6.5791
55.757530 89.737 6.4432
56.161572 89.722 6.3052
56.568542 89.705 6.1682
56.978462 89.688 6.0370
57.391350 89.670 5.9092
57.807232 89.652 5.7833
58.226128 89.633 5.6612
58.648056 89.612 5.5439
59.073048 89.591 5.4332
59.501114 89.569 5.3310
59.932281 89.547 5.2372
60.366577 89.525 5.1523
60.804020 89.502 5.0761
61.244629 89.479 5.0085
61.688435 89.457 4.9491
62.135452 89.436 4.8985
62.585712 89.415 4.8541
63.039234 89.396 4.8137
63.496040 89.378 4.7771
63.956161 89.360 4.7431
64.419617 89.343 4.7121
64.886421 89.326 4.6853
65.356621 89.311 4.6590
65.830215 89.298 4.6305
66.307251 89.286 4.5981
66.787743 89.274 4.5582
67.271713 89.262 4.5141
67.759193 89.249 4.4679
68.250206 89.235 4.4191
68.744774 89.221 4.3673
69.242928 89.207 4.3141
69.744690 89.191 4.2593
70.250084 89.173 4.2081
70.759148 89.154 4.1653
71.271896 89.133 4.1321
71.788361 89.112 4.1114
72.308571 89.091 4.1030
72.832550 89.070 4.1087
73.360321 89.051 4.1250
73.891922 89.034 4.1505
74.427376 89.019 4.1809
74.966705 89.006 4.2119
75.509949 88.994 4.2419
76.057121 88.984 4.2686
76.608261 88.975 4.2910
77.163399 88.967 4.3061
77.722557 88.959 4.3170
78.285767 88.950 4.3253
78.853058 88.940 4.3320
79.424461 88.932 4.3386
80.000000 88.923 4.3450
80.579712 88.913 4.3512
81.163628 88.903 4.3580
81.751770 88.894 4.3669
82.344177 88.886 4.3760
82.940880 88.877 4.3829
83.541901 88.868 4.3900
84.147285 88.859 4.3993
84.757050 88.849 4.4100
85.371231 88.840 4.4218
85.989868 88.831 4.4350
86.612984 88.821 4.4495
87.240616 88.811 4.4660
87.872803 88.802 4.4853
88.509560 88.793 4.5060
89.150940 88.785 4.5261
89.796967 88.776 4.5480
90.447670 88.766 4.5732
91.103088 88.756 4.6019
91.763260 88.747 4.6347
92.428215 88.738 4.6719
93.097992 88.729 4.7142
93.772614 88.721 4.7609
94.452133 88.714 4.8131
95.136566 88.708 4.8669
95.825966 88.704 4.9193
96.520363 88.702 4.9679
97.219788 88.701 5.0089
97.924286 88.700 5.0429
98.633881 88.699 5.0693
99.348625 88.697 5.0890
100.068542 88.696 5.1013
100.793686 88.693 5.1100
101.524078 88.687 5.1172
102.259766 88.680 5.1270
103.000778 88.672 5.1444
103.747162 88.663 5.1689
104.498962 88.654 5.2018
105.256203 88.645 5.2429
106.018929 88.636 5.2930
106.787186 88.628 5.3509
107.561012 88.621 5.4173
108.340446 88.615 5.4879
109.125526 88.612 5.5593
109.916290 88.610 5.6299
110.712791 88.609 5.6964
111.515060 88.608 5.7599
112.323143 88.608 5.8202
113.137085 88.608 5.8779
113.956924 88.608 5.9330
114.782700 88.608 5.9869
115.614464 88.608 6.0408
116.452255 88.608 6.0949
117.296112 88.608 6.1498
118.146095 88.609 6.2059
119.002228 88.610 6.2644
119.864563 88.611 6.3238
120.733154 88.613 6.3837
121.608040 88.616 6.4419
122.489258 88.621 6.4965
123.376869 88.627 6.5459
124.270905 88.633 6.5884
125.171425 88.640 6.6219
126.078468 88.648 6.6432
126.992081 88.655 6.6550
127.912323 88.659 6.6582
128.839233 88.662 6.6560
129.772842 88.664 6.6517
130.713242 88.665 6.6460
131.660431 88.664 6.6386
132.614502 88.660 6.6360
133.575485 88.653 6.6448
134.543427 88.646 6.6640
135.518387 88.640 6.6959
136.500412 88.634 6.7369
137.489548 88.628 6.7834
138.485855 88.623 6.8369
139.489380 88.618 6.8987
140.500168 88.613 6.9658
141.518295 88.611 7.0364
142.543793 88.610 7.1088
143.576721 88.609 7.1805
144.617142 88.608 7.2528
145.665100 88.608 7.3261
146.720642 88.608 7.4008
147.783844 88.608 7.4775
148.854752 88.608 7.5568
149.933411 88.609 7.6395
151.019897 88.610 7.7258
152.114243 88.612 7.8168
153.216522 88.615 7.9097
154.326797 88.621 8.0033
155.445114 88.628 8.0938
156.571533 88.636 8.1766
157.706116 88.645 8.2528
158.848923 88.654 8.3217
160.000000 88.663 8.3839
161.159424 88.672 8.4393
162.327255 88.680 8.4899
163.503540 88.687 8.5359
164.688354 88.693 8.5819
165.881760 88.697 8.6321
167.083801 88.700 8.6878
168.294571 88.703 8.7534
169.514099 88.707 8.8248
170.742462 88.712 8.9008
171.979736 88.719 8.9778
173.225967 88.728 9.0518
174.481232 88.737 9.1228
175.745605 88.745 9.1895
177.019119 88.754 9.2528
178.301880 88.763 9.3132
179.593933 88.772 9.3719
180.895340 88.779 9.4285
182.206177 88.786 9.4879
183.526520 88.791 9.5543
184.856430 88.796 9.6278
186.195984 88.803 9.7112
187.545227 88.811 9.7998
188.904266 88.821 9.8892
190.273132 88.831 9.9808
191.651932 88.841 10.0757
193.040726 88.853 10.1707
194.439575 88.868 10.2638
195.848572 88.884 10.3528
197.267761 88.901 10.4334
198.697250 88.918 10.5098
200.137085 88.934 10.5852
201.587372 88.951 10.6578
203.048157 88.970 10.7281
204.519531 88.990 10.7928
206.001556 89.011 10.8487
207.494324 89.032 10.8969
208.997925 89.053 10.9372
210.512405 89.074 10.9709
212.037857 89.094 10.9993
213.574371 89.113 11.0229
215.122025 89.133 11.0427
216.680893 89.152 11.0590
218.251053 89.171 11.0708
219.832581 89.188 11.0830
221.425583 89.203 11.1004
223.030121 89.218 11.1219
224.646286 89.235 11.1491
226.274170 89.253 11.1779
227.913849 89.272 11.2043
229.565399 89.291 11.2299
231.228928 89.310 11.2553
232.904510 89.330 11.2799
234.592224 89.351 11.3039
236.292191 89.372 11.3259
238.004456 89.395 11.3445
239.729126 89.418 11.3610
241.466309 89.441 11.3758
243.216080 89.464 11.3900
244.978516 89.488 11.4051
246.753738 89.514 11.4190
248.541809 89.542 11.4315
250.342850 89.573 11.4380
252.156937 89.606 11.4348
253.984161 89.642 11.4191
255.824646 89.679 11.3883
257.678467 89.718 11.3382
259.545685 89.759 11.2644
261.426483 89.802 11.1643
263.320862 89.845 11.0337
265.229004 89.888 10.8725
267.150970 89.929 10.6791
269.086853 89.969 10.4537
271.036774 90.006 10.1951
273.000824 90.039 9.9059
274.979095 90.067 9.5870
276.971710 90.090 9.2431
278.978760 90.106 8.8763
281.000336 90.115 8.4950
283.036591 90.114 8.1032
285.087585 90.104 7.7162
287.153442 90.082 7.3461
289.234283 90.051 7.0069
291.330200 90.011 6.7133
293.441284 89.964 6.4746
295.567688 89.910 6.3030
297.709503 89.853 6.2042
299.866821 89.795 6.1912
302.039795 89.740 6.2537
304.228485 89.694 6.3909
306.433044 89.656 6.5874
308.653595 89.629 6.8334
310.890228 89.614 7.1102
313.143066 89.615 7.4019
315.412231 89.630 7.6902
317.697845 89.659 7.9543
320.000000 89.699 8.1854
322.318848 89.749 8.3704
324.654510 89.808 8.5007
327.007080 89.876 8.5640
329.376709 89.950 8.5571
331.763519 90.026 8.4734
334.167603 90.105 8.3106
336.589142 90.185 8.0657
339.028198 90.266 7.7351
341.484924 90.344 7.3142
343.959473 90.419 6.8025
346.451935 90.488 6.1994
348.962463 90.550 5.5011
351.491211 90.605 4.7033
354.038239 90.648 3.8077
356.603760 90.676 2.8113
359.187866 90.685 1.7234
361.790680 90.675 0.5434
364.412354 90.638 -0.7014
367.053040 90.569 -2.0019
369.712860 90.464 -3.3030
372.391968 90.317 -4.5676
375.090454 90.131 -5.7308
377.808533 89.903 -6.7353
380.546265 89.637 -7.5220
383.303864 89.332 -8.0219
386.081451 89.002 -8.2080
388.879150 88.656 -8.0195
391.697144 88.310 -7.4891
394.535522 87.979 -6.6076
397.394501 87.675 -5.4408
400.274170 87.412 -4.0260
403.174744 87.196 -2.4402
406.096313 87.037 -0.7514
409.039062 86.929 0.9756
412.003113 86.873 2.6622
414.988647 86.857 4.2819
417.995850 86.872 5.7811
421.024811 86.910 7.1638
424.075714 86.963 8.4110
427.148743 87.026 9.5396
430.244049 87.091 10.5532
433.361786 87.159 11.4732
436.502106 87.225 12.3180
439.665161 87.290 13.0997
442.851166 87.354 13.8348
446.060242 87.418 14.5279
449.292572 87.481 15.1865
452.548340 87.544 15.8181
455.827698 87.605 16.4323
459.130798 87.667 17.0301
462.457855 87.731 17.6161
465.809021 87.798 18.1892
469.184448 87.867 18.7494
472.584381 87.939 19.2973
476.008911 88.014 19.8354
479.458252 88.093 20.3584
482.932617 88.177 20.8645
486.432159 88.268 21.3455
489.957031 88.364 21.7956
493.507477 88.467 22.2058
497.083618 88.575 22.5674
500.685699 88.688 22.8731
504.313873 88.802 23.1114
507.968323 88.916 23.2865
511.649292 89.026 23.3966
515.356934 89.133 23.4479
519.091370 89.235 23.4423
522.852966 89.330 23.3912
526.641724 89.415 23.3011
530.458008 89.492 23.1894
534.301941 89.558 23.0738
538.173706 89.617 22.9604
542.073547 89.671 22.8613
546.001648 89.722 22.7763
549.958191 89.769 22.7096
553.943420 89.814 22.6601
557.957520 89.858 22.6312
562.000671 89.904 22.6140
566.073181 89.952 22.6032
570.175171 90.002 22.5920
574.306885 90.052 22.5735
578.468567 90.104 22.5441
582.660400 90.156 22.4979
586.882568 90.208 22.4362
591.135376 90.256 22.3566
595.419006 90.301 22.2643
599.733643 90.343 22.1627
604.079590 90.381 22.0554
608.456970 90.415 21.9439
612.866089 90.444 21.8383
617.307190 90.467 21.7468
621.780457 90.485 21.6762
626.286133 90.500 21.6353
630.824463 90.512 21.6260
635.395691 90.523 21.6523
640.000000 90.534 21.7157
644.637695 90.546 21.8208
649.309021 90.561 21.9625
654.014160 90.581 22.1396
658.753418 90.607 22.3443
663.527039 90.639 22.5721
668.335205 90.679 22.8112
673.178284 90.729 23.0518
678.056396 90.787 23.2823
682.969849 90.853 23.4895
687.918945 90.925 23.6674
692.903870 91.002 23.8063
697.924927 91.084 23.9037
702.982422 91.167 23.9531
708.076477 91.250 23.9581
713.207520 91.331 23.9175
718.375732 91.409 23.8393
723.581360 91.483 23.7271
728.824707 91.552 23.5925
734.106079 91.614 23.4455
739.425720 91.672 23.2945
744.783936 91.724 23.1509
750.180908 91.774 23.0165
755.617065 91.822 22.8968
761.092529 91.870 22.7914
766.607727 91.917 22.7022
772.162903 91.965 22.6262
777.758301 92.015 22.5634
783.394287 92.068 22.5062
789.071045 92.125 22.4488
794.789001 92.186 22.3862
800.548340 92.248 22.3122
806.349487 92.313 22.2253
812.192627 92.378 22.1222
818.078125 92.445 22.0035
824.006226 92.512 21.8688
829.977295 92.580 21.7186
835.991699 92.647 21.5522
842.049622 92.714 21.3717
848.151428 92.780 21.1776
854.297485 92.845 20.9738
860.488098 92.908 20.7639
866.723572 92.971 20.5498
873.004211 93.034 20.3360
879.330322 93.099 20.1178
885.702332 93.166 19.8923
892.120483 93.234 19.6579
898.585144 93.303 19.4132
905.096680 93.374 19.1540
911.655396 93.449 18.8785
918.261597 93.527 18.5772
924.915710 93.608 18.2409
931.618042 93.690 17.8664
938.368896 93.771 17.4462
945.168762 93.850 16.9838
952.017822 93.926 16.4784
958.916504 93.998 15.9352
965.865234 94.063 15.3564
972.864319 94.123 14.7503
979.914062 94.175 14.1235
987.014954 94.222 13.4824
994.167236 94.262 12.8348
1001.371399 94.297 12.1833
1008.627747 94.326 11.5344
1015.936646 94.351 10.8848
1023.298584 94.373 10.2337
1030.713867 94.392 9.5791
1038.182739 94.406 8.9178
1045.705933 94.415 8.2529
1053.283447 94.417 7.5829
1060.916016 94.412 6.9178
1068.603882 94.399 6.2616
1076.347412 94.377 5.6305
1084.147095 94.345 5.0378
1092.003296 94.305 4.4967
1099.916382 94.260 4.0250
1107.886841 94.213 3.6225
1115.915039 94.166 3.2998
1124.001343 94.124 3.0438
1132.146362 94.091 2.8535
1140.350342 94.070 2.7035
1148.613770 94.064 2.5772
1156.937134 94.071 2.4476
1165.320801 94.093 2.2874
1173.765137 94.126 2.0801
1182.270752 94.168 1.8012
1190.838013 94.215 1.4476
1199.467285 94.263 1.0046
1208.159180 94.308 0.4822
1216.913940 94.346 -0.1198
1225.732178 94.375 -0.7855
1234.614380 94.393 -1.5040
1243.560913 94.400 -2.2591
1252.572266 94.393 -3.0353
1261.648926 94.374 -3.8198
1270.791382 94.344 -4.5967
1280.000000 94.302 -5.3601
1289.275391 94.251 -6.1021
1298.618042 94.190 -6.8131
1308.028320 94.119 -7.4824
1317.506836 94.039 -8.1054
1327.054077 93.955 -8.6736
1336.670410 93.866 -9.1891
1346.356567 93.774 -9.6510
1356.112793 93.680 -10.0606
1365.939697 93.585 -10.4168
1375.837891 93.489 -10.7258
1385.807739 93.397 -10.9897
1395.849854 93.307 -11.2191
1405.964844 93.221 -11.4248
1416.152954 93.136 -11.6094
1426.415039 93.053 -11.7791
1436.751465 92.969 -11.9334
1447.162720 92.886 -12.0762
1457.649414 92.801 -12.1995
1468.212158 92.712 -12.3009
1478.851440 92.619 -12.3688
1489.567871 92.524 -12.3926
1500.361816 92.427 -12.3672
1511.234131 92.330 -12.2845
1522.185059 92.233 -12.1428
1533.215454 92.140 -11.9335
1544.325806 92.053 -11.6693
1555.516602 91.978 -11.3538
1566.788574 91.913 -11.0055
1578.142090 91.861 -10.6381
1589.578003 91.822 -10.2705
1601.096680 91.798 -9.9193
1612.698975 91.785 -9.6052
1624.385254 91.784 -9.3526
1636.156250 91.789 -9.1667
1648.012451 91.795 -9.0633
1659.954590 91.800 -9.0340
1671.983398 91.799 -9.0824
1684.099243 91.789 -9.1875
1696.302856 91.764 -9.3389
1708.594971 91.725 -9.5082
1720.976196 91.669 -9.6729
1733.447144 91.597 -9.8045
1746.008423 91.507 -9.8757
1758.660645 91.402 -9.8603
1771.404663 91.285 -9.7250
1784.240967 91.161 -9.4643
1797.170288 91.036 -9.0582
1810.193359 90.915 -8.5174
1823.310791 90.803 -7.8412
1836.523193 90.702 -7.0454
1849.831421 90.618 -6.1361
1863.236084 90.555 -5.1416
1876.737793 90.519 -4.0829
1890.337524 90.507 -2.9888
1904.035645 90.520 -1.8876
1917.833008 90.558 -0.8022
1931.730469 90.620 0.2407
1945.728638 90.703 1.2239
1959.828125 90.803 2.1227
1974.029907 90.918 2.9328
1988.334473 91.044 3.6410
2002.742798 91.176 4.2498
2017.255493 91.313 4.7550
2031.873291 91.451 5.1636
2046.597168 91.590 5.4766
2061.427734 91.725 5.7071
2076.365479 91.855 5.8638
2091.411865 91.979 5.9617
2106.566895 92.099 6.0152
2121.832031 92.213 6.0350
2137.207764 92.321 6.0338
2152.694824 92.426 6.0191
2168.294189 92.528 6.0031
2184.006592 92.632 5.9841
2199.832764 92.738 5.9685
2215.773682 92.849 5.9441
2231.830078 92.967 5.9070
2248.002686 93.093 5.8394
2264.292725 93.229 5.7286
2280.700684 93.372 5.5549
2297.227539 93.524 5.2983
2313.874268 93.680 4.9466
2330.641602 93.837 4.4812
2347.530273 93.990 3.9027
2364.541504 94.137 3.2010
2381.676025 94.271 2.3909
2398.934570 94.390 1.4750
2416.318359 94.491 0.4806
2433.827881 94.569 -0.5744
2451.464355 94.626 -1.6585
2469.228760 94.659 -2.7432
2487.121826 94.670 -3.8016
2505.144531 94.660 -4.8030
2523.297852 94.633 -5.7290
2541.582764 94.592 -6.5513
2560.000000 94.542 -7.2691
2578.550781 94.489 -7.8662
2597.236084 94.437 -8.3609
2616.056641 94.392 -8.7578
2635.013672 94.355 -9.0818
2654.108154 94.332 -9.3514
2673.340820 94.320 -9.5900
2692.713135 94.321 -9.8218
2712.225586 94.332 -10.0628
2731.879395 94.353 -10.3370
2751.675781 94.379 -10.6445
2771.615479 94.406 -10.9980
2791.699707 94.433 -11.3832
2811.929688 94.456 -11.7947
2832.305908 94.476 -12.2190
2852.830078 94.493 -12.6408
2873.502930 94.509 -13.0602
2894.325439 94.527 -13.4679
2915.298828 94.550 -13.8761
2936.424316 94.579 -14.2868
2957.702881 94.616 -14.7210
2979.135742 94.661 -15.1931
3000.723633 94.713 -15.7255
3022.468262 94.772 -16.3431
3044.370117 94.832 -17.0525
3066.430908 94.887 -17.8747
3088.651611 94.934 -18.7927
3111.033203 94.965 -19.8055
3133.577148 94.980 -20.8847
3156.284180 94.974 -22.0105
3179.156006 94.948 -23.1565
3202.193359 94.901 -24.2959
3225.397949 94.835 -25.4108
3248.770508 94.752 -26.4763
3272.312500 94.654 -27.4876
3296.024902 94.544 -28.4309
3319.909180 94.424 -29.3091
3343.966797 94.296 -30.1188
3368.198486 94.161 -30.8646
3392.605713 94.019 -31.5525
3417.189941 93.870 -32.1743
3441.952393 93.710 -32.7299
3466.894287 93.541 -33.2011
3492.016846 93.361 -33.5767
3517.321289 93.173 -33.8351
3542.809326 92.974 -33.9545
3568.481934 92.771 -33.9235
3594.340576 92.567 -33.7201
3620.386719 92.368 -33.3551
3646.621582 92.180 -32.8230
3673.046387 92.009 -32.1505
3699.662842 91.860 -31.3513
3726.472168 91.736 -30.4593
3753.475586 91.640 -29.5030
3780.675049 91.572 -28.5125
3808.071289 91.533 -27.5237
3835.666016 91.516 -26.5476
3863.460938 91.519 -25.6064
3891.457275 91.539 -24.7012
3919.656250 91.575 -23.8402
3948.059814 91.626 -23.0237
3976.668945 91.689 -22.2539
4005.485596 91.766 -21.5334
4034.510986 91.855 -20.8605
4063.746582 91.957 -20.2507
4093.194336 92.076 -19.7148
4122.855469 92.205 -19.2650
4152.730957 92.343 -18.9185
4182.823730 92.484 -18.6709
4213.133789 92.626 -18.5293
4243.664062 92.766 -18.4761
4274.415527 92.900 -18.5047
4305.389648 93.027 -18.5895
4336.588379 93.145 -18.7114
4368.013184 93.255 -18.8434
4399.665527 93.360 -18.9534
4431.547363 93.466 -19.0377
4463.660156 93.580 -19.0769
4496.005371 93.705 -19.0860
4528.585449 93.847 -19.0627
4561.401367 94.010 -19.0391
4594.455078 94.203 -19.0289
4627.748535 94.425 -19.0855
4661.283203 94.682 -19.2519
4695.060547 94.967 -19.5730
4729.083008 95.276 -20.0968
4763.352051 95.603 -20.8568
4797.869141 95.945 -21.8961
4832.636719 96.291 -23.2335
4867.655762 96.634 -24.9071
4902.928711 96.961 -26.9025
4938.457520 97.263 -29.2284
4974.243652 97.535 -31.8519
5010.289062 97.770 -34.7567
5046.595703 97.965 -37.8997
5083.165527 98.111 -41.2474
5120.000000 98.211 -44.7535
5157.101562 98.263 -48.3706
5194.472168 98.268 -52.0688
5232.113281 98.226 -55.8089
5270.027344 98.139 -59.5721
5308.216309 98.007 -63.3302
5346.681641 97.832 -67.0718
5385.426270 97.616 -70.7805
5424.451172 97.358 -74.4432
5463.758789 97.058 -78.0565
5503.351562 96.711 -81.5751
5543.230957 96.309 -84.9676
5583.399414 95.858 -88.1877
5623.859375 95.360 -91.1889
5664.611816 94.814 -93.9402
5705.660156 94.219 -96.4075
5747.005859 93.578 -98.5538
5788.650879 92.892 -100.3340
5830.597656 92.170 -101.7358
5872.848633 91.419 -102.7389
5915.405762 90.643 -103.3231
5958.271484 89.845 -103.4680
6001.447266 89.031 -103.1538
6044.936523 88.206 -102.3604
6088.740234 87.374 -101.0678
6132.861816 86.544 -99.2712
6177.303223 85.712 -96.9054
6222.066406 84.868 -93.9096
6267.154297 84.044 -90.2640
6312.568359 83.263 -85.9129
6358.312012 82.549 -80.9038
6404.386719 81.917 -75.2167
6450.795898 81.419 -68.9992
6497.541016 81.109 -62.3066
6544.625000 81.009 -55.3989
6592.049805 81.173 -48.4772
6639.818359 81.563 -41.7766
6687.933594 82.179 -35.5337
6736.396973 82.964 -29.9447
6785.211426 83.878 -25.2457
6834.379883 84.871 -21.5542
6883.904785 85.888 -19.0778
6933.788574 86.893 -17.7816
6984.033691 87.840 -17.7468
7034.642578 88.707 -18.8289
7085.618652 89.457 -20.9707
7136.963867 90.088 -23.9869
7188.681152 90.593 -27.7594
7240.773438 90.956 -32.0277
7293.243164 91.154 -36.5911
7346.092773 91.201 -41.1506
7399.325684 91.095 -45.3907
7452.944336 90.866 -49.1586
7506.951172 90.537 -52.1984
7561.350098 90.133 -54.5061
7616.142578 89.668 -55.9466
7671.332031 89.200 -56.6601
7726.921875 88.781 -56.6453
7782.914551 88.449 -56.1961
7839.312500 88.272 -55.5216
7896.119629 88.212 -54.8789
7953.337891 88.273 -54.5606
8010.971191 88.406 -54.6700
8069.021973 88.580 -55.4201
8127.493164 88.753 -56.7722
8186.388672 88.881 -58.8218
8245.710938 88.938 -61.3764
8305.461914 88.883 -64.3660
8365.647461 88.714 -67.5134
8426.267578 88.411 -70.5941
8487.328125 87.982 -73.3755
8548.831055 87.427 -75.6018
8610.779297 86.757 -77.1172
8673.176758 85.969 -77.6876
8736.026367 85.104 -77.2939
8799.331055 84.181 -75.7946
8863.094727 83.254 -73.3245
8927.320312 82.371 -69.9175
8992.010742 81.566 -65.7399
9057.170898 80.877 -60.9113
9122.802734 80.334 -55.6080
9188.910156 79.988 -49.9957
9255.497070 79.819 -44.2273
9322.566406 79.830 -38.4724
9390.121094 80.008 -32.8482
9458.166016 80.352 -27.4917
9526.704102 80.832 -22.5121
9595.738281 81.426 -18.0404
9665.273438 82.102 -14.1469
9735.311523 82.836 -10.9398
9805.857422 83.593 -8.4366
9876.915039 84.338 -6.7128
9948.487305 85.053 -5.7016
10020.578125 85.712 -5.4049
10093.191406 86.312 -5.6891
10166.331055 86.842 -6.4672
10240.000000 87.308 -7.5983
10314.203125 87.705 -8.9452
10388.944336 88.047 -10.4079
10464.226562 88.344 -11.8449
10540.054688 88.611 -13.2439
10616.432617 88.868 -14.5294
10693.363281 89.122 -15.7509
10770.852539 89.388 -16.9055
10848.902344 89.670 -18.0785
10927.517578 89.982 -19.3281
11006.703125 90.309 -20.7338
11086.461914 90.649 -22.3830
11166.798828 90.986 -24.3104
11247.718750 91.311 -26.5817
11329.223633 91.611 -29.1916
11411.320312 91.871 -32.1753
11494.011719 92.080 -35.4763
11577.301758 92.223 -39.0859
11661.195312 92.293 -42.8954
11745.697266 92.277 -46.8360
11830.811523 92.175 -50.7778
11916.542969 91.983 -54.6114
12002.894531 91.703 -58.2059
12089.873047 91.333 -61.4358
12177.480469 90.881 -64.1761
12265.723633 90.347 -66.2805
12354.606445 89.755 -67.6864
12444.132812 89.119 -68.2641
12534.308594 88.475 -68.0701
12625.136719 87.852 -67.0686
12716.624023 87.289 -65.4093
12808.773438 86.825 -63.1538
12901.591797 86.496 -60.5355
12995.082031 86.357 -57.7207
13089.250000 86.385 -54.9752
13184.099609 86.598 -52.5631
13279.636719 86.937 -50.6582
13375.867188 87.369 -49.5105
13472.793945 87.840 -49.1536
13570.422852 88.296 -49.7429
13668.759766 88.705 -51.1612
13767.809570 89.026 -53.4313
13867.577148 89.241 -56.2851
13968.067383 89.314 -59.5673
14069.285156 89.253 -62.9570
14171.237305 89.045 -66.1549
14273.927734 88.709 -68.9378
14377.362305 88.253 -71.0111
14481.546875 87.704 -72.2917
14586.486328 87.072 -72.5690
14692.185547 86.420 -71.9343
14798.651367 85.792 -70.3229
14905.888672 85.252 -67.9933
15013.902344 84.876 -65.0869
15122.700195 84.669 -61.8964
15232.285156 84.671 -58.6915
15342.664062 84.842 -55.6852
15453.843750 85.169 -53.1510
15565.829102 85.595 -51.1769
15678.625000 86.071 -49.9520
15792.239258 86.564 -49.4418
15906.675781 87.034 -49.7162
16021.942383 87.464 -50.6493
16138.043945 87.821 -52.1907
16254.986328 88.110 -54.1804
16372.777344 88.318 -56.4798
16491.421875 88.453 -58.9738
16610.923828 88.519 -61.5239
16731.294922 88.523 -64.0615
16852.535156 88.469 -66.4747
16974.656250 88.372 -68.7546
17097.662109 88.246 -70.8412
17221.558594 88.098 -72.7767
17346.353516 87.941 -74.5716
17472.052734 87.773 -76.2630
17598.662109 87.600 -77.8881
17726.189453 87.416 -79.4570
17854.640625 87.222 -81.0022
17984.021484 87.010 -82.4929
18114.341797 86.772 -83.9302
18245.605469 86.506 -85.2499
18377.820312 86.203 -86.4050
18510.994141 85.873 -87.3443
18645.132812 85.515 -88.0031
18780.242188 85.143 -88.3748
18916.332031 84.763 -88.4161
19053.408203 84.391 -88.1731
19191.476562 84.044 -87.6526
19330.546875 83.729 -86.9304
19470.623047 83.460 -86.0639
19611.714844 83.235 -85.1165
19753.830078 83.057 -84.1579
19896.974609 82.918 -83.2265
