* Measurement data measured by REW V5.20.13
* Source: C:\Users\kurin\Desktop\Targets and Curves\Resolve\Img\Files\He6se V2_SPL.txt
* Format: Comma/Tab/Space delimited data
* Dated: Aug 14, 2023 4:59:32 PM
* REW Settings:
*  C-weighting compensation: Off
*  Target level: 75.0 dB
* Note: ; Measurement imported from C:\Users\kurin\Desktop\Targets and Curves\Resolve\Img\Files\He6se V2_SPL.txt Format: Comma/Tab/Space delimited data 623 values loaded, 5 Hz to 39,792 Hz log spaced 
* Measurement: He6se V2_SPL
* Smoothing: 1/48 octave
* Frequency Step: 1/96 octave
* Start Frequency: 5.000 Hz
*
* Freq(Hz) SPL(dB) Phase(degrees)
5.000000 79.628 6.1520
5.036232 79.630 6.1471
5.072727 79.633 6.1420
5.109486 79.636 6.1364
5.146511 79.639 6.1300
5.183805 79.643 6.1219
5.221369 79.647 6.1130
5.259205 79.652 6.1042
5.297316 79.657 6.0950
5.335702 79.662 6.0852
5.374367 79.667 6.0750
5.413311 79.673 6.0645
5.452538 79.678 6.0540
5.492050 79.683 6.0440
5.531847 79.688 6.0340
5.571934 79.693 6.0236
5.612310 79.698 6.0130
5.652979 79.703 6.0026
5.693943 79.709 5.9920
5.735204 79.714 5.9811
5.776763 79.719 5.9700
5.818624 79.724 5.9590
5.860788 79.729 5.9480
5.903258 79.734 5.9370
5.946035 79.740 5.9260
5.989123 79.745 5.9151
6.032523 79.750 5.9040
6.076237 79.755 5.8926
6.120268 79.760 5.8810
6.164618 79.766 5.8696
6.209289 79.771 5.8580
6.254284 79.776 5.8461
6.299605 79.781 5.8340
6.345255 79.786 5.8220
6.391235 79.792 5.8100
6.437549 79.797 5.7980
6.484198 79.802 5.7860
6.531185 79.807 5.7741
6.578513 79.812 5.7620
6.626183 79.817 5.7496
6.674199 79.823 5.7370
6.722563 79.828 5.7240
6.771278 79.833 5.7110
6.820345 79.838 5.6985
6.869768 79.843 5.6860
6.919549 79.848 5.6731
6.969691 79.854 5.6600
7.020196 79.859 5.6466
7.071068 79.864 5.6330
7.122308 79.869 5.6195
7.173919 79.875 5.6060
7.225904 79.880 5.5926
7.278266 79.885 5.5790
7.331007 79.890 5.5651
7.384131 79.895 5.5510
7.437639 79.900 5.5370
7.491535 79.906 5.5230
7.545822 79.911 5.5091
7.600502 79.916 5.4950
7.655579 79.921 5.4806
7.711054 79.926 5.4660
7.766932 79.931 5.4511
7.823214 79.937 5.4360
7.879904 79.942 5.4210
7.937005 79.947 5.4060
7.994520 79.952 5.3911
8.052452 79.957 5.3760
8.110803 79.963 5.3606
8.169578 79.968 5.3450
8.228777 79.973 5.3290
8.288406 79.978 5.3130
8.348468 79.983 5.2976
8.408964 79.989 5.2820
8.469899 79.994 5.2656
8.531276 79.999 5.2490
8.593097 80.004 5.2325
8.655366 80.009 5.2160
8.718086 80.014 5.1996
8.781260 80.020 5.1830
8.844893 80.025 5.1661
8.908987 80.030 5.1490
8.973545 80.035 5.1316
9.038571 80.040 5.1140
9.104069 80.046 5.0965
9.170040 80.051 5.0790
9.236490 80.056 5.0616
9.303422 80.061 5.0440
9.370838 80.066 5.0261
9.438744 80.072 5.0080
9.507140 80.077 4.9896
9.576033 80.082 4.9710
9.645425 80.087 4.9521
9.715320 80.092 4.9330
9.785721 80.097 4.9140
9.856632 80.103 4.8950
9.928058 80.108 4.8761
10.000000 80.113 4.8570
10.072464 80.118 4.8376
10.145453 80.123 4.8180
10.218971 80.129 4.7981
10.293022 80.134 4.7780
10.367610 80.139 4.7576
10.442738 80.144 4.7370
10.518411 80.149 4.7166
10.594631 80.154 4.6960
10.671404 80.160 4.6751
10.748734 80.165 4.6540
10.826623 80.170 4.6326
10.905077 80.175 4.6110
10.984100 80.180 4.5896
11.063695 80.186 4.5680
11.143867 80.191 4.5461
11.224621 80.196 4.5240
11.305959 80.201 4.5016
11.387886 80.206 4.4790
11.470407 80.212 4.4561
11.553527 80.217 4.4330
11.637249 80.222 4.4101
11.721577 80.227 4.3870
11.806517 80.232 4.3631
11.892071 80.237 4.3390
11.978246 80.243 4.3151
12.065045 80.248 4.2910
12.152473 80.253 4.2666
12.240536 80.258 4.2420
12.329235 80.263 4.2176
12.418578 80.269 4.1930
12.508568 80.274 4.1677
12.599211 80.279 4.1420
12.690510 80.284 4.1161
12.782471 80.289 4.0900
12.875097 80.294 4.0641
12.968395 80.300 4.0380
13.062370 80.305 4.0111
13.157025 80.310 3.9840
13.252366 80.315 3.9571
13.348398 80.320 3.9300
13.445127 80.325 3.9027
13.542556 80.331 3.8750
13.640691 80.336 3.8466
13.739536 80.341 3.8180
13.839099 80.346 3.7896
13.939383 80.351 3.7610
14.040393 80.356 3.7317
14.142136 80.362 3.7020
14.244616 80.367 3.6721
14.347837 80.372 3.6420
14.451808 80.378 3.6116
14.556532 80.383 3.5810
14.662014 80.388 3.5502
14.768262 80.393 3.5190
14.875278 80.398 3.4877
14.983070 80.403 3.4560
15.091644 80.408 3.4242
15.201005 80.414 3.3920
15.311157 80.419 3.3592
15.422109 80.424 3.3260
15.533863 80.429 3.2927
15.646428 80.434 3.2590
15.759809 80.439 3.2246
15.874010 80.445 3.1900
15.989040 80.450 3.1557
16.104904 80.455 3.1210
16.221605 80.460 3.0852
16.339155 80.466 3.0490
16.457554 80.471 3.0132
16.576813 80.476 2.9770
16.696936 80.481 2.9403
16.817928 80.486 2.9030
16.939798 80.491 2.8652
17.062551 80.497 2.8270
17.186193 80.502 2.7887
17.310732 80.507 2.7500
17.436172 80.512 2.7107
17.562521 80.517 2.6710
17.689787 80.522 2.6312
17.817974 80.528 2.5910
17.947090 80.533 2.5503
18.077143 80.538 2.5090
18.208138 80.543 2.4672
18.340080 80.548 2.4250
18.472980 80.553 2.3827
18.606844 80.559 2.3400
18.741676 80.564 2.2973
18.877487 80.569 2.2540
19.014280 80.574 2.2097
19.152065 80.580 2.1651
19.290850 80.585 2.1207
19.430639 80.590 2.0760
19.571442 80.595 2.0307
19.713264 80.600 1.9851
19.856115 80.605 1.9390
20.000000 80.610 1.8930
20.144928 80.615 1.8475
20.290907 80.620 1.8030
20.437943 80.625 1.7603
20.586044 80.630 1.7200
20.735220 80.634 1.6837
20.885475 80.639 1.6500
21.036821 80.646 1.6192
21.189262 80.654 1.5890
21.342808 80.663 1.5583
21.497467 80.673 1.5250
21.653246 80.685 1.4884
21.810154 80.698 1.4441
21.968201 80.714 1.3881
22.127390 80.731 1.3181
22.287735 80.748 1.2291
22.449242 80.764 1.1251
22.611917 80.778 1.0081
22.775772 80.791 0.8792
22.940815 80.803 0.7388
23.107054 80.813 0.5902
23.274498 80.820 0.4357
23.443153 80.825 0.2782
23.613033 80.829 0.1220
23.784142 80.831 -0.0339
23.956491 80.832 -0.1889
24.130091 80.831 -0.3438
24.304947 80.829 -0.4996
24.481071 80.826 -0.6548
24.658470 80.821 -0.8101
24.837156 80.813 -0.9608
25.017136 80.803 -1.1035
25.198421 80.790 -1.2349
25.381020 80.776 -1.3508
25.564941 80.761 -1.4499
25.750195 80.746 -1.5285
25.936790 80.731 -1.5889
26.124741 80.718 -1.6296
26.314051 80.708 -1.6590
26.504732 80.703 -1.6830
26.696796 80.701 -1.7080
26.890253 80.702 -1.7403
27.085112 80.706 -1.7849
27.281382 80.712 -1.8493
27.479073 80.719 -1.9319
27.678198 80.724 -2.0360
27.878765 80.727 -2.1548
28.080786 80.727 -2.2843
28.284271 80.725 -2.4198
28.489231 80.720 -2.5571
28.695675 80.713 -2.6918
28.903616 80.703 -2.8183
29.113064 80.692 -2.9368
29.324028 80.681 -3.0442
29.536524 80.671 -3.1459
29.750557 80.661 -3.2460
29.966141 80.652 -3.3449
30.183289 80.642 -3.4444
30.402010 80.632 -3.5449
30.622314 80.622 -3.6474
30.844217 80.611 -3.7519
31.067726 80.599 -3.8605
31.292856 80.586 -3.9678
31.519617 80.569 -4.0698
31.748020 80.551 -4.1649
31.978081 80.533 -4.2497
32.209808 80.515 -4.3259
32.443211 80.496 -4.3941
32.678310 80.477 -4.4539
32.915108 80.458 -4.5046
33.153625 80.439 -4.5480
33.393871 80.422 -4.5848
33.635857 80.405 -4.6170
33.879597 80.388 -4.6470
34.125103 80.372 -4.6740
34.372387 80.356 -4.6977
34.621464 80.340 -4.7180
34.872345 80.324 -4.7345
35.125042 80.309 -4.7470
35.379574 80.293 -4.7549
35.635948 80.278 -4.7580
35.894180 80.263 -4.7548
36.154285 80.250 -4.7480
36.416275 80.238 -4.7390
36.680161 80.228 -4.7300
36.945961 80.219 -4.7234
37.213688 80.211 -4.7210
37.483353 80.204 -4.7251
37.754974 80.197 -4.7360
38.028561 80.191 -4.7556
38.304131 80.184 -4.7820
38.581699 80.176 -4.8146
38.861279 80.167 -4.8509
39.142883 80.157 -4.8894
39.426529 80.145 -4.9269
39.712231 80.131 -4.9600
40.000000 80.117 -4.9880
40.289856 80.103 -5.0092
40.581814 80.088 -5.0240
40.875885 80.073 -5.0316
41.172089 80.058 -5.0340
41.470440 80.045 -5.0328
41.770950 80.032 -5.0290
42.073643 80.020 -5.0248
42.378525 80.008 -5.0190
42.685616 79.996 -5.0103
42.994934 79.984 -5.0020
43.306492 79.974 -4.9973
43.620308 79.965 -4.9950
43.936401 79.954 -4.9960
44.254780 79.942 -4.9970
44.575470 79.930 -4.9943
44.898483 79.918 -4.9900
45.223835 79.906 -4.9861
45.551544 79.894 -4.9800
45.881630 79.881 -4.9696
46.214108 79.867 -4.9560
46.548996 79.854 -4.9392
46.886307 79.842 -4.9200
47.226067 79.830 -4.9000
47.568283 79.817 -4.8770
47.912983 79.804 -4.8494
48.260181 79.791 -4.8181
48.609894 79.779 -4.7842
48.962143 79.767 -4.7461
49.316940 79.754 -4.7021
49.674313 79.741 -4.6521
50.034271 79.730 -4.5943
50.396843 79.720 -4.5321
50.762039 79.712 -4.4681
51.129883 79.705 -4.4031
51.500389 79.699 -4.3379
51.873581 79.695 -4.2751
52.249481 79.692 -4.2176
52.628101 79.691 -4.1661
53.009464 79.690 -4.1224
53.393593 79.690 -4.0861
53.780506 79.690 -4.0569
54.170223 79.690 -4.0350
54.562763 79.689 -4.0208
54.958145 79.688 -4.0130
55.356396 79.687 -4.0109
55.757530 79.685 -4.0130
56.161572 79.681 -4.0182
56.568542 79.676 -4.0240
56.978462 79.670 -4.0269
57.391350 79.664 -4.0280
57.807232 79.658 -4.0270
58.226128 79.652 -4.0240
58.648056 79.645 -4.0187
59.073048 79.638 -4.0120
59.501114 79.632 -4.0045
59.932281 79.626 -3.9970
60.366577 79.620 -3.9906
60.804020 79.614 -3.9850
61.244629 79.608 -3.9807
61.688435 79.601 -3.9770
62.135452 79.594 -3.9733
62.585712 79.587 -3.9700
63.039234 79.580 -3.9677
63.496040 79.572 -3.9650
63.956161 79.563 -3.9608
64.419617 79.554 -3.9550
64.886421 79.546 -3.9467
65.356621 79.537 -3.9370
65.830215 79.528 -3.9273
66.307251 79.519 -3.9160
66.787743 79.509 -3.9026
67.271713 79.498 -3.8850
67.759193 79.487 -3.8599
68.250206 79.477 -3.8311
68.744774 79.468 -3.8013
69.242928 79.460 -3.7711
69.744690 79.451 -3.7419
70.250084 79.443 -3.7131
70.759148 79.435 -3.6844
71.271896 79.427 -3.6561
71.788361 79.419 -3.6279
72.308571 79.410 -3.6001
72.832550 79.402 -3.5730
73.360321 79.393 -3.5451
73.891922 79.383 -3.5154
74.427376 79.372 -3.4821
74.966705 79.362 -3.4416
75.509949 79.352 -3.3971
76.057121 79.343 -3.3498
76.608261 79.335 -3.3011
77.163399 79.326 -3.2535
77.722557 79.318 -3.2051
78.285767 79.310 -3.1547
78.853058 79.303 -3.1031
79.424461 79.295 -3.0510
80.000000 79.288 -2.9981
80.579712 79.281 -2.9439
81.163628 79.274 -2.8891
81.751770 79.268 -2.8342
82.344177 79.262 -2.7791
82.940880 79.256 -2.7235
83.541901 79.251 -2.6691
84.147285 79.247 -2.6179
84.757050 79.243 -2.5691
85.371231 79.238 -2.5233
85.989868 79.232 -2.4781
86.612984 79.226 -2.4315
87.240616 79.220 -2.3831
87.872803 79.214 -2.3319
88.509560 79.208 -2.2781
89.150940 79.202 -2.2212
89.796967 79.196 -2.1621
90.447670 79.191 -2.1003
91.103088 79.187 -2.0391
91.763260 79.184 -1.9821
92.428215 79.182 -1.9291
93.097992 79.180 -1.8822
93.772614 79.177 -1.8391
94.452133 79.173 -1.7994
95.136566 79.168 -1.7601
95.825966 79.162 -1.7180
96.520363 79.156 -1.6731
97.219788 79.150 -1.6243
97.924286 79.144 -1.5721
98.633881 79.138 -1.5166
99.348625 79.132 -1.4581
100.068542 79.127 -1.3963
100.793686 79.122 -1.3342
101.524078 79.119 -1.2753
102.259766 79.115 -1.2181
103.000778 79.110 -1.1631
103.747162 79.105 -1.1071
104.498962 79.099 -1.0472
105.256203 79.093 -0.9831
106.018929 79.087 -0.9136
106.787186 79.081 -0.8382
107.561012 79.075 -0.7556
108.340446 79.070 -0.6672
109.125526 79.067 -0.5721
109.916290 79.065 -0.4752
110.712791 79.066 -0.3795
111.515060 79.070 -0.2892
112.323143 79.075 -0.2095
113.137085 79.081 -0.1401
113.956924 79.087 -0.0825
114.782700 79.093 -0.0361
115.614464 79.098 -0.0014
116.452255 79.103 0.0230
117.296112 79.107 0.0363
118.146095 79.109 0.0440
119.002228 79.107 0.0501
119.864563 79.103 0.0580
120.733154 79.098 0.0726
121.608040 79.093 0.0929
122.489258 79.087 0.1196
123.376869 79.081 0.1519
124.270905 79.074 0.1902
125.171425 79.067 0.2329
126.078468 79.061 0.2788
126.992081 79.056 0.3269
127.912323 79.051 0.3754
128.839233 79.045 0.4249
129.772842 79.039 0.4751
130.713242 79.032 0.5269
131.660431 79.026 0.5811
132.614502 79.019 0.6378
133.575485 79.012 0.6969
134.543427 79.004 0.7599
135.518387 78.996 0.8286
136.500412 78.987 0.9029
137.489548 78.979 0.9838
138.485855 78.971 1.0698
139.489380 78.964 1.1597
140.500168 78.957 1.2538
141.518295 78.950 1.3520
142.543793 78.944 1.4537
143.576721 78.939 1.5587
144.617142 78.934 1.6658
145.665100 78.930 1.7736
146.720642 78.926 1.8827
147.783844 78.922 1.9920
148.854752 78.918 2.1047
149.933411 78.913 2.2239
151.019897 78.909 2.3487
152.114243 78.906 2.4798
153.216522 78.904 2.6156
154.326797 78.903 2.7546
155.445114 78.903 2.8967
156.571533 78.904 3.0415
157.706116 78.906 3.1877
158.848923 78.910 3.3340
160.000000 78.915 3.4796
161.159424 78.920 3.6230
162.327255 78.926 3.7657
163.503540 78.933 3.9086
164.688354 78.940 4.0517
165.881760 78.949 4.1948
167.083801 78.958 4.3386
168.294571 78.968 4.4841
169.514099 78.979 4.6296
170.742462 78.993 4.7743
171.979736 79.008 4.9166
173.225967 79.024 5.0555
174.481232 79.042 5.1897
175.745605 79.062 5.3182
177.019119 79.083 5.4387
178.301880 79.107 5.5492
179.593933 79.132 5.6478
180.895340 79.158 5.7325
182.206177 79.186 5.8009
183.526520 79.214 5.8495
184.856430 79.243 5.8790
186.195984 79.271 5.8879
187.545227 79.297 5.8790
188.904266 79.322 5.8541
190.273132 79.345 5.8151
191.651932 79.365 5.7633
193.040726 79.382 5.7032
194.439575 79.396 5.6384
195.848572 79.408 5.5722
197.267761 79.417 5.5085
198.697250 79.424 5.4481
200.137085 79.429 5.3929
201.587372 79.432 5.3441
203.048157 79.434 5.3037
204.519531 79.435 5.2711
206.001556 79.436 5.2466
207.494324 79.436 5.2290
208.997925 79.436 5.2174
210.512405 79.436 5.2110
212.037857 79.436 5.2089
213.574371 79.436 5.2110
215.122025 79.436 5.2168
216.680893 79.436 5.2260
218.251053 79.436 5.2381
219.832581 79.436 5.2530
221.425583 79.436 5.2703
223.030121 79.436 5.2899
224.646286 79.436 5.3114
226.274170 79.436 5.3349
227.913849 79.436 5.3608
229.565399 79.436 5.3889
231.228928 79.436 5.4194
232.904510 79.436 5.4519
234.592224 79.436 5.4860
236.292191 79.436 5.5219
238.004456 79.436 5.5599
239.729126 79.436 5.5999
241.466309 79.436 5.6418
243.216080 79.436 5.6859
244.978516 79.436 5.7326
246.753738 79.436 5.7819
248.541809 79.436 5.8333
250.342850 79.436 5.8878
252.156937 79.436 5.9464
253.984161 79.436 6.0088
255.824646 79.436 6.0754
257.678467 79.437 6.1458
259.545685 79.439 6.2205
261.426483 79.441 6.2978
263.320862 79.444 6.3772
265.229004 79.449 6.4558
267.150970 79.455 6.5301
269.086853 79.462 6.6018
271.036774 79.468 6.6715
273.000824 79.474 6.7388
274.979095 79.480 6.8033
276.971710 79.487 6.8658
278.978760 79.493 6.9265
281.000336 79.499 6.9868
283.036591 79.505 7.0488
285.087585 79.511 7.1108
287.153442 79.518 7.1718
289.234283 79.525 7.2318
291.330200 79.531 7.2906
293.441284 79.537 7.3488
295.567688 79.543 7.4072
297.709503 79.549 7.4658
299.866821 79.554 7.5245
302.039795 79.559 7.5858
304.228485 79.562 7.6527
306.433044 79.566 7.7248
308.653595 79.571 7.8038
310.890228 79.576 7.8868
313.143066 79.582 7.9710
315.412231 79.588 8.0577
317.697845 79.594 8.1475
320.000000 79.601 8.2407
322.318848 79.608 8.3378
324.654510 79.615 8.4397
327.007080 79.623 8.5471
329.376709 79.631 8.6616
331.763519 79.640 8.7859
334.167603 79.650 8.9166
336.589142 79.664 9.0528
339.028198 79.681 9.1896
341.484924 79.700 9.3224
343.959473 79.721 9.4497
346.451935 79.745 9.5697
348.962463 79.771 9.6787
351.491211 79.800 9.7723
354.038239 79.830 9.8508
356.603760 79.859 9.9115
359.187866 79.888 9.9589
361.790680 79.917 9.9962
364.412354 79.945 10.0239
367.053040 79.973 10.0431
369.712860 80.000 10.0550
372.391968 80.026 10.0618
375.090454 80.053 10.0620
377.808533 80.081 10.0550
380.546265 80.109 10.0401
383.303864 80.136 10.0160
386.081451 80.163 9.9841
388.879150 80.189 9.9466
391.697144 80.216 9.8992
394.535522 80.244 9.8378
397.394501 80.271 9.7642
400.274170 80.295 9.6777
403.174744 80.318 9.5813
406.096313 80.339 9.4781
409.039062 80.359 9.3674
412.003113 80.378 9.2483
414.988647 80.395 9.1234
417.995850 80.408 8.9938
421.024811 80.419 8.8624
424.075714 80.428 8.7327
427.148743 80.436 8.6044
430.244049 80.442 8.4776
433.361786 80.445 8.3544
436.502106 80.446 8.2361
439.665161 80.445 8.1253
442.851166 80.441 8.0246
446.060242 80.436 7.9363
449.292572 80.429 7.8633
452.548340 80.422 7.8062
455.827698 80.414 7.7659
459.130798 80.407 7.7430
462.457855 80.399 7.7411
465.809021 80.394 7.7529
469.184448 80.393 7.7746
472.584381 80.396 7.7999
476.008911 80.401 7.8223
479.458252 80.408 7.8390
482.932617 80.417 7.8464
486.432159 80.428 7.8400
489.957031 80.441 7.8122
493.507477 80.453 7.7692
497.083618 80.461 7.7121
500.685699 80.466 7.6482
504.313873 80.469 7.5851
507.968323 80.471 7.5232
511.649292 80.471 7.4646
515.356934 80.470 7.4112
519.091370 80.467 7.3667
522.852966 80.465 7.3271
526.641724 80.465 7.2913
530.458008 80.465 7.2541
534.301941 80.465 7.2095
538.173706 80.464 7.1592
542.073547 80.462 7.1015
546.001648 80.457 7.0402
549.958191 80.450 6.9766
553.943420 80.439 6.9172
557.957520 80.425 6.8661
562.000671 80.407 6.8311
566.073181 80.385 6.8201
570.175171 80.360 6.8369
574.306885 80.335 6.8889
578.468567 80.310 6.9737
582.660400 80.288 7.0930
586.882568 80.268 7.2414
591.135376 80.252 7.4163
595.419006 80.241 7.6103
599.733643 80.236 7.8183
604.079590 80.237 8.0313
608.456970 80.244 8.2392
612.866089 80.256 8.4393
617.307190 80.271 8.6258
621.780457 80.290 8.7975
626.286133 80.312 8.9518
630.824463 80.336 9.0876
635.395691 80.362 9.2017
640.000000 80.389 9.2967
644.637695 80.416 9.3746
649.309021 80.443 9.4338
654.014160 80.472 9.4751
658.753418 80.501 9.4940
663.527039 80.531 9.4858
668.335205 80.560 9.4522
673.178284 80.586 9.3914
678.056396 80.608 9.3093
682.969849 80.626 9.2093
687.918945 80.640 9.0964
692.903870 80.649 8.9737
697.924927 80.652 8.8504
702.982422 80.648 8.7332
708.076477 80.637 8.6323
713.207520 80.620 8.5582
718.375732 80.598 8.5171
723.581360 80.573 8.5189
728.824707 80.546 8.5638
734.106079 80.519 8.6552
739.425720 80.493 8.7924
744.783936 80.469 8.9767
750.180908 80.448 9.2061
755.617065 80.432 9.4828
761.092529 80.422 9.7958
766.607727 80.423 10.1387
772.162903 80.433 10.4997
777.758301 80.453 10.8679
783.394287 80.482 11.2347
789.071045 80.521 11.5921
794.789001 80.570 11.9279
800.548340 80.629 12.2288
806.349487 80.697 12.4901
812.192627 80.769 12.7035
818.078125 80.846 12.8665
824.006226 80.927 12.9752
829.977295 81.012 13.0259
835.991699 81.099 13.0130
842.049622 81.186 12.9384
848.151428 81.271 12.8012
854.297485 81.353 12.6038
860.488098 81.431 12.3469
866.723572 81.505 12.0343
873.004211 81.572 11.6669
879.330322 81.632 11.2535
885.702332 81.682 10.7994
892.120483 81.721 10.3168
898.585144 81.749 9.8150
905.096680 81.765 9.3089
911.655396 81.769 8.8125
918.261597 81.763 8.3367
924.915710 81.748 7.8956
931.618042 81.725 7.4934
938.368896 81.695 7.1388
945.168762 81.661 6.8321
952.017822 81.625 6.5778
958.916504 81.588 6.3707
965.865234 81.553 6.2081
972.864319 81.518 6.0864
979.914062 81.484 6.0018
987.014954 81.453 5.9521
994.167236 81.425 5.9352
1001.371399 81.401 5.9469
1008.627747 81.381 5.9844
1015.936646 81.367 6.0417
1023.298584 81.359 6.1158
1030.713867 81.359 6.1947
1038.182739 81.367 6.2689
1045.705933 81.382 6.3278
1053.283447 81.404 6.3596
1060.916016 81.431 6.3581
1068.603882 81.463 6.3138
1076.347412 81.497 6.2245
1084.147095 81.532 6.0829
1092.003296 81.566 5.8937
1099.916382 81.597 5.6588
1107.886841 81.625 5.3803
1115.915039 81.650 5.0601
1124.001343 81.670 4.7004
1132.146362 81.684 4.3017
1140.350342 81.691 3.8707
1148.613770 81.689 3.4115
1156.937134 81.678 2.9330
1165.320801 81.658 2.4415
1173.765137 81.626 1.9502
1182.270752 81.582 1.4701
1190.838013 81.526 1.0148
1199.467285 81.461 0.6001
1208.159180 81.387 0.2294
1216.913940 81.307 -0.0879
1225.732178 81.222 -0.3551
1234.614380 81.136 -0.5704
1243.560913 81.047 -0.7404
1252.572266 80.958 -0.8711
1261.648926 80.866 -0.9627
1270.791382 80.773 -1.0196
1280.000000 80.677 -1.0350
1289.275391 80.578 -1.0060
1298.618042 80.476 -0.9255
1308.028320 80.372 -0.7868
1317.506836 80.266 -0.5860
1327.054077 80.161 -0.3148
1336.670410 80.058 0.0216
1346.356567 79.961 0.4248
1356.112793 79.871 0.8822
1365.939697 79.790 1.3859
1375.837891 79.718 1.9237
1385.807739 79.657 2.4842
1395.849854 79.605 3.0567
1405.964844 79.563 3.6277
1416.152954 79.527 4.1939
1426.415039 79.497 4.7472
1436.751465 79.471 5.2889
1447.162720 79.449 5.8179
1457.649414 79.430 6.3339
1468.212158 79.414 6.8356
1478.851440 79.399 7.3251
1489.567871 79.383 7.8016
1500.361816 79.366 8.2732
1511.234131 79.348 8.7446
1522.185059 79.327 9.2258
1533.215454 79.303 9.7245
1544.325806 79.277 10.2516
1555.516602 79.249 10.8193
1566.788574 79.222 11.4313
1578.142090 79.199 12.0986
1589.578003 79.182 12.8119
1601.096680 79.175 13.5724
1612.698975 79.179 14.3587
1624.385254 79.199 15.1574
1636.156250 79.233 15.9446
1648.012451 79.282 16.6958
1659.954590 79.342 17.3985
1671.983398 79.408 18.0311
1684.099243 79.478 18.5958
1696.302856 79.548 19.0813
1708.594971 79.614 19.5062
1720.976196 79.670 19.8756
1733.447144 79.717 20.2185
1746.008423 79.751 20.5593
1758.660645 79.776 20.9185
1771.404663 79.793 21.3231
1784.240967 79.806 21.7780
1797.170288 79.818 22.2999
1810.193359 79.832 22.8806
1823.310791 79.852 23.5223
1836.523193 79.881 24.2102
1849.831421 79.920 24.9351
1863.236084 79.971 25.6826
1876.737793 80.032 26.4391
1890.337524 80.105 27.1937
1904.035645 80.187 27.9323
1917.833008 80.279 28.6512
1931.730469 80.377 29.3429
1945.728638 80.483 30.0052
1959.828125 80.595 30.6337
1974.029907 80.712 31.2276
1988.334473 80.834 31.7847
2002.742798 80.958 32.3040
2017.255493 81.088 32.7838
2031.873291 81.219 33.2233
2046.597168 81.352 33.6187
2061.427734 81.484 33.9775
2076.365479 81.614 34.3037
2091.411865 81.741 34.6048
2106.566895 81.868 34.8878
2121.832031 81.993 35.1579
2137.207764 82.117 35.4199
2152.694824 82.239 35.6819
2168.294189 82.360 35.9541
2184.006592 82.482 36.2347
2199.832764 82.610 36.5273
2215.773682 82.742 36.8258
2231.830078 82.880 37.1281
2248.002686 83.025 37.4258
2264.292725 83.179 37.7136
2280.700684 83.341 37.9799
2297.227539 83.511 38.2132
2313.874268 83.687 38.4073
2330.641602 83.870 38.5529
2347.530273 84.056 38.6487
2364.541504 84.246 38.6893
2381.676025 84.437 38.6772
2398.934570 84.629 38.6118
2416.318359 84.822 38.4976
2433.827881 85.015 38.3385
2451.464355 85.209 38.1349
2469.228760 85.404 37.8894
2487.121826 85.599 37.5993
2505.144531 85.796 37.2652
2523.297852 85.995 36.8809
2541.582764 86.196 36.4434
2560.000000 86.398 35.9444
2578.550781 86.602 35.3759
2597.236084 86.804 34.7332
2616.056641 87.003 34.0070
2635.013672 87.196 33.2026
2654.108154 87.380 32.3169
2673.340820 87.553 31.3663
2692.713135 87.712 30.3594
2712.225586 87.857 29.3160
2731.879395 87.987 28.2529
2751.675781 88.104 27.1869
2771.615479 88.209 26.1366
2791.699707 88.305 25.1125
2811.929688 88.391 24.1327
2832.305908 88.474 23.1923
2852.830078 88.557 22.2965
2873.502930 88.641 21.4327
2894.325439 88.728 20.5933
2915.298828 88.819 19.7677
2936.424316 88.914 18.9471
2957.702881 89.014 18.1196
2979.135742 89.118 17.2742
3000.723633 89.228 16.3999
3022.468262 89.341 15.4843
3044.370117 89.456 14.5216
3066.430908 89.573 13.5017
3088.651611 89.687 12.4230
3111.033203 89.799 11.2796
3133.577148 89.907 10.0739
3156.284180 90.006 8.8040
3179.156006 90.098 7.4774
3202.193359 90.179 6.0968
3225.397949 90.249 4.6758
3248.770508 90.304 3.2236
3272.312500 90.345 1.7566
3296.024902 90.371 0.2901
3319.909180 90.384 -1.1623
3343.966797 90.384 -2.5853
3368.198486 90.372 -3.9685
3392.605713 90.351 -5.2979
3417.189941 90.322 -6.5703
3441.952393 90.289 -7.7738
3466.894287 90.255 -8.9200
3492.016846 90.225 -10.0076
3517.321289 90.201 -11.0632
3542.809326 90.186 -12.1032
3568.481934 90.179 -13.1561
3594.340576 90.181 -14.2492
3620.386719 90.186 -15.4013
3646.621582 90.193 -16.6419
3673.046387 90.195 -17.9655
3699.662842 90.184 -19.3883
3726.472168 90.154 -20.8740
3753.475586 90.099 -22.4108
3780.675049 90.015 -23.9412
3808.071289 89.898 -25.4230
3835.666016 89.751 -26.7978
3863.460938 89.572 -28.0020
3891.457275 89.373 -29.0087
3919.656250 89.160 -29.7673
3948.059814 88.944 -30.2862
3976.668945 88.735 -30.5400
4005.485596 88.548 -30.5803
4034.510986 88.396 -30.4213
4063.746582 88.286 -30.1495
4093.194336 88.231 -29.8320
4122.855469 88.221 -29.5412
4152.730957 88.257 -29.3601
4182.823730 88.327 -29.3238
4213.133789 88.421 -29.4949
4243.664062 88.528 -29.8727
4274.415527 88.638 -30.4877
4305.389648 88.742 -31.3075
4336.588379 88.828 -32.3232
4368.013184 88.897 -33.4941
4399.665527 88.941 -34.7877
4431.547363 88.963 -36.1701
4463.660156 88.961 -37.6026
4496.005371 88.936 -39.0676
4528.585449 88.891 -40.5388
4561.401367 88.825 -42.0031
4594.455078 88.740 -43.4436
4627.748535 88.637 -44.8453
4661.283203 88.515 -46.1927
4695.060547 88.376 -47.4700
4729.083008 88.220 -48.6586
4763.352051 88.052 -49.7501
4797.869141 87.874 -50.7277
4832.636719 87.690 -51.5969
4867.655762 87.503 -52.3538
4902.928711 87.316 -53.0100
4938.457520 87.132 -53.5736
4974.243652 86.952 -54.0519
5010.289062 86.776 -54.4525
5046.595703 86.606 -54.7835
5083.165527 86.444 -55.0545
5120.000000 86.288 -55.2691
5157.101562 86.136 -55.4337
5194.472168 85.992 -55.5486
5232.113281 85.854 -55.6126
5270.027344 85.726 -55.6360
5308.216309 85.609 -55.6237
5346.681641 85.503 -55.5902
5385.426270 85.410 -55.5475
5424.451172 85.328 -55.5082
5463.758789 85.258 -55.4859
5503.351562 85.197 -55.4889
5543.230957 85.146 -55.5288
5583.399414 85.102 -55.6085
5623.859375 85.062 -55.7355
5664.611816 85.024 -55.9071
5705.660156 84.989 -56.1244
5747.005859 84.953 -56.3826
5788.650879 84.916 -56.6792
5830.597656 84.876 -57.0072
5872.848633 84.834 -57.3605
5915.405762 84.788 -57.7340
5958.271484 84.740 -58.1227
6001.447266 84.688 -58.5209
6044.936523 84.633 -58.9226
6088.740234 84.575 -59.3250
6132.861816 84.516 -59.7226
6177.303223 84.455 -60.1170
6222.066406 84.395 -60.5065
6267.154297 84.335 -60.8950
6312.568359 84.277 -61.2840
6358.312012 84.219 -61.6790
6404.386719 84.164 -62.0852
6450.795898 84.109 -62.5058
6497.541016 84.055 -62.9457
6544.625000 84.000 -63.4046
6592.049805 83.944 -63.8844
6639.818359 83.886 -64.3834
6687.933594 83.826 -64.9022
6736.396973 83.761 -65.4362
6785.211426 83.693 -65.9837
6834.379883 83.619 -66.5362
6883.904785 83.540 -67.0857
6933.788574 83.456 -67.6282
6984.033691 83.369 -68.1583
7034.642578 83.278 -68.6725
7085.618652 83.185 -69.1659
7136.963867 83.090 -69.6377
7188.681152 82.994 -70.0833
7240.773438 82.899 -70.5089
7293.243164 82.808 -70.9148
7346.092773 82.721 -71.3140
7399.325684 82.640 -71.7151
7452.944336 82.564 -72.1319
7506.951172 82.495 -72.5759
7561.350098 82.430 -73.0624
7616.142578 82.371 -73.6073
7671.332031 82.312 -74.2197
7726.921875 82.253 -74.9145
7782.914551 82.189 -75.6888
7839.312500 82.116 -76.5499
7896.119629 82.030 -77.4819
7953.337891 81.929 -78.4804
8010.971191 81.808 -79.5175
8069.021973 81.663 -80.5748
8127.493164 81.495 -81.6186
8186.388672 81.301 -82.6204
8245.710938 81.083 -83.5454
8305.461914 80.840 -84.3573
8365.647461 80.576 -85.0319
8426.267578 80.296 -85.5317
8487.328125 80.006 -85.8597
8548.831055 79.713 -85.9978
8610.779297 79.424 -85.9725
8673.176758 79.146 -85.7951
8736.026367 78.881 -85.4949
8799.331055 78.635 -85.0948
8863.094727 78.407 -84.6266
8927.320312 78.203 -84.1212
8992.010742 78.019 -83.6037
9057.170898 77.853 -83.1091
9122.802734 77.700 -82.6394
9188.910156 77.553 -82.2105
9255.497070 77.413 -81.8160
9322.566406 77.275 -81.4570
9390.121094 77.140 -81.1277
9458.166016 77.004 -80.8237
9526.704102 76.867 -80.5414
9595.738281 76.728 -80.2741
9665.273438 76.589 -80.0263
9735.311523 76.449 -79.8004
9805.857422 76.306 -79.5960
9876.915039 76.156 -79.4163
9948.487305 75.998 -79.2529
10020.578125 75.832 -79.1044
10093.191406 75.653 -78.9529
10166.331055 75.458 -78.7927
10240.000000 75.243 -78.5843
10314.203125 75.005 -78.3054
10388.944336 74.742 -77.8983
10464.226562 74.452 -77.3196
10540.054688 74.138 -76.5037
10616.432617 73.799 -75.3856
10693.363281 73.447 -73.9179
10770.852539 73.088 -72.0249
10848.902344 72.746 -69.7246
10927.517578 72.441 -66.9805
11006.703125 72.197 -63.8826
11086.461914 72.039 -60.4627
11166.798828 71.981 -56.8613
11247.718750 72.052 -53.1765
11329.223633 72.241 -49.5691
11411.320312 72.555 -46.1964
11494.011719 72.964 -43.1672
11577.301758 73.445 -40.6310
11661.195312 73.974 -38.6236
11745.697266 74.524 -37.2395
11830.811523 75.077 -36.4507
11916.542969 75.608 -36.2869
12002.894531 76.108 -36.6665
12089.873047 76.560 -37.5444
12177.480469 76.965 -38.8386
12265.723633 77.318 -40.4701
12354.606445 77.621 -42.3840
12444.132812 77.873 -44.5126
12534.308594 78.075 -46.8151
12625.136719 78.226 -49.2389
12716.624023 78.329 -51.7525
12808.773438 78.383 -54.3141
12901.591797 78.390 -56.9023
12995.082031 78.352 -59.4922
13089.250000 78.267 -62.0523
13184.099609 78.133 -64.5581
13279.636719 77.950 -66.9639
13375.867188 77.717 -69.2341
13472.793945 77.436 -71.3128
13570.422852 77.104 -73.1517
13668.759766 76.726 -74.6928
13767.809570 76.305 -75.8736
13867.577148 75.849 -76.6587
13968.067383 75.364 -76.9932
14069.285156 74.866 -76.8740
14171.237305 74.363 -76.2671
14273.927734 73.875 -75.2107
14377.362305 73.414 -73.7065
14481.546875 73.000 -71.8325
14586.486328 72.653 -69.6373
14692.185547 72.378 -67.2126
14798.651367 72.189 -64.6339
14905.888672 72.085 -62.0013
15013.902344 72.079 -59.4118
15122.700195 72.154 -56.9514
15232.285156 72.305 -54.7202
15342.664062 72.516 -52.7728
15453.843750 72.777 -51.1917
15565.829102 73.066 -49.9934
15678.625000 73.365 -49.2357
15792.239258 73.657 -48.8749
15906.675781 73.926 -48.9120
16021.942383 74.165 -49.2703
16138.043945 74.362 -49.9005
16254.986328 74.518 -50.7198
16372.777344 74.629 -51.6479
16491.421875 74.705 -52.6285
16610.923828 74.748 -53.5779
16731.294922 74.771 -54.4988
16852.535156 74.785 -55.3512
16974.656250 74.794 -56.1800
17097.662109 74.808 -57.0011
17221.558594 74.824 -57.8616
17346.353516 74.845 -58.8084
17472.052734 74.860 -59.8583
17598.662109 74.864 -61.0530
17726.189453 74.846 -62.3631
17854.640625 74.798 -63.7935
17984.021484 74.713 -65.2807
18114.341797 74.582 -66.7859
18245.605469 74.408 -68.2380
18377.820312 74.188 -69.5687
18510.994141 73.929 -70.7309
18645.132812 73.631 -71.6679
18780.242188 73.303 -72.3402
18916.332031 72.946 -72.6871
19053.408203 72.578 -72.7148
19191.476562 72.214 -72.3866
19330.546875 71.865 -71.7701
19470.623047 71.546 -70.9044
19611.714844 71.259 -69.8395
19753.830078 71.003 -68.6206
19896.974609 70.788 -67.3012
