* Measurement data measured by REW V5.20.13
* Source: C:\Users\kurin\Desktop\Targets and Curves\Resolve\Img\Files\TRI Starlight V4_SPL.txt
* Format: Comma/Tab/Space delimited data
* Dated: Aug 14, 2023 6:46:13 PM
* REW Settings:
*  C-weighting compensation: Off
*  Target level: 75.0 dB
* Note: ; Measurement imported from C:\Users\kurin\Desktop\Targets and Curves\Resolve\Img\Files\TRI Starlight V4_SPL.txt Format: Comma/Tab/Space delimited data 623 values loaded, 5 Hz to 39,792 Hz log spaced 
* Measurement: TRI Starlight V4_SPL
* Smoothing: 1/48 octave
* Frequency Step: 1/96 octave
* Start Frequency: 5.000 Hz
*
* Freq(Hz) SPL(dB) Phase(degrees)
5.000000 85.516 28.5980
5.036232 85.526 28.5859
5.072727 85.537 28.5730
5.109486 85.550 28.5580
5.146511 85.564 28.5410
5.183805 85.581 28.5212
5.221369 85.600 28.5000
5.259205 85.619 28.4785
5.297316 85.640 28.4560
5.335702 85.662 28.4318
5.374367 85.684 28.4070
5.413311 85.706 28.3825
5.452538 85.728 28.3580
5.492050 85.750 28.3336
5.531847 85.772 28.3090
5.571934 85.794 28.2841
5.612310 85.816 28.2590
5.652979 85.838 28.2341
5.693943 85.860 28.2090
5.735204 85.882 28.1836
5.776763 85.904 28.1580
5.818624 85.926 28.1321
5.860788 85.949 28.1060
5.903258 85.971 28.0796
5.946035 85.993 28.0530
5.989123 86.015 28.0266
6.032523 86.037 28.0000
6.076237 86.059 27.9731
6.120268 86.081 27.9460
6.164618 86.103 27.9186
6.209289 86.125 27.8910
6.254284 86.147 27.8636
6.299605 86.169 27.8360
6.345255 86.191 27.8076
6.391235 86.213 27.7790
6.437549 86.235 27.7506
6.484198 86.257 27.7220
6.531185 86.280 27.6931
6.578513 86.302 27.6640
6.626183 86.324 27.6346
6.674199 86.346 27.6050
6.722563 86.368 27.5751
6.771278 86.390 27.5450
6.820345 86.412 27.5151
6.869768 86.434 27.4850
6.919549 86.456 27.4541
6.969691 86.478 27.4230
7.020196 86.500 27.3921
7.071068 86.522 27.3610
7.122308 86.544 27.3297
7.173919 86.566 27.2980
7.225904 86.588 27.2656
7.278266 86.610 27.2330
7.331007 86.632 27.2006
7.384131 86.655 27.1680
7.437639 86.677 27.1351
7.491535 86.699 27.1020
7.545822 86.721 27.0686
7.600502 86.743 27.0350
7.655579 86.765 27.0011
7.711054 86.787 26.9670
7.766932 86.809 26.9326
7.823214 86.831 26.8980
7.879904 86.853 26.8631
7.937005 86.875 26.8280
7.994520 86.897 26.7926
8.052452 86.919 26.7570
8.110803 86.941 26.7212
8.169578 86.964 26.6850
8.228777 86.986 26.6481
8.288406 87.008 26.6110
8.348468 87.030 26.5741
8.408964 87.052 26.5370
8.469899 87.074 26.4997
8.531276 87.096 26.4620
8.593097 87.118 26.4237
8.655366 87.140 26.3850
8.718086 87.162 26.3461
8.781260 87.184 26.3070
8.844893 87.206 26.2676
8.908987 87.228 26.2280
8.973545 87.250 26.1881
9.038571 87.272 26.1480
9.104069 87.294 26.1077
9.170040 87.317 26.0670
9.236490 87.339 26.0257
9.303422 87.361 25.9840
9.370838 87.383 25.9421
9.438744 87.405 25.9000
9.507140 87.427 25.8576
9.576033 87.449 25.8150
9.645425 87.471 25.7722
9.715320 87.493 25.7290
9.785721 87.515 25.6852
9.856632 87.537 25.6410
9.928058 87.559 25.5966
10.000000 87.581 25.5520
10.072464 87.603 25.5072
10.145453 87.625 25.4621
10.218971 87.647 25.4162
10.293022 87.670 25.3700
10.367610 87.692 25.3237
10.442738 87.714 25.2770
10.518411 87.736 25.2297
10.594631 87.758 25.1820
10.671404 87.780 25.1341
10.748734 87.802 25.0860
10.826623 87.824 25.0377
10.905077 87.846 24.9890
10.984100 87.868 24.9398
11.063695 87.890 24.8900
11.143867 87.912 24.8397
11.224621 87.934 24.7890
11.305959 87.956 24.7382
11.387886 87.978 24.6870
11.470407 88.000 24.6352
11.553527 88.023 24.5830
11.637249 88.045 24.5307
11.721577 88.067 24.4780
11.806517 88.089 24.4248
11.892071 88.111 24.3711
11.978246 88.133 24.3167
12.065045 88.155 24.2620
12.152473 88.177 24.2072
12.240536 88.199 24.1520
12.329235 88.221 24.0963
12.418578 88.243 24.0401
12.508568 88.265 23.9833
12.599211 88.287 23.9260
12.690510 88.309 23.8682
12.782471 88.331 23.8101
12.875097 88.353 23.7517
12.968395 88.376 23.6930
13.062370 88.398 23.6338
13.157025 88.420 23.5740
13.252366 88.442 23.5138
13.348398 88.464 23.4530
13.445127 88.486 23.3918
13.542556 88.508 23.3301
13.640691 88.530 23.2678
13.739536 88.552 23.2050
13.839099 88.574 23.1418
13.939383 88.596 23.0781
14.040393 88.618 23.0138
14.142136 88.640 22.9490
14.244616 88.662 22.8838
14.347837 88.684 22.8180
14.451808 88.706 22.7518
14.556532 88.729 22.6850
14.662014 88.751 22.6179
14.768262 88.773 22.5501
14.875278 88.795 22.4813
14.983070 88.817 22.4121
15.091644 88.839 22.3428
15.201005 88.861 22.2731
15.311157 88.883 22.2024
15.422109 88.905 22.1311
15.533863 88.927 22.0593
15.646428 88.949 21.9870
15.759809 88.971 21.9143
15.874010 88.993 21.8411
15.989040 89.015 21.7673
16.104904 89.037 21.6931
16.221605 89.059 21.6183
16.339155 89.082 21.5431
16.457554 89.104 21.4673
16.576813 89.126 21.3911
16.696936 89.148 21.3143
16.817928 89.170 21.2370
16.939798 89.192 21.1593
17.062551 89.214 21.0811
17.186193 89.236 21.0028
17.310732 89.258 20.9240
17.436172 89.280 20.8447
17.562521 89.302 20.7651
17.689787 89.324 20.6856
17.817974 89.346 20.6061
17.947090 89.368 20.5261
18.077143 89.391 20.4460
18.208138 89.413 20.3659
18.340080 89.435 20.2861
18.472980 89.457 20.2071
18.606844 89.479 20.1290
18.741676 89.501 20.0519
18.877487 89.523 19.9771
19.014280 89.545 19.9058
19.152065 89.567 19.8381
19.290850 89.590 19.7747
19.430639 89.614 19.7150
19.571442 89.639 19.6604
19.713264 89.666 19.6061
19.856115 89.697 19.5499
20.000000 89.731 19.4851
20.144928 89.767 19.4046
20.290907 89.804 19.3071
20.437943 89.842 19.1881
20.586044 89.879 19.0501
20.735220 89.915 18.8925
20.885475 89.949 18.7202
21.036821 89.980 18.5351
21.189262 90.007 18.3452
21.342808 90.031 18.1585
21.497467 90.052 17.9772
21.653246 90.072 17.8072
21.810154 90.093 17.6462
21.968201 90.115 17.4966
22.127390 90.138 17.3502
22.287735 90.164 17.2016
22.449242 90.192 17.0451
22.611917 90.221 16.8731
22.775772 90.251 16.6862
22.940815 90.279 16.4818
23.107054 90.306 16.2633
23.274498 90.330 16.0315
23.443153 90.352 15.7923
23.613033 90.369 15.5502
23.784142 90.383 15.3112
23.956491 90.394 15.0830
24.130091 90.404 14.8652
24.304947 90.413 14.6608
24.481071 90.422 14.4672
24.658470 90.431 14.2842
24.837156 90.441 14.1082
25.017136 90.452 13.9367
25.198421 90.465 13.7662
25.381020 90.479 13.5924
25.564941 90.493 13.4152
25.750195 90.507 13.2328
25.936790 90.520 13.0462
26.124741 90.534 12.8566
26.314051 90.547 12.6623
26.504732 90.560 12.4606
26.696796 90.572 12.2553
26.890253 90.581 12.0490
27.085112 90.589 11.8422
27.281382 90.597 11.6363
27.479073 90.604 11.4313
27.678198 90.610 11.2267
27.878765 90.614 11.0253
28.080786 90.616 10.8291
28.284271 90.617 10.6393
28.489231 90.618 10.4574
28.695675 90.619 10.2832
28.903616 90.619 10.1174
29.113064 90.619 9.9592
29.324028 90.620 9.8084
29.536524 90.621 9.6642
29.750557 90.623 9.5266
29.966141 90.625 9.3931
30.183289 90.629 9.2625
30.402010 90.634 9.1312
30.622314 90.641 8.9949
30.844217 90.648 8.8542
31.067726 90.655 8.7083
31.292856 90.661 8.5572
31.519617 90.667 8.4002
31.748020 90.673 8.2392
31.978081 90.677 8.0740
32.209808 90.679 7.9112
32.443211 90.678 7.7559
32.678310 90.675 7.6122
32.915108 90.671 7.4871
33.153625 90.668 7.3771
33.393871 90.667 7.2831
33.635857 90.669 7.1991
33.879597 90.674 7.1211
34.125103 90.682 7.0441
34.372387 90.693 6.9637
34.621464 90.707 6.8741
34.872345 90.724 6.7685
35.125042 90.743 6.6462
35.379574 90.761 6.5027
35.635948 90.779 6.3422
35.894180 90.795 6.1666
36.154285 90.810 5.9783
36.416275 90.824 5.7801
36.680161 90.837 5.5723
36.945961 90.847 5.3558
37.213688 90.856 5.1323
37.483353 90.863 4.9037
37.754974 90.868 4.6714
38.028561 90.870 4.4359
38.304131 90.870 4.2013
38.581699 90.866 3.9703
38.861279 90.860 3.7473
39.142883 90.851 3.5365
39.426529 90.840 3.3413
39.712231 90.827 3.1669
40.000000 90.814 3.0112
40.289856 90.802 2.8753
40.581814 90.792 2.7552
40.875885 90.784 2.6485
41.172089 90.778 2.5511
41.470440 90.775 2.4597
41.770950 90.774 2.3692
42.073643 90.776 2.2742
42.378525 90.781 2.1722
42.685616 90.787 2.0584
42.994934 90.793 1.9342
43.306492 90.800 1.7990
43.620308 90.807 1.6532
43.936401 90.813 1.4968
44.254780 90.819 1.3313
44.575470 90.823 1.1571
44.898483 90.826 0.9773
45.223835 90.828 0.7948
45.551544 90.828 0.6103
45.881630 90.827 0.4243
46.214108 90.824 0.2393
46.548996 90.820 0.0571
46.886307 90.814 -0.1207
47.226067 90.808 -0.2917
47.568283 90.801 -0.4567
47.912983 90.794 -0.6161
48.260181 90.787 -0.7698
48.609894 90.780 -0.9180
48.962143 90.772 -1.0608
49.316940 90.765 -1.1977
49.674313 90.758 -1.3298
50.034271 90.752 -1.4586
50.396843 90.746 -1.5828
50.762039 90.740 -1.7006
51.129883 90.735 -1.8148
51.500389 90.732 -1.9269
51.873581 90.731 -2.0398
52.249481 90.730 -2.1568
52.628101 90.731 -2.2788
53.009464 90.733 -2.4068
53.393593 90.736 -2.5438
53.780506 90.740 -2.6926
54.170223 90.745 -2.8537
54.562763 90.748 -3.0308
54.958145 90.750 -3.2177
55.356396 90.749 -3.4108
55.757530 90.746 -3.6067
56.161572 90.741 -3.8010
56.568542 90.735 -3.9937
56.978462 90.728 -4.1829
57.391350 90.720 -4.3697
57.807232 90.711 -4.5549
58.226128 90.702 -4.7377
58.648056 90.692 -4.9171
59.073048 90.681 -5.0937
59.501114 90.670 -5.2676
59.932281 90.659 -5.4397
60.366577 90.647 -5.6121
60.804020 90.635 -5.7817
61.244629 90.621 -5.9462
61.688435 90.607 -6.1057
62.135452 90.593 -6.2597
62.585712 90.578 -6.4087
63.039234 90.563 -6.5531
63.496040 90.548 -6.6928
63.956161 90.533 -6.8276
64.419617 90.519 -6.9588
64.886421 90.505 -7.0873
65.356621 90.491 -7.2128
65.830215 90.477 -7.3345
66.307251 90.464 -7.4538
66.787743 90.452 -7.5711
67.271713 90.440 -7.6888
67.759193 90.429 -7.8095
68.250206 90.418 -7.9318
68.744774 90.407 -8.0547
69.242928 90.395 -8.1788
69.744690 90.384 -8.3041
70.250084 90.373 -8.4308
70.759148 90.361 -8.5593
71.271896 90.349 -8.6878
71.788361 90.337 -8.8144
72.308571 90.324 -8.9398
72.832550 90.312 -9.0626
73.360321 90.300 -9.1858
73.891922 90.290 -9.3121
74.427376 90.279 -9.4408
74.966705 90.267 -9.5719
75.509949 90.255 -9.7058
76.057121 90.244 -9.8422
76.608261 90.232 -9.9817
77.163399 90.219 -10.1256
77.722557 90.205 -10.2707
78.285767 90.190 -10.4145
78.853058 90.175 -10.5567
79.424461 90.159 -10.6965
80.000000 90.142 -10.8337
80.579712 90.125 -10.9682
81.163628 90.108 -11.0998
81.751770 90.090 -11.2279
82.344177 90.072 -11.3537
82.940880 90.055 -11.4781
83.541901 90.038 -11.6008
84.147285 90.020 -11.7218
84.757050 90.002 -11.8418
85.371231 89.985 -11.9610
85.989868 89.967 -12.0798
86.612984 89.949 -12.1988
87.240616 89.931 -12.3178
87.872803 89.913 -12.4363
88.509560 89.895 -12.5548
89.150940 89.876 -12.6742
89.796967 89.857 -12.7928
90.447670 89.837 -12.9089
91.103088 89.817 -13.0228
91.763260 89.797 -13.1341
92.428215 89.776 -13.2428
93.097992 89.755 -13.3487
93.772614 89.734 -13.4518
94.452133 89.713 -13.5512
95.136566 89.692 -13.6488
95.825966 89.672 -13.7460
96.520363 89.653 -13.8438
97.219788 89.634 -13.9433
97.924286 89.614 -14.0448
98.633881 89.595 -14.1491
99.348625 89.575 -14.2548
100.068542 89.554 -14.3613
100.793686 89.532 -14.4667
101.524078 89.509 -14.5683
102.259766 89.486 -14.6678
103.000778 89.464 -14.7666
103.747162 89.441 -14.8628
104.498962 89.417 -14.9546
105.256203 89.392 -15.0428
106.018929 89.369 -15.1265
106.787186 89.346 -15.2088
107.561012 89.324 -15.2937
108.340446 89.301 -15.3789
109.125526 89.277 -15.4634
109.916290 89.253 -15.5468
110.712791 89.230 -15.6277
111.515060 89.207 -15.7078
112.323143 89.183 -15.7896
113.137085 89.159 -15.8708
113.956924 89.134 -15.9500
114.782700 89.108 -16.0268
115.614464 89.083 -16.0995
116.452255 89.058 -16.1709
117.296112 89.034 -16.2433
118.146095 89.009 -16.3158
119.002228 88.983 -16.3889
119.864563 88.957 -16.4608
120.733154 88.930 -16.5303
121.608040 88.902 -16.5969
122.489258 88.875 -16.6599
123.376869 88.847 -16.7189
124.270905 88.818 -16.7731
125.171425 88.789 -16.8219
126.078468 88.760 -16.8638
126.992081 88.732 -16.9009
127.912323 88.704 -16.9349
128.839233 88.677 -16.9659
129.772842 88.650 -16.9940
130.713242 88.624 -17.0209
131.660431 88.599 -17.0480
132.614502 88.575 -17.0769
133.575485 88.551 -17.1108
134.543427 88.527 -17.1469
135.518387 88.501 -17.1839
136.500412 88.475 -17.2209
137.489548 88.450 -17.2562
138.485855 88.425 -17.2919
139.489380 88.399 -17.3301
140.500168 88.373 -17.3689
141.518295 88.346 -17.4073
142.543793 88.319 -17.4449
143.576721 88.292 -17.4807
144.617142 88.264 -17.5149
145.665100 88.235 -17.5484
146.720642 88.206 -17.5789
147.783844 88.177 -17.6045
148.854752 88.147 -17.6259
149.933411 88.117 -17.6433
151.019897 88.087 -17.6570
152.114243 88.057 -17.6674
153.216522 88.027 -17.6750
154.326797 87.998 -17.6797
155.445114 87.969 -17.6830
156.571533 87.940 -17.6862
157.706116 87.911 -17.6890
158.848923 87.882 -17.6918
160.000000 87.852 -17.6930
161.159424 87.822 -17.6914
162.327255 87.791 -17.6860
163.503540 87.760 -17.6748
164.688354 87.729 -17.6590
165.881760 87.699 -17.6385
167.083801 87.669 -17.6151
168.294571 87.640 -17.5903
169.514099 87.611 -17.5651
170.742462 87.583 -17.5410
171.979736 87.554 -17.5181
173.225967 87.526 -17.4971
174.481232 87.497 -17.4770
175.745605 87.468 -17.4584
177.019119 87.437 -17.4381
178.301880 87.405 -17.4139
179.593933 87.372 -17.3841
180.895340 87.339 -17.3460
182.206177 87.306 -17.3001
183.526520 87.273 -17.2451
184.856430 87.240 -17.1831
186.195984 87.209 -17.1150
187.545227 87.179 -17.0442
188.904266 87.150 -16.9747
190.273132 87.122 -16.9062
191.651932 87.094 -16.8395
193.040726 87.065 -16.7742
194.439575 87.037 -16.7104
195.848572 87.008 -16.6472
197.267761 86.978 -16.5848
198.697250 86.947 -16.5192
200.137085 86.914 -16.4471
201.587372 86.880 -16.3662
203.048157 86.846 -16.2732
204.519531 86.812 -16.1683
206.001556 86.778 -16.0507
207.494324 86.745 -15.9203
208.997925 86.713 -15.7762
210.512405 86.683 -15.6214
212.037857 86.655 -15.4575
213.574371 86.629 -15.2874
215.122025 86.607 -15.1131
216.680893 86.587 -14.9395
218.251053 86.571 -14.7709
219.832581 86.557 -14.6105
221.425583 86.546 -14.4625
223.030121 86.536 -14.3273
224.646286 86.526 -14.2070
226.274170 86.517 -14.1003
227.913849 86.508 -14.0067
229.565399 86.498 -13.9262
231.228928 86.488 -13.8594
232.904510 86.477 -13.8032
234.592224 86.464 -13.7559
236.292191 86.449 -13.7141
238.004456 86.432 -13.6737
239.729126 86.413 -13.6341
241.466309 86.393 -13.5936
243.216080 86.372 -13.5511
244.978516 86.349 -13.5058
246.753738 86.324 -13.4552
248.541809 86.298 -13.3959
250.342850 86.272 -13.3292
252.156937 86.245 -13.2550
253.984161 86.218 -13.1732
255.824646 86.191 -13.0836
257.678467 86.165 -12.9873
259.545685 86.139 -12.8843
261.426483 86.113 -12.7773
263.320862 86.088 -12.6695
265.229004 86.063 -12.5583
267.150970 86.037 -12.4418
269.086853 86.012 -12.3214
271.036774 85.988 -12.1971
273.000824 85.965 -12.0714
274.979095 85.942 -11.9477
276.971710 85.919 -11.8224
278.978760 85.895 -11.6925
281.000336 85.871 -11.5594
283.036591 85.848 -11.4227
285.087585 85.826 -11.2844
287.153442 85.804 -11.1472
289.234283 85.782 -11.0084
291.330200 85.759 -10.8656
293.441284 85.736 -10.7204
295.567688 85.715 -10.5738
297.709503 85.694 -10.4254
299.866821 85.672 -10.2754
302.039795 85.650 -10.1225
304.228485 85.629 -9.9650
306.433044 85.608 -9.8045
308.653595 85.587 -9.6421
310.890228 85.567 -9.4775
313.143066 85.547 -9.3102
315.412231 85.527 -9.1405
317.697845 85.508 -8.9683
320.000000 85.489 -8.7945
322.318848 85.471 -8.6205
324.654510 85.453 -8.4456
327.007080 85.435 -8.2697
329.376709 85.418 -8.0926
331.763519 85.401 -7.9137
334.167603 85.384 -7.7336
336.589142 85.368 -7.5524
339.028198 85.352 -7.3705
341.484924 85.336 -7.1883
343.959473 85.321 -7.0055
346.451935 85.306 -6.8221
348.962463 85.292 -6.6385
351.491211 85.278 -6.4558
354.038239 85.263 -6.2725
356.603760 85.248 -6.0876
359.187866 85.233 -5.9016
361.790680 85.219 -5.7148
364.412354 85.206 -5.5265
367.053040 85.192 -5.3362
369.712860 85.177 -5.1436
372.391968 85.163 -4.9482
375.090454 85.150 -4.7506
377.808533 85.137 -4.5519
380.546265 85.124 -4.3506
383.303864 85.111 -4.1449
386.081451 85.098 -3.9366
388.879150 85.087 -3.7262
391.697144 85.077 -3.5156
394.535522 85.067 -3.3079
397.394501 85.057 -3.1006
400.274170 85.047 -2.8919
403.174744 85.038 -2.6827
406.096313 85.029 -2.4726
409.039062 85.020 -2.2627
412.003113 85.012 -2.0539
414.988647 85.004 -1.8457
417.995850 84.996 -1.6382
421.024811 84.987 -1.4297
424.075714 84.978 -1.2185
427.148743 84.970 -1.0047
430.244049 84.962 -0.7876
433.361786 84.954 -0.5677
436.502106 84.946 -0.3451
439.665161 84.939 -0.1197
442.851166 84.932 0.1088
446.060242 84.925 0.3403
449.292572 84.919 0.5753
452.548340 84.914 0.8123
455.827698 84.911 1.0507
459.130798 84.909 1.2882
462.457855 84.907 1.5223
465.809021 84.906 1.7533
469.184448 84.906 1.9807
472.584381 84.906 2.2053
476.008911 84.906 2.4279
479.458252 84.906 2.6483
482.932617 84.906 2.8665
486.432159 84.906 3.0833
489.957031 84.906 3.2996
493.507477 84.906 3.5153
497.083618 84.906 3.7308
500.685699 84.906 3.9463
504.313873 84.906 4.1622
507.968323 84.906 4.3783
511.649292 84.906 4.5945
515.356934 84.906 4.8113
519.091370 84.906 5.0293
522.852966 84.906 5.2483
526.641724 84.906 5.4677
530.458008 84.906 5.6883
534.301941 84.906 5.9104
538.173706 84.906 6.1342
542.073547 84.906 6.3602
546.001648 84.906 6.5882
549.958191 84.906 6.8184
553.943420 84.906 7.0512
557.957520 84.906 7.2869
562.000671 84.906 7.5262
566.073181 84.906 7.7699
570.175171 84.906 8.0182
574.306885 84.907 8.2716
578.468567 84.908 8.5301
582.660400 84.909 8.7945
586.882568 84.911 9.0631
591.135376 84.915 9.3349
595.419006 84.921 9.6081
599.733643 84.928 9.8799
604.079590 84.935 10.1511
608.456970 84.942 10.4208
612.866089 84.950 10.6901
617.307190 84.958 10.9598
621.780457 84.967 11.2291
626.286133 84.976 11.4972
630.824463 84.986 11.7651
635.395691 84.995 12.0329
640.000000 85.005 12.3031
644.637695 85.014 12.5790
649.309021 85.024 12.8580
654.014160 85.036 13.1391
658.753418 85.049 13.4210
663.527039 85.062 13.7020
668.335205 85.076 13.9831
673.178284 85.090 14.2649
678.056396 85.104 14.5470
682.969849 85.120 14.8294
687.918945 85.137 15.1110
692.903870 85.154 15.3910
697.924927 85.171 15.6700
702.982422 85.188 15.9483
708.076477 85.206 16.2270
713.207520 85.224 16.5072
718.375732 85.242 16.7890
723.581360 85.260 17.0726
728.824707 85.279 17.3590
734.106079 85.298 17.6496
739.425720 85.319 17.9429
744.783936 85.340 18.2381
750.180908 85.363 18.5339
755.617065 85.387 18.8286
761.092529 85.411 19.1229
766.607727 85.436 19.4173
772.162903 85.461 19.7110
777.758301 85.488 20.0028
783.394287 85.515 20.2940
789.071045 85.542 20.5847
794.789001 85.569 20.8760
800.548340 85.597 21.1685
806.349487 85.625 21.4629
812.192627 85.654 21.7600
818.078125 85.684 22.0599
824.006226 85.714 22.3635
829.977295 85.745 22.6699
835.991699 85.778 22.9786
842.049622 85.812 23.2889
848.151428 85.847 23.5998
854.297485 85.884 23.9118
860.488098 85.921 24.2256
866.723572 85.960 24.5398
873.004211 86.001 24.8543
879.330322 86.044 25.1669
885.702332 86.088 25.4749
892.120483 86.134 25.7799
898.585144 86.180 26.0828
905.096680 86.228 26.3829
911.655396 86.277 26.6801
918.261597 86.328 26.9729
924.915710 86.380 27.2594
931.618042 86.433 27.5410
938.368896 86.486 27.8182
945.168762 86.541 28.0920
952.017822 86.597 28.3642
958.916504 86.654 28.6330
965.865234 86.713 28.8977
972.864319 86.774 29.1571
979.914062 86.836 29.4094
987.014954 86.900 29.6551
994.167236 86.965 29.8947
1001.371399 87.031 30.1262
1008.627747 87.099 30.3476
1015.936646 87.168 30.5591
1023.298584 87.237 30.7595
1030.713867 87.308 30.9504
1038.182739 87.378 31.1336
1045.705933 87.450 31.3083
1053.283447 87.522 31.4743
1060.916016 87.596 31.6313
1068.603882 87.670 31.7790
1076.347412 87.745 31.9175
1084.147095 87.820 32.0474
1092.003296 87.897 32.1666
1099.916382 87.975 32.2731
1107.886841 88.054 32.3676
1115.915039 88.131 32.4502
1124.001343 88.209 32.5218
1132.146362 88.287 32.5842
1140.350342 88.367 32.6348
1148.613770 88.447 32.6709
1156.937134 88.527 32.6939
1165.320801 88.605 32.7042
1173.765137 88.684 32.7030
1182.270752 88.762 32.6918
1190.838013 88.840 32.6701
1199.467285 88.917 32.6374
1208.159180 88.993 32.5962
1216.913940 89.067 32.5488
1225.732178 89.141 32.4952
1234.614380 89.215 32.4362
1243.560913 89.289 32.3713
1252.572266 89.362 32.2997
1261.648926 89.435 32.2223
1270.791382 89.506 32.1399
1280.000000 89.578 32.0523
1289.275391 89.649 31.9598
1298.618042 89.721 31.8624
1308.028320 89.792 31.7603
1317.506836 89.863 31.6535
1327.054077 89.934 31.5429
1336.670410 90.005 31.4265
1346.356567 90.076 31.3024
1356.112793 90.148 31.1705
1365.939697 90.219 31.0304
1375.837891 90.290 30.8816
1385.807739 90.361 30.7230
1395.849854 90.431 30.5557
1405.964844 90.500 30.3798
1416.152954 90.568 30.1977
1426.415039 90.634 30.0114
1436.751465 90.700 29.8217
1447.162720 90.765 29.6304
1457.649414 90.830 29.4368
1468.212158 90.894 29.2411
1478.851440 90.958 29.0428
1489.567871 91.022 28.8418
1500.361816 91.086 28.6368
1511.234131 91.150 28.4264
1522.185059 91.215 28.2110
1533.215454 91.278 27.9907
1544.325806 91.342 27.7650
1555.516602 91.405 27.5333
1566.788574 91.469 27.2960
1578.142090 91.531 27.0529
1589.578003 91.593 26.8051
1601.096680 91.654 26.5544
1612.698975 91.716 26.2991
1624.385254 91.777 26.0375
1636.156250 91.839 25.7712
1648.012451 91.899 25.5005
1659.954590 91.958 25.2270
1671.983398 92.017 24.9531
1684.099243 92.076 24.6762
1696.302856 92.136 24.3944
1708.594971 92.196 24.1083
1720.976196 92.255 23.8181
1733.447144 92.315 23.5233
1746.008423 92.375 23.2243
1758.660645 92.436 22.9183
1771.404663 92.497 22.6028
1784.240967 92.559 22.2774
1797.170288 92.620 21.9403
1810.193359 92.682 21.5924
1823.310791 92.742 21.2336
1836.523193 92.801 20.8655
1849.831421 92.859 20.4899
1863.236084 92.917 20.1067
1876.737793 92.974 19.7170
1890.337524 93.030 19.3197
1904.035645 93.085 18.9142
1917.833008 93.140 18.5016
1931.730469 93.194 18.0837
1945.728638 93.247 17.6588
1959.828125 93.300 17.2263
1974.029907 93.353 16.7849
1988.334473 93.404 16.3321
2002.742798 93.455 15.8709
2017.255493 93.503 15.4032
2031.873291 93.550 14.9299
2046.597168 93.596 14.4528
2061.427734 93.641 13.9711
2076.365479 93.685 13.4848
2091.411865 93.728 12.9941
2106.566895 93.770 12.4999
2121.832031 93.812 12.0001
2137.207764 93.853 11.4923
2152.694824 93.894 10.9771
2168.294189 93.933 10.4538
2184.006592 93.971 9.9234
2199.832764 94.008 9.3867
2215.773682 94.044 8.8432
2231.830078 94.078 8.2918
2248.002686 94.110 7.7353
2264.292725 94.140 7.1771
2280.700684 94.170 6.6154
2297.227539 94.198 6.0495
2313.874268 94.226 5.4793
2330.641602 94.252 4.9047
2347.530273 94.277 4.3255
2364.541504 94.300 3.7422
2381.676025 94.323 3.1537
2398.934570 94.345 2.5580
2416.318359 94.365 1.9577
2433.827881 94.382 1.3543
2451.464355 94.397 0.7485
2469.228760 94.412 0.1427
2487.121826 94.426 -0.4664
2505.144531 94.439 -1.0813
2523.297852 94.451 -1.7012
2541.582764 94.460 -2.3262
2560.000000 94.468 -2.9562
2578.550781 94.476 -3.5903
2597.236084 94.482 -4.2310
2616.056641 94.486 -4.8821
2635.013672 94.487 -5.5392
2654.108154 94.485 -6.1998
2673.340820 94.480 -6.8621
2692.713135 94.473 -7.5231
2712.225586 94.464 -8.1839
2731.879395 94.453 -8.8455
2751.675781 94.439 -9.5060
2771.615479 94.422 -10.1640
2791.699707 94.403 -10.8191
2811.929688 94.382 -11.4696
2832.305908 94.359 -12.1170
2852.830078 94.334 -12.7630
2873.502930 94.306 -13.4052
2894.325439 94.275 -14.0424
2915.298828 94.241 -14.6721
2936.424316 94.205 -15.2913
2957.702881 94.166 -15.9004
2979.135742 94.125 -16.4995
3000.723633 94.082 -17.0865
3022.468262 94.037 -17.6592
3044.370117 93.989 -18.2175
3066.430908 93.941 -18.7599
3088.651611 93.891 -19.2877
3111.033203 93.841 -19.8022
3133.577148 93.789 -20.3017
3156.284180 93.736 -20.7842
3179.156006 93.682 -21.2508
3202.193359 93.629 -21.7010
3225.397949 93.576 -22.1370
3248.770508 93.523 -22.5613
3272.312500 93.470 -22.9722
3296.024902 93.417 -23.3681
3319.909180 93.364 -23.7513
3343.966797 93.313 -24.1231
3368.198486 93.262 -24.4843
3392.605713 93.212 -24.8366
3417.189941 93.163 -25.1784
3441.952393 93.115 -25.5081
3466.894287 93.067 -25.8276
3492.016846 93.022 -26.1377
3517.321289 92.979 -26.4406
3542.809326 92.938 -26.7378
3568.481934 92.900 -27.0326
3594.340576 92.865 -27.3275
3620.386719 92.833 -27.6266
3646.621582 92.804 -27.9339
3673.046387 92.777 -28.2515
3699.662842 92.753 -28.5814
3726.472168 92.730 -28.9264
3753.475586 92.709 -29.2899
3780.675049 92.690 -29.6722
3808.071289 92.671 -30.0733
3835.666016 92.653 -30.4969
3863.460938 92.637 -30.9458
3891.457275 92.622 -31.4227
3919.656250 92.606 -31.9315
3948.059814 92.589 -32.4714
3976.668945 92.570 -33.0419
4005.485596 92.549 -33.6450
4034.510986 92.527 -34.2826
4063.746582 92.501 -34.9547
4093.194336 92.471 -35.6629
4122.855469 92.436 -36.4033
4152.730957 92.395 -37.1742
4182.823730 92.346 -37.9712
4213.133789 92.291 -38.7900
4243.664062 92.228 -39.6290
4274.415527 92.159 -40.4861
4305.389648 92.080 -41.3577
4336.588379 91.993 -42.2415
4368.013184 91.895 -43.1308
4399.665527 91.789 -44.0194
4431.547363 91.672 -44.9037
4463.660156 91.544 -45.7799
4496.005371 91.407 -46.6417
4528.585449 91.258 -47.4823
4561.401367 91.099 -48.2992
4594.455078 90.930 -49.0883
4627.748535 90.752 -49.8474
4661.283203 90.563 -50.5751
4695.060547 90.362 -51.2647
4729.083008 90.150 -51.9111
4763.352051 89.926 -52.5083
4797.869141 89.692 -53.0512
4832.636719 89.445 -53.5318
4867.655762 89.185 -53.9470
4902.928711 88.909 -54.2756
4938.457520 88.618 -54.5047
4974.243652 88.310 -54.6059
5010.289062 87.984 -54.5552
5046.595703 87.645 -54.3256
5083.165527 87.291 -53.8908
5120.000000 86.928 -53.2239
5157.101562 86.556 -52.2888
5194.472168 86.187 -51.0865
5232.113281 85.830 -49.5934
5270.027344 85.495 -47.8474
5308.216309 85.190 -45.8613
5346.681641 84.925 -43.6880
5385.426270 84.709 -41.3631
5424.451172 84.544 -38.9519
5463.758789 84.438 -36.5141
5503.351562 84.383 -34.1036
5543.230957 84.378 -31.7879
5583.399414 84.412 -29.5864
5623.859375 84.476 -27.5427
5664.611816 84.563 -25.6519
5705.660156 84.664 -23.9303
5747.005859 84.774 -22.3577
5788.650879 84.887 -20.9267
5830.597656 85.001 -19.6165
5872.848633 85.114 -18.4081
5915.405762 85.226 -17.2876
5958.271484 85.337 -16.2382
6001.447266 85.446 -15.2490
6044.936523 85.552 -14.3054
6088.740234 85.657 -13.4015
6132.861816 85.764 -12.5265
6177.303223 85.870 -11.6802
6222.066406 85.979 -10.8594
6267.154297 86.088 -10.0619
6312.568359 86.200 -9.2849
6358.312012 86.314 -8.5278
6404.386719 86.432 -7.7884
6450.795898 86.553 -7.0687
6497.541016 86.678 -6.3696
6544.625000 86.806 -5.6914
6592.049805 86.940 -5.0335
6639.818359 87.078 -4.3982
6687.933594 87.222 -3.7871
6736.396973 87.370 -3.2019
6785.211426 87.524 -2.6435
6834.379883 87.684 -2.1166
6883.904785 87.852 -1.6249
6933.788574 88.027 -1.1732
6984.033691 88.207 -0.7671
7034.642578 88.392 -0.4087
7085.618652 88.584 -0.0988
7136.963867 88.782 0.1529
7188.681152 88.988 0.3384
7240.773438 89.199 0.4526
7293.243164 89.413 0.4891
7346.092773 89.631 0.4434
7399.325684 89.852 0.3116
7452.944336 90.075 0.0864
7506.951172 90.297 -0.2419
7561.350098 90.517 -0.6705
7616.142578 90.729 -1.2018
7671.332031 90.935 -1.8295
7726.921875 91.133 -2.5501
7782.914551 91.320 -3.3576
7839.312500 91.495 -4.2510
7896.119629 91.655 -5.2128
7953.337891 91.798 -6.2326
8010.971191 91.922 -7.2874
8069.021973 92.027 -8.3579
8127.493164 92.114 -9.4214
8186.388672 92.181 -10.4562
8245.710938 92.233 -11.4400
8305.461914 92.269 -12.3479
8365.647461 92.295 -13.1659
8426.267578 92.313 -13.8683
8487.328125 92.332 -14.4651
8548.831055 92.359 -14.9488
8610.779297 92.397 -15.3471
8673.176758 92.451 -15.6737
8736.026367 92.525 -15.9645
8799.331055 92.621 -16.2478
8863.094727 92.736 -16.5602
8927.320312 92.872 -16.9418
8992.010742 93.022 -17.4103
9057.170898 93.181 -17.9967
9122.802734 93.344 -18.7000
9188.910156 93.506 -19.5342
9255.497070 93.662 -20.4836
9322.566406 93.808 -21.5451
9390.121094 93.942 -22.6937
9458.166016 94.062 -23.9094
9526.704102 94.168 -25.1732
9595.738281 94.263 -26.4629
9665.273438 94.347 -27.7691
9735.311523 94.420 -29.0745
9805.857422 94.487 -30.3809
9876.915039 94.551 -31.6809
9948.487305 94.612 -32.9849
10020.578125 94.671 -34.2975
10093.191406 94.730 -35.6297
10166.331055 94.789 -36.9905
10240.000000 94.847 -38.3915
10314.203125 94.903 -39.8464
10388.944336 94.955 -41.3577
10464.226562 95.000 -42.9339
10540.054688 95.037 -44.5701
10616.432617 95.061 -46.2686
10693.363281 95.072 -48.0155
10770.852539 95.067 -49.8035
10848.902344 95.044 -51.6161
10927.517578 95.003 -53.4401
11006.703125 94.944 -55.2582
11086.461914 94.866 -57.0544
11166.798828 94.770 -58.8124
11247.718750 94.656 -60.5143
11329.223633 94.526 -62.1488
11411.320312 94.381 -63.7007
11494.011719 94.224 -65.1643
11577.301758 94.056 -66.5313
11661.195312 93.880 -67.7943
11745.697266 93.695 -68.9439
11830.811523 93.506 -69.9787
11916.542969 93.315 -70.8923
12002.894531 93.125 -71.6899
12089.873047 92.939 -72.3725
12177.480469 92.759 -72.9460
12265.723633 92.587 -73.4126
12354.606445 92.427 -73.7852
12444.132812 92.281 -74.0709
12534.308594 92.154 -74.2900
12625.136719 92.047 -74.4573
12716.624023 91.961 -74.5963
12808.773438 91.900 -74.7248
12901.591797 91.863 -74.8750
12995.082031 91.855 -75.0739
13089.250000 91.872 -75.3563
13184.099609 91.914 -75.7548
13279.636719 91.978 -76.3037
13375.867188 92.062 -77.0385
13472.793945 92.159 -77.9889
13570.422852 92.265 -79.1922
13668.759766 92.368 -80.6614
13767.809570 92.464 -82.4268
13867.577148 92.541 -84.4743
13968.067383 92.587 -86.8135
14069.285156 92.595 -89.4026
14171.237305 92.557 -92.2292
14273.927734 92.465 -95.2149
14377.362305 92.305 -98.3105
14481.546875 92.078 -101.4151
14586.486328 91.779 -104.4438
14692.185547 91.408 -107.2991
14798.651367 90.963 -109.8775
14905.888672 90.452 -112.1082
15013.902344 89.880 -113.8886
15122.700195 89.262 -115.2119
15232.285156 88.609 -116.0268
15342.664062 87.936 -116.3654
15453.843750 87.257 -116.2258
15565.829102 86.584 -115.6582
15678.625000 85.934 -114.6980
15792.239258 85.311 -113.3900
15906.675781 84.728 -111.7914
16021.942383 84.176 -109.9000
16138.043945 83.650 -107.7426
16254.986328 83.153 -105.2882
16372.777344 82.683 -102.5195
16491.421875 82.247 -99.4201
16610.923828 81.846 -95.9597
16731.294922 81.502 -92.1640
16852.535156 81.229 -88.0143
16974.656250 81.056 -83.6153
17097.662109 81.011 -79.0152
17221.558594 81.099 -74.3681
17346.353516 81.340 -69.7937
17472.052734 81.717 -65.4454
17598.662109 82.231 -61.4768
17726.189453 82.844 -58.0084
17854.640625 83.531 -55.2018
17984.021484 84.257 -53.0867
18114.341797 84.985 -51.7625
18245.605469 85.700 -51.1782
18377.820312 86.377 -51.3443
18510.994141 87.007 -52.1734
18645.132812 87.575 -53.6206
18780.242188 88.077 -55.5673
18916.332031 88.504 -57.9138
19053.408203 88.859 -60.5563
19191.476562 89.145 -63.3811
19330.546875 89.364 -66.3189
19470.623047 89.520 -69.2793
19611.714844 89.619 -72.2135
19753.830078 89.666 -75.0495
19896.974609 89.670 -77.7679
