* Measurement data measured by REW V5.20.13
* Source: C:\Users\kurin\Desktop\Targets and Curves\Resolve\Img\Files\NF NM2+_SPL.txt
* Format: Comma/Tab/Space delimited data
* Dated: Aug 14, 2023 6:26:21 PM
* REW Settings:
*  C-weighting compensation: Off
*  Target level: 75.0 dB
* Note: ; Measurement imported from C:\Users\kurin\Desktop\Targets and Curves\Resolve\Img\Files\NF NM2+_SPL.txt Format: Comma/Tab/Space delimited data 623 values loaded, 5 Hz to 39,792 Hz log spaced 
* Measurement: NF NM2+_SPL
* Smoothing: 1/48 octave
* Frequency Step: 1/96 octave
* Start Frequency: 5.000 Hz
*
* Freq(Hz) SPL(dB) Phase(degrees)
5.000000 83.068 19.6930
5.036232 83.075 19.6863
5.072727 83.082 19.6790
5.109486 83.090 19.6706
5.146511 83.100 19.6610
5.183805 83.112 19.6494
5.221369 83.125 19.6370
5.259205 83.138 19.6253
5.297316 83.152 19.6130
5.335702 83.167 19.5992
5.374367 83.182 19.5850
5.413311 83.196 19.5714
5.452538 83.211 19.5580
5.492050 83.226 19.5446
5.531847 83.241 19.5310
5.571934 83.256 19.5171
5.612310 83.271 19.5030
5.652979 83.286 19.4891
5.693943 83.301 19.4750
5.735204 83.316 19.4605
5.776763 83.331 19.4460
5.818624 83.346 19.4321
5.860788 83.361 19.4180
5.903258 83.375 19.4031
5.946035 83.390 19.3880
5.989123 83.405 19.3735
6.032523 83.420 19.3590
6.076237 83.435 19.3441
6.120268 83.450 19.3290
6.164618 83.465 19.3136
6.209289 83.480 19.2980
6.254284 83.495 19.2825
6.299605 83.510 19.2670
6.345255 83.525 19.2516
6.391235 83.540 19.2360
6.437549 83.554 19.2201
6.484198 83.569 19.2040
6.531185 83.584 19.1881
6.578513 83.599 19.1720
6.626183 83.614 19.1556
6.674199 83.629 19.1390
6.722563 83.644 19.1225
6.771278 83.659 19.1060
6.820345 83.674 19.0896
6.869768 83.689 19.0730
6.919549 83.703 19.0561
6.969691 83.718 19.0390
7.020196 83.733 19.0216
7.071068 83.748 19.0040
7.122308 83.763 18.9866
7.173919 83.778 18.9690
7.225904 83.793 18.9511
7.278266 83.808 18.9330
7.331007 83.823 18.9150
7.384131 83.838 18.8970
7.437639 83.853 18.8791
7.491535 83.868 18.8610
7.545822 83.882 18.8426
7.600502 83.897 18.8240
7.655579 83.912 18.8051
7.711054 83.927 18.7860
7.766932 83.942 18.7671
7.823214 83.957 18.7480
7.879904 83.972 18.7286
7.937005 83.987 18.7090
7.994520 84.002 18.6896
8.052452 84.017 18.6700
8.110803 84.032 18.6501
8.169578 84.047 18.6300
8.228777 84.061 18.6101
8.288406 84.076 18.5900
8.348468 84.091 18.5696
8.408964 84.106 18.5490
8.469899 84.121 18.5281
8.531276 84.136 18.5070
8.593097 84.151 18.4861
8.655366 84.166 18.4650
8.718086 84.181 18.4436
8.781260 84.196 18.4220
8.844893 84.210 18.4001
8.908987 84.225 18.3780
8.973545 84.240 18.3560
9.038571 84.255 18.3340
9.104069 84.270 18.3121
9.170040 84.285 18.2900
9.236490 84.300 18.2671
9.303422 84.315 18.2440
9.370838 84.330 18.2211
9.438744 84.345 18.1980
9.507140 84.360 18.1746
9.576033 84.375 18.1510
9.645425 84.389 18.1276
9.715320 84.404 18.1040
9.785721 84.419 18.0801
9.856632 84.434 18.0560
9.928058 84.449 18.0316
10.000000 84.464 18.0070
10.072464 84.479 17.9826
10.145453 84.494 17.9580
10.218971 84.509 17.9326
10.293022 84.524 17.9070
10.367610 84.539 17.8815
10.442738 84.554 17.8560
10.518411 84.568 17.8306
10.594631 84.583 17.8050
10.671404 84.598 17.7786
10.748734 84.613 17.7520
10.826623 84.628 17.7256
10.905077 84.643 17.6990
10.984100 84.658 17.6721
11.063695 84.673 17.6450
11.143867 84.688 17.6176
11.224621 84.703 17.5900
11.305959 84.718 17.5626
11.387886 84.733 17.5350
11.470407 84.747 17.5066
11.553527 84.762 17.4780
11.637249 84.777 17.4496
11.721577 84.792 17.4210
11.806517 84.807 17.3922
11.892071 84.822 17.3630
11.978246 84.837 17.3336
12.065045 84.852 17.3040
12.152473 84.867 17.2741
12.240536 84.882 17.2440
12.329235 84.896 17.2141
12.418578 84.911 17.1840
12.508568 84.926 17.1531
12.599211 84.941 17.1220
12.690510 84.956 17.0911
12.782471 84.971 17.0600
12.875097 84.986 17.0287
12.968395 85.001 16.9970
13.062370 85.016 16.9646
13.157025 85.031 16.9320
13.252366 85.046 16.8995
13.348398 85.061 16.8670
13.445127 85.075 16.8347
13.542556 85.090 16.8020
13.640691 85.105 16.7687
13.739536 85.120 16.7350
13.839099 85.135 16.7011
13.939383 85.150 16.6670
14.040393 85.165 16.6331
14.142136 85.180 16.5990
14.244616 85.195 16.5641
14.347837 85.210 16.5290
14.451808 85.225 16.4941
14.556532 85.240 16.4590
14.662014 85.254 16.4232
14.768262 85.269 16.3870
14.875278 85.284 16.3511
14.983070 85.299 16.3150
15.091644 85.314 16.2787
15.201005 85.329 16.2420
15.311157 85.344 16.2052
15.422109 85.359 16.1680
15.533863 85.374 16.1306
15.646428 85.389 16.0930
15.759809 85.403 16.0551
15.874010 85.418 16.0170
15.989040 85.433 15.9786
16.104904 85.448 15.9400
16.221605 85.463 15.9015
16.339155 85.478 15.8630
16.457554 85.493 15.8246
16.576813 85.508 15.7860
16.696936 85.523 15.7471
16.817928 85.538 15.7080
16.939798 85.553 15.6691
17.062551 85.568 15.6301
17.186193 85.582 15.5905
17.310732 85.597 15.5510
17.436172 85.612 15.5125
17.562521 85.627 15.4740
17.689787 85.642 15.4350
17.817974 85.657 15.3960
17.947090 85.672 15.3578
18.077143 85.687 15.3200
18.208138 85.702 15.2828
18.340080 85.717 15.2460
18.472980 85.732 15.2096
18.606844 85.747 15.1740
18.741676 85.761 15.1398
18.877487 85.776 15.1070
19.014280 85.791 15.0755
19.152065 85.806 15.0460
19.290850 85.821 15.0187
19.430639 85.836 14.9950
19.571442 85.851 14.9761
19.713264 85.866 14.9630
19.856115 85.881 14.9573
20.000000 85.898 14.9590
20.144928 85.916 14.9698
20.290907 85.937 14.9860
20.437943 85.961 15.0073
20.586044 85.988 15.0250
20.735220 86.021 15.0327
20.885475 86.058 15.0230
21.036821 86.098 14.9868
21.189262 86.140 14.9231
21.342808 86.182 14.8276
21.497467 86.223 14.7012
21.653246 86.263 14.5410
21.810154 86.299 14.3543
21.968201 86.330 14.1440
22.127390 86.357 13.9203
22.287735 86.377 13.6920
22.449242 86.393 13.4652
22.611917 86.405 13.2484
22.775772 86.413 13.0432
22.940815 86.419 12.8542
23.107054 86.424 12.6812
23.274498 86.427 12.5267
23.443153 86.430 12.3882
23.613033 86.434 12.2656
23.784142 86.440 12.1541
23.956491 86.448 12.0508
24.130091 86.457 11.9501
24.304947 86.469 11.8467
24.481071 86.482 11.7371
24.658470 86.496 11.6161
24.837156 86.511 11.4842
25.017136 86.525 11.3399
25.198421 86.538 11.1852
25.381020 86.548 11.0190
25.564941 86.556 10.8482
25.750195 86.560 10.6770
25.936790 86.561 10.5122
26.124741 86.558 10.3616
26.314051 86.554 10.2262
26.504732 86.549 10.1103
26.696796 86.545 10.0111
26.890253 86.542 9.9285
27.085112 86.540 9.8581
27.281382 86.540 9.7966
27.479073 86.542 9.7401
27.678198 86.547 9.6845
27.878765 86.553 9.6271
28.080786 86.561 9.5640
28.284271 86.569 9.4951
28.489231 86.578 9.4179
28.695675 86.587 9.3351
28.903616 86.594 9.2478
29.113064 86.601 9.1581
29.324028 86.608 9.0686
29.536524 86.614 8.9791
29.750557 86.620 8.8907
29.966141 86.626 8.8031
30.183289 86.631 8.7162
30.402010 86.637 8.6301
30.622314 86.643 8.5448
30.844217 86.649 8.4601
31.067726 86.654 8.3759
31.292856 86.660 8.2921
31.519617 86.666 8.2086
31.748020 86.672 8.1251
31.978081 86.678 8.0415
32.209808 86.683 7.9581
32.443211 86.688 7.8750
32.678310 86.694 7.7921
32.915108 86.700 7.7091
33.153625 86.706 7.6261
33.393871 86.711 7.5431
33.635857 86.717 7.4601
33.879597 86.723 7.3777
34.125103 86.729 7.2951
34.372387 86.734 7.2117
34.621464 86.740 7.1281
34.872345 86.746 7.0447
35.125042 86.752 6.9611
35.379574 86.758 6.8773
35.635948 86.763 6.7931
35.894180 86.769 6.7081
36.154285 86.774 6.6231
36.416275 86.779 6.5386
36.680161 86.784 6.4551
36.945961 86.789 6.3732
37.213688 86.794 6.2931
37.483353 86.799 6.2156
37.754974 86.804 6.1391
38.028561 86.811 6.0632
38.304131 86.818 5.9851
38.581699 86.826 5.9014
38.861279 86.834 5.8131
39.142883 86.842 5.7203
39.426529 86.849 5.6231
39.712231 86.857 5.5216
40.000000 86.864 5.4162
40.289856 86.870 5.3056
40.581814 86.874 5.1942
40.875885 86.876 5.0852
41.172089 86.878 4.9802
41.470440 86.879 4.8820
41.770950 86.880 4.7901
42.073643 86.880 4.7049
42.378525 86.881 4.6261
42.685616 86.883 4.5549
42.994934 86.886 4.4881
43.306492 86.890 4.4239
43.620308 86.896 4.3591
43.936401 86.904 4.2904
44.254780 86.913 4.2161
44.575470 86.923 4.1344
44.898483 86.933 4.0432
45.223835 86.945 3.9400
45.551544 86.957 3.8242
45.881630 86.968 3.6919
46.214108 86.977 3.5492
46.548996 86.982 3.3994
46.886307 86.985 3.2472
47.226067 86.986 3.0983
47.568283 86.985 2.9532
47.912983 86.983 2.8139
48.260181 86.980 2.6822
48.609894 86.975 2.5608
48.962143 86.969 2.4492
49.316940 86.965 2.3491
49.674313 86.961 2.2561
50.034271 86.959 2.1670
50.396843 86.957 2.0801
50.762039 86.956 1.9929
51.129883 86.955 1.9052
51.500389 86.955 1.8158
51.873581 86.955 1.7252
52.249481 86.955 1.6332
52.628101 86.955 1.5402
53.009464 86.955 1.4463
53.393593 86.955 1.3512
53.780506 86.955 1.2545
54.170223 86.955 1.1562
54.562763 86.955 1.0558
54.958145 86.955 0.9532
55.356396 86.954 0.8479
55.757530 86.953 0.7402
56.161572 86.951 0.6295
56.568542 86.949 0.5182
56.978462 86.945 0.4074
57.391350 86.939 0.3002
57.807232 86.932 0.2002
58.226128 86.925 0.1072
58.648056 86.918 0.0224
59.073048 86.910 -0.0549
59.501114 86.903 -0.1248
59.932281 86.896 -0.1879
60.366577 86.890 -0.2437
60.804020 86.886 -0.2959
61.244629 86.883 -0.3475
61.688435 86.881 -0.3999
62.135452 86.880 -0.4556
62.585712 86.880 -0.5139
63.039234 86.880 -0.5751
63.496040 86.880 -0.6389
63.956161 86.880 -0.7054
64.419617 86.880 -0.7739
64.886421 86.880 -0.8437
65.356621 86.880 -0.9149
65.830215 86.880 -0.9874
66.307251 86.880 -1.0609
66.787743 86.880 -1.1349
67.271713 86.880 -1.2099
67.759193 86.880 -1.2859
68.250206 86.880 -1.3629
68.744774 86.880 -1.4404
69.242928 86.880 -1.5189
69.744690 86.880 -1.5984
70.250084 86.880 -1.6788
70.759148 86.880 -1.7600
71.271896 86.880 -1.8418
71.788361 86.880 -1.9244
72.308571 86.880 -2.0078
72.832550 86.880 -2.0923
73.360321 86.880 -2.1778
73.891922 86.880 -2.2643
74.427376 86.880 -2.3518
74.966705 86.880 -2.4406
75.509949 86.880 -2.5308
76.057121 86.880 -2.6226
76.608261 86.880 -2.7158
77.163399 86.880 -2.8104
77.722557 86.880 -2.9068
78.285767 86.880 -3.0050
78.853058 86.880 -3.1058
79.424461 86.880 -3.2100
80.000000 86.880 -3.3178
80.579712 86.880 -3.4293
81.163628 86.879 -3.5448
81.751770 86.877 -3.6648
82.344177 86.875 -3.7877
82.940880 86.872 -3.9129
83.541901 86.867 -4.0378
84.147285 86.861 -4.1597
84.757050 86.854 -4.2788
85.371231 86.847 -4.3940
85.989868 86.840 -4.5058
86.612984 86.832 -4.6140
87.240616 86.823 -4.7188
87.872803 86.816 -4.8201
88.509560 86.808 -4.9188
89.150940 86.800 -5.0161
89.796967 86.791 -5.1108
90.447670 86.782 -5.2021
91.103088 86.774 -5.2908
91.763260 86.766 -5.3776
92.428215 86.759 -5.4628
93.097992 86.752 -5.5466
93.772614 86.745 -5.6298
94.452133 86.739 -5.7125
95.136566 86.733 -5.7978
95.825966 86.729 -5.8891
96.520363 86.725 -5.9858
97.219788 86.720 -6.0895
97.924286 86.713 -6.1968
98.633881 86.705 -6.3046
99.348625 86.697 -6.4128
100.068542 86.689 -6.5210
100.793686 86.679 -6.6267
101.524078 86.667 -6.7280
102.259766 86.654 -6.8228
103.000778 86.642 -6.9067
103.747162 86.630 -6.9849
104.498962 86.620 -7.0605
105.256203 86.611 -7.1349
106.018929 86.602 -7.2097
106.787186 86.593 -7.2859
107.561012 86.586 -7.3641
108.340446 86.579 -7.4459
109.125526 86.572 -7.5334
109.916290 86.565 -7.6248
110.712791 86.557 -7.7187
111.515060 86.548 -7.8158
112.323143 86.540 -7.9165
113.137085 86.531 -8.0198
113.956924 86.521 -8.1254
114.782700 86.509 -8.2307
115.614464 86.496 -8.3330
116.452255 86.482 -8.4318
117.296112 86.468 -8.5260
118.146095 86.454 -8.6148
119.002228 86.439 -8.6967
119.864563 86.423 -8.7728
120.733154 86.409 -8.8431
121.608040 86.395 -8.9099
122.489258 86.382 -8.9741
123.376869 86.370 -9.0388
124.270905 86.360 -9.1069
125.171425 86.350 -9.1799
126.078468 86.340 -9.2611
126.992081 86.330 -9.3478
127.912323 86.318 -9.4388
128.839233 86.305 -9.5318
129.772842 86.291 -9.6245
130.713242 86.276 -9.7158
131.660431 86.260 -9.8040
132.614502 86.243 -9.8888
133.575485 86.226 -9.9694
134.543427 86.208 -10.0449
135.518387 86.189 -10.1136
136.500412 86.170 -10.1759
137.489548 86.151 -10.2308
138.485855 86.132 -10.2809
139.489380 86.115 -10.3294
140.500168 86.097 -10.3739
141.518295 86.078 -10.4131
142.543793 86.059 -10.4469
143.576721 86.042 -10.4740
144.617142 86.025 -10.4970
145.665100 86.009 -10.5184
146.720642 85.994 -10.5370
147.783844 85.979 -10.5521
148.854752 85.964 -10.5640
149.933411 85.951 -10.5712
151.019897 85.939 -10.5780
152.114243 85.928 -10.5878
153.216522 85.919 -10.6010
154.326797 85.911 -10.6184
155.445114 85.904 -10.6419
156.571533 85.898 -10.6742
157.706116 85.891 -10.7139
158.848923 85.884 -10.7611
160.000000 85.876 -10.8139
161.159424 85.868 -10.8704
162.327255 85.860 -10.9309
163.503540 85.851 -10.9952
164.688354 85.842 -11.0619
165.881760 85.831 -11.1295
167.083801 85.820 -11.1978
168.294571 85.809 -11.2649
169.514099 85.798 -11.3338
170.742462 85.788 -11.4076
171.979736 85.777 -11.4848
173.225967 85.764 -11.5662
174.481232 85.750 -11.6488
175.745605 85.735 -11.7291
177.019119 85.720 -11.8088
178.301880 85.705 -11.8899
179.593933 85.688 -11.9688
180.895340 85.670 -12.0433
182.206177 85.650 -12.1118
183.526520 85.630 -12.1709
184.856430 85.610 -12.2239
186.195984 85.591 -12.2734
187.545227 85.573 -12.3189
188.904266 85.554 -12.3603
190.273132 85.535 -12.3989
191.651932 85.518 -12.4350
193.040726 85.502 -12.4709
194.439575 85.486 -12.5097
195.848572 85.470 -12.5499
197.267761 85.453 -12.5911
198.697250 85.436 -12.6329
200.137085 85.420 -12.6744
201.587372 85.404 -12.7169
203.048157 85.388 -12.7614
204.519531 85.372 -12.8079
206.001556 85.356 -12.8561
207.494324 85.339 -12.9069
208.997925 85.322 -12.9621
210.512405 85.305 -13.0189
212.037857 85.286 -13.0748
213.574371 85.266 -13.1299
215.122025 85.247 -13.1831
216.680893 85.227 -13.2349
218.251053 85.205 -13.2861
219.832581 85.183 -13.3349
221.425583 85.161 -13.3791
223.030121 85.138 -13.4199
224.646286 85.116 -13.4580
226.274170 85.093 -13.4929
227.913849 85.070 -13.5237
229.565399 85.046 -13.5519
231.228928 85.023 -13.5797
232.904510 84.999 -13.6049
234.592224 84.973 -13.6273
236.292191 84.947 -13.6430
238.004456 84.921 -13.6465
239.729126 84.895 -13.6430
241.466309 84.871 -13.6361
243.216080 84.848 -13.6250
244.978516 84.823 -13.6107
246.753738 84.799 -13.5921
248.541809 84.777 -13.5669
250.342850 84.757 -13.5401
252.156937 84.738 -13.5158
253.984161 84.719 -13.4941
255.824646 84.700 -13.4764
257.678467 84.682 -13.4620
259.545685 84.664 -13.4506
261.426483 84.647 -13.4430
263.320862 84.630 -13.4409
265.229004 84.612 -13.4420
267.150970 84.593 -13.4447
269.086853 84.573 -13.4490
271.036774 84.554 -13.4544
273.000824 84.534 -13.4610
274.979095 84.514 -13.4699
276.971710 84.492 -13.4780
278.978760 84.469 -13.4824
281.000336 84.445 -13.4830
283.036591 84.422 -13.4780
285.087585 84.399 -13.4700
287.153442 84.376 -13.4618
289.234283 84.353 -13.4510
291.330200 84.329 -13.4359
293.441284 84.304 -13.4181
295.567688 84.281 -13.3984
297.709503 84.258 -13.3781
299.866821 84.235 -13.3592
302.039795 84.211 -13.3391
304.228485 84.187 -13.3152
306.433044 84.162 -13.2891
308.653595 84.138 -13.2617
310.890228 84.114 -13.2321
313.143066 84.089 -13.2001
315.412231 84.063 -13.1641
317.697845 84.037 -13.1215
320.000000 84.012 -13.0751
322.318848 83.988 -13.0275
324.654510 83.964 -12.9772
327.007080 83.939 -12.9233
329.376709 83.914 -12.8662
331.763519 83.890 -12.8049
334.167603 83.867 -12.7422
336.589142 83.845 -12.6806
339.028198 83.823 -12.6192
341.484924 83.800 -12.5574
343.959473 83.778 -12.4962
346.451935 83.757 -12.4367
348.962463 83.736 -12.3782
351.491211 83.714 -12.3206
354.038239 83.692 -12.2632
356.603760 83.670 -12.2047
359.187866 83.648 -12.1462
361.790680 83.626 -12.0882
364.412354 83.603 -12.0302
367.053040 83.581 -11.9715
369.712860 83.558 -11.9132
372.391968 83.536 -11.8564
375.090454 83.513 -11.8002
377.808533 83.489 -11.7453
380.546265 83.463 -11.6882
383.303864 83.437 -11.6251
386.081451 83.410 -11.5572
388.879150 83.384 -11.4847
391.697144 83.357 -11.4072
394.535522 83.330 -11.3248
397.394501 83.302 -11.2363
400.274170 83.274 -11.1396
403.174744 83.247 -11.0373
406.096313 83.221 -10.9303
409.039062 83.196 -10.8213
412.003113 83.172 -10.7152
414.988647 83.147 -10.6074
417.995850 83.121 -10.4946
421.024811 83.095 -10.3784
424.075714 83.072 -10.2581
427.148743 83.049 -10.1364
430.244049 83.026 -10.0167
433.361786 83.002 -9.8964
436.502106 82.978 -9.7731
439.665161 82.955 -9.6494
442.851166 82.934 -9.5275
446.060242 82.912 -9.4064
449.292572 82.889 -9.2862
452.548340 82.865 -9.1654
455.827698 82.842 -9.0415
459.130798 82.818 -8.9164
462.457855 82.795 -8.7923
465.809021 82.771 -8.6654
469.184448 82.745 -8.5322
472.584381 82.719 -8.3934
476.008911 82.694 -8.2477
479.458252 82.670 -8.0985
482.932617 82.646 -7.9498
486.432159 82.622 -7.7985
489.957031 82.597 -7.6422
493.507477 82.572 -7.4825
497.083618 82.549 -7.3193
500.685699 82.527 -7.1555
504.313873 82.505 -6.9950
507.968323 82.482 -6.8345
511.649292 82.458 -6.6727
515.356934 82.433 -6.5076
519.091370 82.407 -6.3368
522.852966 82.381 -6.1596
526.641724 82.355 -5.9748
530.458008 82.329 -5.7817
534.301941 82.302 -5.5791
538.173706 82.276 -5.3667
542.073547 82.250 -5.1423
546.001648 82.226 -4.9108
549.958191 82.205 -4.6755
553.943420 82.186 -4.4388
557.957520 82.167 -4.2040
562.000671 82.149 -3.9708
566.073181 82.132 -3.7397
570.175171 82.116 -3.5117
574.306885 82.100 -3.2891
578.468567 82.083 -3.0688
582.660400 82.066 -2.8493
586.882568 82.048 -2.6288
591.135376 82.030 -2.4047
595.419006 82.011 -2.1778
599.733643 81.993 -1.9481
604.079590 81.974 -1.7148
608.456970 81.955 -1.4774
612.866089 81.936 -1.2358
617.307190 81.918 -0.9899
621.780457 81.899 -0.7398
626.286133 81.880 -0.4861
630.824463 81.861 -0.2279
635.395691 81.843 0.0355
640.000000 81.824 0.3041
644.637695 81.805 0.5775
649.309021 81.786 0.8570
654.014160 81.768 1.1441
658.753418 81.749 1.4380
663.527039 81.730 1.7383
668.335205 81.712 2.0459
673.178284 81.695 2.3624
678.056396 81.678 2.6859
682.969849 81.663 3.0156
687.918945 81.648 3.3508
692.903870 81.634 3.6899
697.924927 81.620 4.0348
702.982422 81.606 4.3877
708.076477 81.594 4.7457
713.207520 81.584 5.1068
718.375732 81.575 5.4707
723.581360 81.566 5.8358
728.824707 81.557 6.2037
734.106079 81.548 6.5751
739.425720 81.540 6.9507
744.783936 81.532 7.3304
750.180908 81.524 7.7166
755.617065 81.516 8.1111
761.092529 81.508 8.5145
766.607727 81.500 8.9277
772.162903 81.493 9.3525
777.758301 81.486 9.7907
783.394287 81.480 10.2424
789.071045 81.476 10.7086
794.789001 81.474 11.1873
800.548340 81.474 11.6769
806.349487 81.476 12.1762
812.192627 81.481 12.6837
818.078125 81.488 13.1991
824.006226 81.497 13.7220
829.977295 81.508 14.2521
835.991699 81.522 14.7899
842.049622 81.539 15.3330
848.151428 81.560 15.8794
854.297485 81.583 16.4280
860.488098 81.608 16.9764
866.723572 81.636 17.5260
873.004211 81.667 18.0775
879.330322 81.700 18.6300
885.702332 81.736 19.1824
892.120483 81.774 19.7360
898.585144 81.814 20.2920
905.096680 81.858 20.8499
911.655396 81.905 21.4111
918.261597 81.957 21.9719
924.915710 82.012 22.5307
931.618042 82.073 23.0830
938.368896 82.139 23.6252
945.168762 82.210 24.1530
952.017822 82.284 24.6620
958.916504 82.363 25.1492
965.865234 82.445 25.6105
972.864319 82.531 26.0454
979.914062 82.617 26.4518
987.014954 82.706 26.8306
994.167236 82.795 27.1821
1001.371399 82.886 27.5069
1008.627747 82.976 27.8042
1015.936646 83.066 28.0779
1023.298584 83.153 28.3311
1030.713867 83.241 28.5653
1038.182739 83.328 28.7828
1045.705933 83.416 28.9842
1053.283447 83.501 29.1693
1060.916016 83.586 29.3413
1068.603882 83.670 29.5040
1076.347412 83.754 29.6554
1084.147095 83.837 29.7952
1092.003296 83.921 29.9226
1099.916382 84.004 30.0370
1107.886841 84.088 30.1376
1115.915039 84.170 30.2224
1124.001343 84.252 30.2938
1132.146362 84.331 30.3534
1140.350342 84.410 30.4018
1148.613770 84.487 30.4400
1156.937134 84.564 30.4689
1165.320801 84.638 30.4884
1173.765137 84.710 30.5029
1182.270752 84.779 30.5179
1190.838013 84.848 30.5310
1199.467285 84.917 30.5421
1208.159180 84.986 30.5500
1216.913940 85.052 30.5515
1225.732178 85.118 30.5520
1234.614380 85.181 30.5565
1243.560913 85.244 30.5630
1252.572266 85.307 30.5715
1261.648926 85.370 30.5810
1270.791382 85.432 30.5898
1280.000000 85.494 30.6000
1289.275391 85.555 30.6128
1298.618042 85.617 30.6279
1308.028320 85.678 30.6457
1317.506836 85.740 30.6649
1327.054077 85.802 30.6847
1336.670410 85.864 30.7049
1346.356567 85.926 30.7254
1356.112793 85.989 30.7459
1365.939697 86.052 30.7656
1375.837891 86.115 30.7859
1385.807739 86.178 30.8090
1395.849854 86.242 30.8319
1405.964844 86.307 30.8518
1416.152954 86.373 30.8699
1426.415039 86.437 30.8859
1436.751465 86.502 30.9019
1447.162720 86.567 30.9207
1457.649414 86.633 30.9399
1468.212158 86.700 30.9579
1478.851440 86.768 30.9759
1489.567871 86.834 30.9947
1500.361816 86.902 31.0149
1511.234131 86.971 31.0381
1522.185059 87.042 31.0619
1533.215454 87.113 31.0840
1544.325806 87.185 31.1059
1555.516602 87.258 31.1290
1566.788574 87.333 31.1509
1578.142090 87.409 31.1700
1589.578003 87.488 31.1849
1601.096680 87.567 31.1942
1612.698975 87.649 31.1970
1624.385254 87.731 31.1915
1636.156250 87.815 31.1791
1648.012451 87.898 31.1593
1659.954590 87.981 31.1351
1671.983398 88.064 31.1092
1684.099243 88.149 31.0821
1696.302856 88.234 31.0552
1708.594971 88.321 31.0281
1720.976196 88.409 31.0019
1733.447144 88.500 30.9741
1746.008423 88.593 30.9439
1758.660645 88.690 30.9072
1771.404663 88.788 30.8600
1784.240967 88.890 30.8013
1797.170288 88.994 30.7290
1810.193359 89.100 30.6414
1823.310791 89.207 30.5358
1836.523193 89.316 30.4125
1849.831421 89.425 30.2696
1863.236084 89.536 30.1117
1876.737793 89.644 29.9437
1890.337524 89.754 29.7638
1904.035645 89.866 29.5728
1917.833008 89.980 29.3678
1931.730469 90.094 29.1449
1945.728638 90.209 28.9090
1959.828125 90.322 28.6647
1974.029907 90.438 28.4091
1988.334473 90.556 28.1423
2002.742798 90.677 27.8602
2017.255493 90.798 27.5581
2031.873291 90.921 27.2383
2046.597168 91.044 26.9025
2061.427734 91.168 26.5476
2076.365479 91.297 26.1719
2091.411865 91.426 25.7727
2106.566895 91.557 25.3465
2121.832031 91.687 24.8949
2137.207764 91.819 24.4205
2152.694824 91.952 23.9171
2168.294189 92.088 23.3790
2184.006592 92.223 22.8067
2199.832764 92.357 22.1969
2215.773682 92.489 21.5547
2231.830078 92.620 20.8854
2248.002686 92.748 20.1860
2264.292725 92.878 19.4555
2280.700684 93.005 18.6933
2297.227539 93.130 17.8970
2313.874268 93.253 17.0704
2330.641602 93.373 16.2180
2347.530273 93.490 15.3359
2364.541504 93.607 14.4219
2381.676025 93.721 13.4754
2398.934570 93.832 12.4943
2416.318359 93.939 11.4806
2433.827881 94.040 10.4346
2451.464355 94.137 9.3595
2469.228760 94.228 8.2575
2487.121826 94.313 7.1329
2505.144531 94.391 5.9901
2523.297852 94.464 4.8313
2541.582764 94.530 3.6595
2560.000000 94.591 2.4773
2578.550781 94.646 1.2873
2597.236084 94.695 0.0915
2616.056641 94.738 -1.1073
2635.013672 94.775 -2.3089
2654.108154 94.808 -3.5123
2673.340820 94.835 -4.7167
2692.713135 94.856 -5.9230
2712.225586 94.871 -7.1264
2731.879395 94.880 -8.3235
2751.675781 94.882 -9.5115
2771.615479 94.878 -10.6878
2791.699707 94.868 -11.8479
2811.929688 94.852 -12.9876
2832.305908 94.830 -14.1038
2852.830078 94.803 -15.1918
2873.502930 94.772 -16.2514
2894.325439 94.738 -17.2811
2915.298828 94.701 -18.2815
2936.424316 94.661 -19.2533
2957.702881 94.619 -20.1960
2979.135742 94.574 -21.1099
3000.723633 94.527 -21.9932
3022.468262 94.478 -22.8443
3044.370117 94.427 -23.6623
3066.430908 94.376 -24.4466
3088.651611 94.323 -25.1957
3111.033203 94.270 -25.9074
3133.577148 94.218 -26.5829
3156.284180 94.168 -27.2217
3179.156006 94.119 -27.8262
3202.193359 94.073 -28.3982
3225.397949 94.030 -28.9395
3248.770508 93.990 -29.4518
3272.312500 93.953 -29.9369
3296.024902 93.921 -30.3958
3319.909180 93.894 -30.8330
3343.966797 93.873 -31.2524
3368.198486 93.858 -31.6571
3392.605713 93.848 -32.0492
3417.189941 93.845 -32.4352
3441.952393 93.849 -32.8206
3466.894287 93.860 -33.2102
3492.016846 93.877 -33.6105
3517.321289 93.900 -34.0231
3542.809326 93.928 -34.4511
3568.481934 93.962 -34.8969
3594.340576 94.001 -35.3629
3620.386719 94.046 -35.8516
3646.621582 94.095 -36.3658
3673.046387 94.148 -36.9074
3699.662842 94.205 -37.4794
3726.472168 94.267 -38.0812
3753.475586 94.331 -38.7123
3780.675049 94.400 -39.3750
3808.071289 94.473 -40.0699
3835.666016 94.551 -40.8014
3863.460938 94.633 -41.5733
3891.457275 94.719 -42.3880
3919.656250 94.808 -43.2469
3948.059814 94.903 -44.1567
3976.668945 95.003 -45.1207
4005.485596 95.107 -46.1508
4034.510986 95.218 -47.2572
4063.746582 95.331 -48.4481
4093.194336 95.447 -49.7339
4122.855469 95.563 -51.1180
4152.730957 95.678 -52.6059
4182.823730 95.790 -54.2011
4213.133789 95.898 -55.9087
4243.664062 96.000 -57.7301
4274.415527 96.093 -59.6697
4305.389648 96.175 -61.7237
4336.588379 96.243 -63.8924
4368.013184 96.297 -66.1679
4399.665527 96.333 -68.5467
4431.547363 96.349 -71.0157
4463.660156 96.342 -73.5671
4496.005371 96.311 -76.1817
4528.585449 96.254 -78.8455
4561.401367 96.170 -81.5362
4594.455078 96.058 -84.2342
4627.748535 95.917 -86.9170
4661.283203 95.747 -89.5611
4695.060547 95.551 -92.1485
4729.083008 95.329 -94.6565
4763.352051 95.084 -97.0757
4797.869141 94.818 -99.3918
4832.636719 94.531 -101.5982
4867.655762 94.227 -103.6847
4902.928711 93.907 -105.6477
4938.457520 93.574 -107.4804
4974.243652 93.230 -109.1832
5010.289062 92.875 -110.7547
5046.595703 92.513 -112.1941
5083.165527 92.144 -113.4993
5120.000000 91.770 -114.6736
5157.101562 91.393 -115.7191
5194.472168 91.013 -116.6378
5232.113281 90.632 -117.4321
5270.027344 90.251 -118.1020
5308.216309 89.871 -118.6461
5346.681641 89.494 -119.0712
5385.426270 89.122 -119.3809
5424.451172 88.757 -119.5833
5463.758789 88.398 -119.6852
5503.351562 88.047 -119.6932
5543.230957 87.704 -119.6138
5583.399414 87.370 -119.4540
5623.859375 87.046 -119.2202
5664.611816 86.732 -118.9196
5705.660156 86.428 -118.5602
5747.005859 86.134 -118.1453
5788.650879 85.850 -117.6813
5830.597656 85.573 -117.1678
5872.848633 85.305 -116.6035
5915.405762 85.047 -115.9962
5958.271484 84.801 -115.3513
6001.447266 84.565 -114.6746
6044.936523 84.338 -113.9736
6088.740234 84.119 -113.2487
6132.861816 83.910 -112.5008
6177.303223 83.709 -111.7349
6222.066406 83.519 -110.9583
6267.154297 83.335 -110.1650
6312.568359 83.154 -109.3534
6358.312012 82.979 -108.5183
6404.386719 82.811 -107.6514
6450.795898 82.651 -106.7597
6497.541016 82.500 -105.8470
6544.625000 82.358 -104.9137
6592.049805 82.221 -103.9611
6639.818359 82.094 -102.9901
6687.933594 81.976 -101.9996
6736.396973 81.868 -100.9962
6785.211426 81.770 -99.9867
6834.379883 81.680 -98.9693
6883.904785 81.598 -97.9447
6933.788574 81.523 -96.9123
6984.033691 81.459 -95.8705
7034.642578 81.405 -94.8233
7085.618652 81.361 -93.7738
7136.963867 81.327 -92.7233
7188.681152 81.302 -91.6727
7240.773438 81.287 -90.6253
7293.243164 81.285 -89.5821
7346.092773 81.294 -88.5501
7399.325684 81.315 -87.5363
7452.944336 81.347 -86.5419
7506.951172 81.389 -85.5700
7561.350098 81.443 -84.6228
7616.142578 81.508 -83.7025
7671.332031 81.584 -82.8125
7726.921875 81.670 -81.9563
7782.914551 81.768 -81.1361
7839.312500 81.878 -80.3523
7896.119629 82.000 -79.6128
7953.337891 82.137 -78.9235
8010.971191 82.286 -78.2912
8069.021973 82.448 -77.7201
8127.493164 82.623 -77.2234
8186.388672 82.814 -76.8110
8245.710938 83.018 -76.4974
8305.461914 83.233 -76.2986
8365.647461 83.457 -76.2201
8426.267578 83.689 -76.2705
8487.328125 83.927 -76.4566
8548.831055 84.169 -76.7878
8610.779297 84.413 -77.2651
8673.176758 84.655 -77.8929
8736.026367 84.895 -78.6704
8799.331055 85.130 -79.5986
8863.094727 85.359 -80.6769
8927.320312 85.578 -81.9085
8992.010742 85.784 -83.2824
9057.170898 85.974 -84.7924
9122.802734 86.147 -86.4260
9188.910156 86.302 -88.1752
9255.497070 86.436 -90.0208
9322.566406 86.546 -91.9487
9390.121094 86.632 -93.9364
9458.166016 86.694 -95.9642
9526.704102 86.732 -98.0092
9595.738281 86.744 -100.0491
9665.273438 86.734 -102.0625
9735.311523 86.703 -104.0220
9805.857422 86.654 -105.9219
9876.915039 86.592 -107.7484
9948.487305 86.518 -109.4977
10020.578125 86.433 -111.1617
10093.191406 86.342 -112.7407
10166.331055 86.247 -114.2263
10240.000000 86.154 -115.6367
10314.203125 86.069 -116.9810
10388.944336 85.990 -118.2789
10464.226562 85.919 -119.5465
10540.054688 85.858 -120.8045
10616.432617 85.810 -122.0703
10693.363281 85.772 -123.3701
10770.852539 85.746 -124.7280
10848.902344 85.730 -126.1689
10927.517578 85.723 -127.7208
11006.703125 85.718 -129.3985
11086.461914 85.712 -131.2263
11166.798828 85.700 -133.2036
11247.718750 85.676 -135.3434
11329.223633 85.634 -137.6298
11411.320312 85.569 -140.0608
11494.011719 85.477 -142.6069
11577.301758 85.350 -145.2519
11661.195312 85.188 -147.9539
11745.697266 84.985 -150.6794
11830.811523 84.742 -153.3864
11916.542969 84.458 -156.0335
12002.894531 84.134 -158.5852
12089.873047 83.770 -161.0037
12177.480469 83.369 -163.2557
12265.723633 82.932 -165.3040
12354.606445 82.464 -167.1228
12444.132812 81.966 -168.6775
12534.308594 81.446 -169.9588
12625.136719 80.910 -170.9471
12716.624023 80.361 -171.6391
12808.773438 79.803 -172.0224
12901.591797 79.245 -172.1054
12995.082031 78.693 -171.8854
13089.250000 78.154 -171.3832
13184.099609 77.634 -170.6111
13279.636719 77.137 -169.5928
13375.867188 76.671 -168.3463
13472.793945 76.237 -166.9017
13570.422852 75.843 -165.2853
13668.759766 75.490 -163.5268
13767.809570 75.180 -161.6541
13867.577148 74.915 -159.6995
13968.067383 74.700 -157.6925
14069.285156 74.533 -155.6695
14171.237305 74.415 -153.6660
14273.927734 74.345 -151.7141
14377.362305 74.322 -149.8464
14481.546875 74.344 -148.0967
14586.486328 74.410 -146.4970
14692.185547 74.515 -145.0846
14798.651367 74.658 -143.8985
14905.888672 74.830 -142.9676
15013.902344 75.023 -142.3291
15122.700195 75.230 -141.9960
15232.285156 75.442 -141.9962
15342.664062 75.649 -142.3220
15453.843750 75.839 -142.9890
15565.829102 76.004 -143.9550
15678.625000 76.132 -145.2053
15792.239258 76.219 -146.6716
15906.675781 76.256 -148.3090
16021.942383 76.241 -150.0316
16138.043945 76.169 -151.7664
16254.986328 76.045 -153.4287
16372.777344 75.867 -154.9271
16491.421875 75.647 -156.2086
16610.923828 75.393 -157.1886
16731.294922 75.121 -157.8719
16852.535156 74.842 -158.2156
16974.656250 74.576 -158.2794
17097.662109 74.339 -158.0806
17221.558594 74.140 -157.7057
17346.353516 73.992 -157.2186
17472.052734 73.892 -156.7060
17598.662109 73.849 -156.2567
17726.189453 73.849 -155.9284
17854.640625 73.884 -155.8072
17984.021484 73.940 -155.8969
18114.341797 74.001 -156.2406
18245.605469 74.059 -156.8052
18377.820312 74.102 -157.5870
18510.994141 74.127 -158.5390
18645.132812 74.126 -159.6286
18780.242188 74.099 -160.8094
18916.332031 74.044 -162.0341
19053.408203 73.965 -163.2730
19191.476562 73.861 -164.4847
19330.546875 73.739 -165.6578
19470.623047 73.600 -166.7676
19611.714844 73.449 -167.8133
19753.830078 73.289 -168.7826
19896.974609 73.124 -169.6847
