* Measurement data measured by REW V5.20.13
* Source: C:\Users\kurin\Desktop\Targets and Curves\Resolve\Img\Files\Tozo T10_SPL.txt
* Format: Comma/Tab/Space delimited data
* Dated: Aug 14, 2023 6:44:46 PM
* REW Settings:
*  C-weighting compensation: Off
*  Target level: 75.0 dB
* Note: ; Measurement imported from C:\Users\kurin\Desktop\Targets and Curves\Resolve\Img\Files\Tozo T10_SPL.txt Format: Comma/Tab/Space delimited data 623 values loaded, 5 Hz to 39,792 Hz log spaced 
* Measurement: Tozo T10_SPL
* Smoothing: 1/48 octave
* Frequency Step: 1/96 octave
* Start Frequency: 5.000 Hz
*
* Freq(Hz) SPL(dB) Phase(degrees)
5.000000 107.716 3.1930
5.036232 107.718 3.1791
5.072727 107.720 3.1640
5.109486 107.723 3.1464
5.146511 107.727 3.1260
5.183805 107.731 3.1012
5.221369 107.735 3.0740
5.259205 107.739 3.0463
5.297316 107.744 3.0170
5.335702 107.749 2.9854
5.374367 107.754 2.9530
5.413311 107.759 2.9211
5.452538 107.765 2.8890
5.492050 107.770 2.8567
5.531847 107.775 2.8240
5.571934 107.780 2.7906
5.612310 107.785 2.7570
5.652979 107.790 2.7236
5.693943 107.795 2.6900
5.735204 107.800 2.6561
5.776763 107.806 2.6220
5.818624 107.811 2.5876
5.860788 107.816 2.5530
5.903258 107.821 2.5182
5.946035 107.826 2.4830
5.989123 107.831 2.4471
6.032523 107.836 2.4110
6.076237 107.841 2.3751
6.120268 107.847 2.3390
6.164618 107.852 2.3027
6.209289 107.857 2.2660
6.254284 107.862 2.2286
6.299605 107.867 2.1910
6.345255 107.872 2.1536
6.391235 107.877 2.1160
6.437549 107.882 2.0777
6.484198 107.887 2.0390
6.531185 107.893 2.0001
6.578513 107.898 1.9610
6.626183 107.903 1.9216
6.674199 107.908 1.8820
6.722563 107.913 1.8422
6.771278 107.918 1.8020
6.820345 107.923 1.7611
6.869768 107.928 1.7200
6.919549 107.934 1.6791
6.969691 107.939 1.6380
7.020196 107.944 1.5962
7.071068 107.949 1.5540
7.122308 107.954 1.5116
7.173919 107.959 1.4690
7.225904 107.964 1.4262
7.278266 107.969 1.3830
7.331007 107.975 1.3392
7.384131 107.980 1.2950
7.437639 107.985 1.2506
7.491535 107.990 1.2060
7.545822 107.995 1.1612
7.600502 108.000 1.1160
7.655579 108.005 1.0702
7.711054 108.010 1.0240
7.766932 108.015 0.9776
7.823214 108.020 0.9310
7.879904 108.025 0.8842
7.937005 108.031 0.8370
7.994520 108.036 0.7893
8.052452 108.041 0.7410
8.110803 108.046 0.6921
8.169578 108.051 0.6430
8.228777 108.056 0.5942
8.288406 108.061 0.5450
8.348468 108.066 0.4948
8.408964 108.072 0.4440
8.469899 108.077 0.3931
8.531276 108.082 0.3420
8.593097 108.087 0.2907
8.655366 108.092 0.2390
8.718086 108.097 0.1867
8.781260 108.102 0.1340
8.844893 108.107 0.0813
8.908987 108.113 0.0280
8.973545 108.118 -0.0262
9.038571 108.123 -0.0810
9.104069 108.128 -0.1359
9.170040 108.133 -0.1910
9.236490 108.138 -0.2463
9.303422 108.143 -0.3020
9.370838 108.148 -0.3582
9.438744 108.153 -0.4150
9.507140 108.159 -0.4722
9.576033 108.164 -0.5300
9.645425 108.169 -0.5882
9.715320 108.174 -0.6470
9.785721 108.179 -0.7063
9.856632 108.184 -0.7660
9.928058 108.189 -0.8258
10.000000 108.194 -0.8860
10.072464 108.199 -0.9466
10.145453 108.205 -1.0079
10.218971 108.210 -1.0702
10.293022 108.215 -1.1330
10.367610 108.220 -1.1958
10.442738 108.225 -1.2590
10.518411 108.230 -1.3227
10.594631 108.235 -1.3870
10.671404 108.241 -1.4517
10.748734 108.246 -1.5170
10.826623 108.251 -1.5827
10.905077 108.256 -1.6489
10.984100 108.261 -1.7156
11.063695 108.266 -1.7830
11.143867 108.271 -1.8512
11.224621 108.276 -1.9200
11.305959 108.281 -1.9887
11.387886 108.286 -2.0579
11.470407 108.291 -2.1282
11.553527 108.297 -2.1990
11.637249 108.302 -2.2702
11.721577 108.307 -2.3419
11.806517 108.312 -2.4141
11.892071 108.317 -2.4869
11.978246 108.322 -2.5606
12.065045 108.327 -2.6350
12.152473 108.332 -2.7097
12.240536 108.338 -2.7850
12.329235 108.343 -2.8606
12.418578 108.348 -2.9369
12.508568 108.353 -3.0141
12.599211 108.358 -3.0920
12.690510 108.363 -3.1706
12.782471 108.368 -3.2499
12.875097 108.373 -3.3297
12.968395 108.379 -3.4099
13.062370 108.384 -3.4906
13.157025 108.389 -3.5720
13.252366 108.394 -3.6546
13.348398 108.399 -3.7379
13.445127 108.404 -3.8217
13.542556 108.409 -3.9059
13.640691 108.414 -3.9906
13.739536 108.419 -4.0760
13.839099 108.424 -4.1625
13.939383 108.430 -4.2499
14.040393 108.435 -4.3381
14.142136 108.440 -4.4270
14.244616 108.445 -4.5161
14.347837 108.450 -4.6060
14.451808 108.455 -4.6971
14.556532 108.460 -4.7890
14.662014 108.465 -4.8811
14.768262 108.471 -4.9739
14.875278 108.476 -5.0679
14.983070 108.481 -5.1629
15.091644 108.486 -5.2590
15.201005 108.491 -5.3559
15.311157 108.496 -5.4531
15.422109 108.501 -5.5509
15.533863 108.507 -5.6499
15.646428 108.512 -5.7499
15.759809 108.517 -5.8510
15.874010 108.522 -5.9529
15.989040 108.527 -6.0555
16.104904 108.532 -6.1589
16.221605 108.537 -6.2635
16.339155 108.542 -6.3689
16.457554 108.547 -6.4749
16.576813 108.552 -6.5819
16.696936 108.558 -6.6904
16.817928 108.563 -6.7999
16.939798 108.568 -6.9100
17.062551 108.573 -7.0209
17.186193 108.578 -7.1329
17.310732 108.583 -7.2459
17.436172 108.588 -7.3599
17.562521 108.593 -7.4749
17.689787 108.598 -7.5908
17.817974 108.604 -7.7079
17.947090 108.609 -7.8264
18.077143 108.614 -7.9459
18.208138 108.619 -8.0659
18.340080 108.624 -8.1869
18.472980 108.629 -8.3093
18.606844 108.634 -8.4329
18.741676 108.639 -8.5573
18.877487 108.645 -8.6829
19.014280 108.650 -8.8097
19.152065 108.655 -8.9378
19.290850 108.660 -9.0674
19.430639 108.665 -9.1979
19.571442 108.670 -9.3291
19.713264 108.674 -9.4598
19.856115 108.678 -9.5889
20.000000 108.682 -9.7159
20.144928 108.687 -9.8399
20.290907 108.692 -9.9609
20.437943 108.697 -10.0771
20.586044 108.704 -10.1929
20.735220 108.714 -10.3104
20.885475 108.726 -10.4348
21.036821 108.740 -10.5724
21.189262 108.754 -10.7228
21.342808 108.768 -10.8878
21.497467 108.782 -11.0668
21.653246 108.797 -11.2601
21.810154 108.810 -11.4667
21.968201 108.821 -11.6883
22.127390 108.829 -11.9177
22.287735 108.834 -12.1490
22.449242 108.837 -12.3798
22.611917 108.840 -12.6055
22.775772 108.841 -12.8277
22.940815 108.841 -13.0462
23.107054 108.841 -13.2617
23.274498 108.841 -13.4744
23.443153 108.841 -13.6857
23.613033 108.841 -13.8970
23.784142 108.841 -14.1088
23.956491 108.841 -14.3219
24.130091 108.841 -14.5367
24.304947 108.841 -14.7534
24.481071 108.841 -14.9737
24.658470 108.841 -15.1995
24.837156 108.841 -15.4307
25.017136 108.840 -15.6678
25.198421 108.838 -15.9107
25.381020 108.835 -16.1610
25.564941 108.831 -16.4148
25.750195 108.823 -16.6707
25.936790 108.813 -16.9227
26.124741 108.801 -17.1642
26.314051 108.787 -17.3957
26.504732 108.773 -17.6153
26.696796 108.759 -17.8237
26.890253 108.745 -18.0207
27.085112 108.731 -18.2078
27.281382 108.719 -18.3838
27.479073 108.710 -18.5568
27.678198 108.704 -18.7334
27.878765 108.700 -18.9167
28.080786 108.696 -19.1125
28.284271 108.693 -19.3197
28.489231 108.690 -19.5406
28.695675 108.686 -19.7707
28.903616 108.678 -20.0086
29.113064 108.668 -20.2477
29.324028 108.655 -20.4808
29.536524 108.641 -20.7077
29.750557 108.628 -20.9256
29.966141 108.614 -21.1358
30.183289 108.600 -21.3381
30.402010 108.586 -21.5348
30.622314 108.574 -21.7258
30.844217 108.564 -21.9178
31.067726 108.557 -22.1164
31.292856 108.550 -22.3237
31.519617 108.543 -22.5452
31.748020 108.535 -22.7757
31.978081 108.525 -23.0128
32.209808 108.513 -23.2527
32.443211 108.500 -23.4910
32.678310 108.486 -23.7277
32.915108 108.471 -23.9611
33.153625 108.455 -24.1917
33.393871 108.439 -24.4200
33.635857 108.422 -24.6447
33.879597 108.405 -24.8643
34.125103 108.387 -25.0797
34.372387 108.370 -25.2901
34.621464 108.354 -25.4987
34.872345 108.338 -25.7090
35.125042 108.323 -25.9197
35.379574 108.307 -26.1308
35.635948 108.291 -26.3427
35.894180 108.276 -26.5556
36.154285 108.261 -26.7707
36.416275 108.246 -26.9899
36.680161 108.230 -27.2117
36.945961 108.214 -27.4351
37.213688 108.197 -27.6607
37.483353 108.181 -27.8892
37.754974 108.164 -28.1187
38.028561 108.145 -28.3484
38.304131 108.124 -28.5757
38.581699 108.103 -28.7968
38.861279 108.083 -29.0147
39.142883 108.064 -29.2304
39.426529 108.045 -29.4467
39.712231 108.026 -29.6682
40.000000 108.006 -29.8907
40.289856 107.985 -30.1120
40.581814 107.963 -30.3307
40.875885 107.941 -30.5427
41.172089 107.919 -30.7527
41.470440 107.899 -30.9639
41.770950 107.879 -31.1756
42.073643 107.857 -31.3896
42.378525 107.835 -31.6017
42.685616 107.812 -31.8066
42.994934 107.790 -32.0097
43.306492 107.771 -32.2137
43.620308 107.752 -32.4207
43.936401 107.733 -32.6346
44.254780 107.713 -32.8527
44.575470 107.693 -33.0737
44.898483 107.672 -33.2966
45.223835 107.651 -33.5190
45.551544 107.629 -33.7437
45.881630 107.609 -33.9732
46.214108 107.588 -34.2056
46.548996 107.564 -34.4417
46.886307 107.539 -34.6756
47.226067 107.513 -34.8998
47.568283 107.487 -35.1206
47.912983 107.464 -35.3421
48.260181 107.441 -35.5636
48.609894 107.415 -35.7872
48.962143 107.389 -36.0087
49.316940 107.363 -36.2216
49.674313 107.338 -36.4347
50.034271 107.316 -36.6552
50.396843 107.294 -36.8807
50.762039 107.269 -37.1127
51.129883 107.242 -37.3466
51.500389 107.216 -37.5766
51.873581 107.190 -37.8076
52.249481 107.165 -38.0440
52.628101 107.138 -38.2816
53.009464 107.109 -38.5182
53.393593 107.078 -38.7516
53.780506 107.048 -38.9783
54.170223 107.017 -39.2006
54.562763 106.986 -39.4201
54.958145 106.955 -39.6357
55.356396 106.924 -39.8462
55.757530 106.893 -40.0537
56.161572 106.863 -40.2603
56.568542 106.834 -40.4647
56.978462 106.804 -40.6641
57.391350 106.774 -40.8636
57.807232 106.748 -41.0674
58.226128 106.722 -41.2756
58.648056 106.694 -41.4911
59.073048 106.666 -41.7096
59.501114 106.638 -41.9272
59.932281 106.609 -42.1466
60.366577 106.581 -42.3702
60.804020 106.552 -42.5946
61.244629 106.520 -42.8172
61.688435 106.488 -43.0376
62.135452 106.458 -43.2535
62.585712 106.428 -43.4676
63.039234 106.397 -43.6822
63.496040 106.366 -43.8966
63.956161 106.336 -44.1100
64.419617 106.307 -44.3256
64.886421 106.278 -44.5479
65.356621 106.249 -44.7726
65.830215 106.218 -44.9966
66.307251 106.186 -45.2206
66.787743 106.156 -45.4446
67.271713 106.125 -45.6676
67.759193 106.093 -45.8878
68.250206 106.062 -46.1076
68.744774 106.033 -46.3278
69.242928 106.004 -46.5516
69.744690 105.975 -46.7835
70.250084 105.945 -47.0205
70.759148 105.916 -47.2607
71.271896 105.886 -47.5055
71.788361 105.857 -47.7570
72.308571 105.826 -48.0125
72.832550 105.793 -48.2711
73.360321 105.759 -48.5295
73.891922 105.725 -48.7837
74.427376 105.690 -49.0355
74.966705 105.656 -49.2852
75.509949 105.622 -49.5346
76.057121 105.588 -49.7849
76.608261 105.554 -50.0385
77.163399 105.522 -50.2989
77.722557 105.489 -50.5635
78.285767 105.453 -50.8303
78.853058 105.417 -51.1004
79.424461 105.383 -51.3747
80.000000 105.348 -51.6515
80.579712 105.310 -51.9303
81.163628 105.270 -52.2085
81.751770 105.232 -52.4818
82.344177 105.193 -52.7534
82.940880 105.154 -53.0251
83.541901 105.115 -53.2975
84.147285 105.077 -53.5712
84.757050 105.040 -53.8485
85.371231 105.002 -54.1312
85.989868 104.964 -54.4204
86.612984 104.927 -54.7178
87.240616 104.889 -55.0234
87.872803 104.850 -55.3388
88.509560 104.810 -55.6613
89.150940 104.768 -55.9895
89.796967 104.724 -56.3213
90.447670 104.678 -56.6540
91.103088 104.631 -56.9883
91.763260 104.584 -57.3249
92.428215 104.535 -57.6613
93.097992 104.483 -57.9962
93.772614 104.429 -58.3273
94.452133 104.375 -58.6507
95.136566 104.320 -58.9703
95.825966 104.265 -59.2886
96.520363 104.210 -59.6063
97.219788 104.154 -59.9255
97.924286 104.098 -60.2453
98.633881 104.040 -60.5654
99.348625 103.982 -60.8863
100.068542 103.924 -61.2081
100.793686 103.865 -61.5322
101.524078 103.804 -61.8616
102.259766 103.742 -62.1922
103.000778 103.678 -62.5211
103.747162 103.612 -62.8474
104.498962 103.545 -63.1689
105.256203 103.476 -63.4864
106.018929 103.406 -63.8000
106.787186 103.335 -64.1094
107.561012 103.264 -64.4139
108.340446 103.191 -64.7155
109.125526 103.118 -65.0162
109.916290 103.044 -65.3155
110.712791 102.969 -65.6133
111.515060 102.892 -65.9094
112.323143 102.815 -66.2040
113.137085 102.735 -66.4954
113.956924 102.653 -66.7831
114.782700 102.569 -67.0633
115.614464 102.482 -67.3312
116.452255 102.394 -67.5885
117.296112 102.307 -67.8353
118.146095 102.218 -68.0715
119.002228 102.127 -68.2978
119.864563 102.035 -68.5114
120.733154 101.942 -68.7081
121.608040 101.850 -68.8936
122.489258 101.761 -69.0729
123.376869 101.671 -69.2446
124.270905 101.579 -69.4101
125.171425 101.485 -69.5667
126.078468 101.393 -69.7105
126.992081 101.301 -69.8467
127.912323 101.211 -69.9806
128.839233 101.120 -70.1087
129.772842 101.027 -70.2287
130.713242 100.934 -70.3428
131.660431 100.844 -70.4522
132.614502 100.753 -70.5577
133.575485 100.661 -70.6618
134.543427 100.567 -70.7598
135.518387 100.472 -70.8474
136.500412 100.377 -70.9259
137.489548 100.282 -70.9962
138.485855 100.187 -71.0559
139.489380 100.091 -71.1029
140.500168 99.994 -71.1369
141.518295 99.899 -71.1552
142.543793 99.804 -71.1630
143.576721 99.712 -71.1644
144.617142 99.620 -71.1600
145.665100 99.530 -71.1505
146.720642 99.440 -71.1390
147.783844 99.353 -71.1288
148.854752 99.267 -71.1200
149.933411 99.180 -71.1156
151.019897 99.091 -71.1110
152.114243 99.002 -71.1020
153.216522 98.913 -71.0900
154.326797 98.825 -71.0755
155.445114 98.736 -71.0570
156.571533 98.645 -71.0345
157.706116 98.553 -71.0041
158.848923 98.461 -70.9606
160.000000 98.368 -70.9081
161.159424 98.278 -70.8493
162.327255 98.188 -70.7832
163.503540 98.096 -70.7107
164.688354 98.004 -70.6292
165.881760 97.914 -70.5342
167.083801 97.824 -70.4323
168.294571 97.737 -70.3292
169.514099 97.651 -70.2233
170.742462 97.564 -70.1155
171.979736 97.476 -70.0033
173.225967 97.390 -69.8831
174.481232 97.304 -69.7593
175.745605 97.221 -69.6353
177.019119 97.137 -69.5103
178.301880 97.053 -69.3859
179.593933 96.968 -69.2583
180.895340 96.882 -69.1247
182.206177 96.796 -68.9843
183.526520 96.711 -68.8349
184.856430 96.626 -68.6794
186.195984 96.543 -68.5204
187.545227 96.460 -68.3564
188.904266 96.376 -68.1872
190.273132 96.291 -68.0104
191.651932 96.207 -67.8219
193.040726 96.124 -67.6265
194.439575 96.045 -67.4282
195.848572 95.966 -67.2266
197.267761 95.886 -67.0233
198.697250 95.807 -66.8165
200.137085 95.729 -66.6034
201.587372 95.653 -66.3885
203.048157 95.579 -66.1752
204.519531 95.505 -65.9636
206.001556 95.431 -65.7551
207.494324 95.357 -65.5495
208.997925 95.284 -65.3479
210.512405 95.211 -65.1475
212.037857 95.135 -64.9479
213.574371 95.058 -64.7435
215.122025 94.979 -64.5283
216.680893 94.899 -64.3026
218.251053 94.821 -64.0643
219.832581 94.742 -63.8147
221.425583 94.663 -63.5544
223.030121 94.585 -63.2837
224.646286 94.508 -63.0020
226.274170 94.433 -62.7137
227.913849 94.361 -62.4240
229.565399 94.289 -62.1297
231.228928 94.215 -61.8323
232.904510 94.140 -61.5240
234.592224 94.065 -61.1968
236.292191 93.990 -60.8529
238.004456 93.918 -60.4907
239.729126 93.848 -60.1130
241.466309 93.780 -59.7227
243.216080 93.715 -59.3181
244.978516 93.653 -58.8956
246.753738 93.595 -58.4643
248.541809 93.545 -58.0283
250.342850 93.501 -57.5982
252.156937 93.462 -57.1859
253.984161 93.427 -56.7920
255.824646 93.396 -56.4207
257.678467 93.367 -56.0738
259.545685 93.341 -55.7548
261.426483 93.315 -55.4637
263.320862 93.290 -55.2024
265.229004 93.264 -54.9686
267.150970 93.236 -54.7644
269.086853 93.205 -54.5785
271.036774 93.168 -54.4021
273.000824 93.128 -54.2305
274.979095 93.086 -54.0556
276.971710 93.042 -53.8795
278.978760 92.997 -53.7034
281.000336 92.949 -53.5225
283.036591 92.898 -53.3321
285.087585 92.846 -53.1326
287.153442 92.795 -52.9216
289.234283 92.745 -52.7036
291.330200 92.695 -52.4837
293.441284 92.645 -52.2586
295.567688 92.593 -52.0271
297.709503 92.540 -51.7876
299.866821 92.489 -51.5368
302.039795 92.439 -51.2798
304.228485 92.391 -51.0203
306.433044 92.344 -50.7587
308.653595 92.296 -50.4969
310.890228 92.249 -50.2337
313.143066 92.203 -49.9670
315.412231 92.159 -49.7017
317.697845 92.117 -49.4434
320.000000 92.075 -49.1888
322.318848 92.031 -48.9371
324.654510 91.986 -48.6868
327.007080 91.942 -48.4353
329.376709 91.898 -48.1838
331.763519 91.854 -47.9342
334.167603 91.809 -47.6818
336.589142 91.763 -47.4216
339.028198 91.716 -47.1558
341.484924 91.672 -46.8840
343.959473 91.629 -46.6098
346.451935 91.586 -46.3363
348.962463 91.544 -46.0638
351.491211 91.503 -45.7943
354.038239 91.462 -45.5258
356.603760 91.421 -45.2569
359.187866 91.379 -44.9878
361.790680 91.339 -44.7183
364.412354 91.298 -44.4488
367.053040 91.257 -44.1804
369.712860 91.216 -43.9108
372.391968 91.175 -43.6380
375.090454 91.133 -43.3628
377.808533 91.093 -43.0851
380.546265 91.053 -42.8058
383.303864 91.013 -42.5268
386.081451 90.973 -42.2458
388.879150 90.933 -41.9606
391.697144 90.893 -41.6729
394.535522 90.855 -41.3839
397.394501 90.817 -41.0928
400.274170 90.778 -40.7985
403.174744 90.740 -40.5029
406.096313 90.705 -40.2073
409.039062 90.671 -39.9139
412.003113 90.637 -39.6259
414.988647 90.603 -39.3419
417.995850 90.570 -39.0616
421.024811 90.536 -38.7849
424.075714 90.502 -38.5122
427.148743 90.467 -38.2419
430.244049 90.432 -37.9725
433.361786 90.396 -37.7029
436.502106 90.359 -37.4319
439.665161 90.322 -37.1579
442.851166 90.284 -36.8793
446.060242 90.246 -36.5949
449.292572 90.207 -36.3015
452.548340 90.169 -36.0029
455.827698 90.133 -35.7020
459.130798 90.098 -35.3980
462.457855 90.061 -35.0909
465.809021 90.024 -34.7810
469.184448 89.990 -34.4677
472.584381 89.957 -34.1540
476.008911 89.924 -33.8438
479.458252 89.890 -33.5340
482.932617 89.857 -33.2224
486.432159 89.823 -32.9090
489.957031 89.790 -32.5932
493.507477 89.756 -32.2750
497.083618 89.723 -31.9535
500.685699 89.690 -31.6301
504.313873 89.658 -31.3057
507.968323 89.627 -30.9811
511.649292 89.596 -30.6575
515.356934 89.565 -30.3341
519.091370 89.534 -30.0107
522.852966 89.502 -29.6861
526.641724 89.470 -29.3593
530.458008 89.438 -29.0291
534.301941 89.405 -28.6946
538.173706 89.372 -28.3542
542.073547 89.339 -28.0061
546.001648 89.307 -27.6502
549.958191 89.275 -27.2849
553.943420 89.243 -26.9132
557.957520 89.214 -26.5373
562.000671 89.187 -26.1593
566.073181 89.160 -25.7832
570.175171 89.133 -25.4053
574.306885 89.106 -25.0211
578.468567 89.080 -24.6363
582.660400 89.058 -24.2560
586.882568 89.036 -23.8773
591.135376 89.011 -23.5011
595.419006 88.986 -23.1213
599.733643 88.961 -22.7300
604.079590 88.938 -22.3344
608.456970 88.918 -21.9391
612.866089 88.899 -21.5443
617.307190 88.879 -21.1531
621.780457 88.859 -20.7613
626.286133 88.839 -20.3651
630.824463 88.819 -19.9663
635.395691 88.801 -19.5649
640.000000 88.783 -19.1624
644.637695 88.766 -18.7609
649.309021 88.750 -18.3594
654.014160 88.734 -17.9582
658.753418 88.717 -17.5554
663.527039 88.700 -17.1492
668.335205 88.684 -16.7394
673.178284 88.668 -16.3250
678.056396 88.652 -15.9054
682.969849 88.636 -15.4801
687.918945 88.621 -15.0485
692.903870 88.607 -14.6097
697.924927 88.593 -14.1636
702.982422 88.581 -13.7084
708.076477 88.570 -13.2477
713.207520 88.562 -12.7827
718.375732 88.557 -12.3177
723.581360 88.554 -11.8572
728.824707 88.552 -11.4006
734.106079 88.551 -10.9492
739.425720 88.551 -10.5016
744.783936 88.551 -10.0575
750.180908 88.551 -9.6146
755.617065 88.551 -9.1712
761.092529 88.551 -8.7256
766.607727 88.552 -8.2754
772.162903 88.553 -7.8206
777.758301 88.556 -7.3598
783.394287 88.560 -6.8956
789.071045 88.566 -6.4286
794.789001 88.575 -5.9636
800.548340 88.587 -5.5059
806.349487 88.601 -5.0556
812.192627 88.614 -4.6152
818.078125 88.628 -4.1826
824.006226 88.642 -3.7570
829.977295 88.656 -3.3365
835.991699 88.670 -2.9209
842.049622 88.682 -2.5045
848.151428 88.692 -2.0817
854.297485 88.701 -1.6516
860.488098 88.713 -1.2100
866.723572 88.726 -0.7617
873.004211 88.740 -0.3104
879.330322 88.756 0.1454
885.702332 88.772 0.6062
892.120483 88.789 1.0713
898.585144 88.809 1.5410
905.096680 88.831 2.0132
911.655396 88.854 2.4844
918.261597 88.878 2.9592
924.915710 88.902 3.4415
931.618042 88.928 3.9302
938.368896 88.958 4.4279
945.168762 88.992 4.9271
952.017822 89.030 5.4225
958.916504 89.071 5.9102
965.865234 89.116 6.3840
972.864319 89.164 6.8453
979.914062 89.213 7.2929
987.014954 89.263 7.7284
994.167236 89.314 8.1538
1001.371399 89.368 8.5666
1008.627747 89.424 8.9642
1015.936646 89.481 9.3484
1023.298584 89.538 9.7201
1030.713867 89.596 10.0789
1038.182739 89.655 10.4253
1045.705933 89.716 10.7576
1053.283447 89.777 11.0730
1060.916016 89.838 11.3747
1068.603882 89.897 11.6646
1076.347412 89.957 11.9449
1084.147095 90.017 12.2183
1092.003296 90.077 12.4851
1099.916382 90.136 12.7461
1107.886841 90.196 13.0019
1115.915039 90.258 13.2559
1124.001343 90.322 13.5001
1132.146362 90.389 13.7289
1140.350342 90.457 13.9392
1148.613770 90.525 14.1250
1156.937134 90.593 14.2903
1165.320801 90.658 14.4362
1173.765137 90.722 14.5655
1182.270752 90.785 14.6801
1190.838013 90.846 14.7836
1199.467285 90.903 14.8789
1208.159180 90.958 14.9696
1216.913940 91.011 15.0603
1225.732178 91.063 15.1507
1234.614380 91.114 15.2414
1243.560913 91.164 15.3336
1252.572266 91.212 15.4302
1261.648926 91.261 15.5276
1270.791382 91.311 15.6229
1280.000000 91.361 15.7166
1289.275391 91.408 15.8068
1298.618042 91.454 15.8986
1308.028320 91.499 15.9987
1317.506836 91.545 16.1016
1327.054077 91.592 16.2033
1336.670410 91.640 16.3056
1346.356567 91.685 16.4081
1356.112793 91.729 16.5136
1365.939697 91.775 16.6264
1375.837891 91.821 16.7425
1385.807739 91.868 16.8587
1395.849854 91.915 16.9765
1405.964844 91.962 17.0965
1416.152954 92.009 17.2185
1426.415039 92.058 17.3443
1436.751465 92.108 17.4695
1447.162720 92.159 17.5890
1457.649414 92.211 17.7065
1468.212158 92.261 17.8235
1478.851440 92.312 17.9415
1489.567871 92.363 18.0640
1500.361816 92.415 18.1875
1511.234131 92.469 18.3096
1522.185059 92.524 18.4315
1533.215454 92.578 18.5533
1544.325806 92.633 18.6765
1555.516602 92.689 18.8032
1566.788574 92.746 18.9305
1578.142090 92.806 19.0558
1589.578003 92.867 19.1795
1601.096680 92.928 19.3004
1612.698975 92.990 19.4205
1624.385254 93.053 19.5417
1636.156250 93.118 19.6635
1648.012451 93.184 19.7876
1659.954590 93.253 19.9096
1671.983398 93.325 20.0274
1684.099243 93.401 20.1356
1696.302856 93.479 20.2269
1708.594971 93.559 20.3037
1720.976196 93.638 20.3656
1733.447144 93.718 20.4138
1746.008423 93.798 20.4488
1758.660645 93.879 20.4719
1771.404663 93.959 20.4828
1784.240967 94.039 20.4870
1797.170288 94.116 20.4894
1810.193359 94.194 20.4910
1823.310791 94.273 20.4949
1836.523193 94.354 20.4990
1849.831421 94.435 20.5029
1863.236084 94.519 20.5040
1876.737793 94.605 20.5006
1890.337524 94.695 20.4901
1904.035645 94.786 20.4699
1917.833008 94.879 20.4382
1931.730469 94.974 20.3920
1945.728638 95.072 20.3313
1959.828125 95.170 20.2550
1974.029907 95.270 20.1624
1988.334473 95.371 20.0521
2002.742798 95.474 19.9245
2017.255493 95.576 19.7791
2031.873291 95.680 19.6177
2046.597168 95.783 19.4423
2061.427734 95.887 19.2519
2076.365479 95.992 19.0462
2091.411865 96.099 18.8250
2106.566895 96.204 18.5874
2121.832031 96.311 18.3341
2137.207764 96.419 18.0660
2152.694824 96.528 17.7812
2168.294189 96.637 17.4769
2184.006592 96.747 17.1555
2199.832764 96.857 16.8196
2215.773682 96.968 16.4655
2231.830078 97.082 16.0924
2248.002686 97.199 15.6947
2264.292725 97.315 15.2658
2280.700684 97.432 14.8080
2297.227539 97.549 14.3223
2313.874268 97.665 13.8072
2330.641602 97.781 13.2618
2347.530273 97.898 12.6846
2364.541504 98.012 12.0719
2381.676025 98.124 11.4280
2398.934570 98.234 10.7560
2416.318359 98.343 10.0562
2433.827881 98.449 9.3309
2451.464355 98.555 8.5762
2469.228760 98.659 7.7884
2487.121826 98.760 6.9696
2505.144531 98.856 6.1197
2523.297852 98.949 5.2411
2541.582764 99.038 4.3356
2560.000000 99.124 3.4042
2578.550781 99.204 2.4480
2597.236084 99.281 1.4686
2616.056641 99.352 0.4669
2635.013672 99.419 -0.5546
2654.108154 99.480 -1.5941
2673.340820 99.536 -2.6484
2692.713135 99.586 -3.7141
2712.225586 99.632 -4.7909
2731.879395 99.672 -5.8773
2751.675781 99.708 -6.9729
2771.615479 99.738 -8.0776
2791.699707 99.763 -9.1891
2811.929688 99.783 -10.3036
2832.305908 99.798 -11.4247
2852.830078 99.810 -12.5550
2873.502930 99.817 -13.6930
2894.325439 99.816 -14.8392
2915.298828 99.809 -15.9907
2936.424316 99.797 -17.1472
2957.702881 99.777 -18.3020
2979.135742 99.748 -19.4508
3000.723633 99.710 -20.5861
3022.468262 99.666 -21.6980
3044.370117 99.615 -22.7880
3066.430908 99.559 -23.8566
3088.651611 99.497 -24.8984
3111.033203 99.428 -25.9087
3133.577148 99.354 -26.8864
3156.284180 99.277 -27.8279
3179.156006 99.197 -28.7368
3202.193359 99.114 -29.6159
3225.397949 99.028 -30.4640
3248.770508 98.939 -31.2806
3272.312500 98.847 -32.0665
3296.024902 98.755 -32.8225
3319.909180 98.660 -33.5487
3343.966797 98.563 -34.2450
3368.198486 98.464 -34.9129
3392.605713 98.366 -35.5554
3417.189941 98.264 -36.1682
3441.952393 98.159 -36.7488
3466.894287 98.051 -37.2946
3492.016846 97.945 -37.8012
3517.321289 97.837 -38.2719
3542.809326 97.729 -38.7094
3568.481934 97.621 -39.1112
3594.340576 97.511 -39.4748
3620.386719 97.404 -39.8035
3646.621582 97.299 -40.0990
3673.046387 97.195 -40.3638
3699.662842 97.093 -40.6018
3726.472168 96.992 -40.8111
3753.475586 96.893 -40.9908
3780.675049 96.795 -41.1414
3808.071289 96.700 -41.2634
3835.666016 96.606 -41.3566
3863.460938 96.515 -41.4199
3891.457275 96.425 -41.4559
3919.656250 96.340 -41.4668
3948.059814 96.258 -41.4531
3976.668945 96.179 -41.4157
4005.485596 96.103 -41.3554
4034.510986 96.032 -41.2732
4063.746582 95.963 -41.1695
4093.194336 95.898 -41.0451
4122.855469 95.837 -40.8998
4152.730957 95.781 -40.7330
4182.823730 95.729 -40.5469
4213.133789 95.682 -40.3419
4243.664062 95.641 -40.1231
4274.415527 95.607 -39.8941
4305.389648 95.578 -39.6592
4336.588379 95.555 -39.4236
4368.013184 95.538 -39.1881
4399.665527 95.525 -38.9547
4431.547363 95.517 -38.7241
4463.660156 95.513 -38.4995
4496.005371 95.512 -38.2761
4528.585449 95.513 -38.0509
4561.401367 95.517 -37.8211
4594.455078 95.526 -37.5827
4627.748535 95.539 -37.3362
4661.283203 95.556 -37.0813
4695.060547 95.577 -36.8163
4729.083008 95.603 -36.5379
4763.352051 95.637 -36.2514
4797.869141 95.680 -35.9601
4832.636719 95.731 -35.6675
4867.655762 95.788 -35.3762
4902.928711 95.855 -35.0914
4938.457520 95.933 -34.8178
4974.243652 96.020 -34.5582
5010.289062 96.113 -34.3148
5046.595703 96.216 -34.0940
5083.165527 96.333 -33.8999
5120.000000 96.461 -33.7427
5157.101562 96.599 -33.6345
5194.472168 96.746 -33.5742
5232.113281 96.900 -33.5605
5270.027344 97.063 -33.6046
5308.216309 97.241 -33.7160
5346.681641 97.428 -33.8989
5385.426270 97.618 -34.1613
5424.451172 97.814 -34.5021
5463.758789 98.020 -34.9167
5503.351562 98.236 -35.4233
5543.230957 98.462 -36.0376
5583.399414 98.694 -36.7632
5623.859375 98.927 -37.6033
5664.611816 99.167 -38.5739
5705.660156 99.417 -39.6840
5747.005859 99.671 -40.9570
5788.650879 99.923 -42.4182
5830.597656 100.171 -44.0700
5872.848633 100.410 -45.9229
5915.405762 100.637 -47.9779
5958.271484 100.845 -50.2445
6001.447266 101.030 -52.7068
6044.936523 101.185 -55.3639
6088.740234 101.305 -58.1795
6132.861816 101.386 -61.1315
6177.303223 101.424 -64.1756
6222.066406 101.417 -67.2764
6267.154297 101.364 -70.3835
6312.568359 101.264 -73.4507
6358.312012 101.118 -76.4294
6404.386719 100.927 -79.2661
6450.795898 100.696 -81.9278
6497.541016 100.430 -84.3662
6544.625000 100.136 -86.5735
6592.049805 99.820 -88.5245
6639.818359 99.490 -90.2239
6687.933594 99.148 -91.6626
6736.396973 98.804 -92.8575
6785.211426 98.466 -93.8131
6834.379883 98.138 -94.5577
6883.904785 97.824 -95.1122
6933.788574 97.527 -95.5034
6984.033691 97.252 -95.7574
7034.642578 96.997 -95.8966
7085.618652 96.764 -95.9470
7136.963867 96.551 -95.9233
7188.681152 96.359 -95.8443
7240.773438 96.187 -95.7227
7293.243164 96.035 -95.5731
7346.092773 95.903 -95.4088
7399.325684 95.789 -95.2464
7452.944336 95.692 -95.0907
7506.951172 95.610 -94.9505
7561.350098 95.542 -94.8306
7616.142578 95.489 -94.7357
7671.332031 95.450 -94.6752
7726.921875 95.424 -94.6577
7782.914551 95.411 -94.6897
7839.312500 95.409 -94.7785
7896.119629 95.417 -94.9310
7953.337891 95.434 -95.1565
8010.971191 95.459 -95.4552
8069.021973 95.487 -95.8309
8127.493164 95.520 -96.2814
8186.388672 95.556 -96.8050
8245.710938 95.594 -97.4036
8305.461914 95.633 -98.0794
8365.647461 95.673 -98.8298
8426.267578 95.711 -99.6531
8487.328125 95.749 -100.5491
8548.831055 95.785 -101.5160
8610.779297 95.819 -102.5563
8673.176758 95.851 -103.6701
8736.026367 95.880 -104.8623
8799.331055 95.906 -106.1373
8863.094727 95.927 -107.4966
8927.320312 95.940 -108.9457
8992.010742 95.943 -110.4767
9057.170898 95.934 -112.0861
9122.802734 95.912 -113.7659
9188.910156 95.877 -115.5104
9255.497070 95.826 -117.3101
9322.566406 95.758 -119.1586
9390.121094 95.672 -121.0410
9458.166016 95.566 -122.9450
9526.704102 95.441 -124.8569
9595.738281 95.297 -126.7629
9665.273438 95.133 -128.6511
9735.311523 94.949 -130.5093
9805.857422 94.746 -132.3243
9876.915039 94.525 -134.0824
9948.487305 94.285 -135.7721
10020.578125 94.028 -137.3805
10093.191406 93.756 -138.8981
10166.331055 93.468 -140.3126
10240.000000 93.168 -141.6184
10314.203125 92.855 -142.8081
10388.944336 92.534 -143.8742
10464.226562 92.203 -144.8076
10540.054688 91.867 -145.6067
10616.432617 91.527 -146.2644
10693.363281 91.187 -146.7873
10770.852539 90.849 -147.1786
10848.902344 90.515 -147.4419
10927.517578 90.184 -147.5781
11006.703125 89.861 -147.5992
11086.461914 89.551 -147.5121
11166.798828 89.253 -147.3332
11247.718750 88.968 -147.0802
11329.223633 88.695 -146.7568
11411.320312 88.434 -146.3706
11494.011719 88.185 -145.9276
11577.301758 87.951 -145.4359
11661.195312 87.728 -144.8971
11745.697266 87.515 -144.3142
11830.811523 87.314 -143.6905
11916.542969 87.128 -143.0273
12002.894531 86.955 -142.3329
12089.873047 86.796 -141.6159
12177.480469 86.650 -140.8763
12265.723633 86.517 -140.1137
12354.606445 86.399 -139.3382
12444.132812 86.299 -138.5572
12534.308594 86.215 -137.7782
12625.136719 86.145 -137.0123
12716.624023 86.089 -136.2570
12808.773438 86.047 -135.5113
12901.591797 86.020 -134.7811
12995.082031 86.011 -134.0681
13089.250000 86.020 -133.3834
13184.099609 86.046 -132.7350
13279.636719 86.091 -132.1330
13375.867188 86.156 -131.5832
13472.793945 86.242 -131.1065
13570.422852 86.353 -130.7181
13668.759766 86.484 -130.4403
13767.809570 86.636 -130.2928
13867.577148 86.807 -130.2985
13968.067383 86.997 -130.4795
14069.285156 87.202 -130.8582
14171.237305 87.419 -131.4597
14273.927734 87.642 -132.2989
14377.362305 87.867 -133.3955
14481.546875 88.089 -134.7592
14586.486328 88.303 -136.4095
14692.185547 88.500 -138.3370
14798.651367 88.670 -140.5494
14905.888672 88.808 -143.0140
15013.902344 88.910 -145.7161
15122.700195 88.968 -148.6081
15232.285156 88.976 -151.6599
15342.664062 88.931 -154.8027
15453.843750 88.829 -157.9804
15565.829102 88.671 -161.1252
15678.625000 88.459 -164.1641
15792.239258 88.198 -167.0568
15906.675781 87.892 -169.7455
16021.942383 87.548 -172.2093
16138.043945 87.172 -174.4064
16254.986328 86.774 -176.3425
16372.777344 86.364 -177.9980
16491.421875 85.949 -179.4078
16610.923828 85.542 179.4150
16731.294922 85.147 178.4233
16852.535156 84.772 177.5800
16974.656250 84.415 176.8412
17097.662109 84.081 176.1627
17221.558594 83.767 175.5090
17346.353516 83.475 174.8387
17472.052734 83.198 174.1265
17598.662109 82.932 173.3332
17726.189453 82.670 172.4593
17854.640625 82.403 171.4809
17984.021484 82.125 170.4330
18114.341797 81.823 169.3271
18245.605469 81.498 168.2113
18377.820312 81.147 167.1143
18510.994141 80.763 166.1064
18645.132812 80.336 165.2407
18780.242188 79.873 164.5997
18916.332031 79.371 164.2837
19053.408203 78.851 164.2930
19191.476562 78.328 164.6803
19330.546875 77.812 165.3874
19470.623047 77.314 166.3919
19611.714844 76.847 167.6354
19753.830078 76.422 169.0816
19896.974609 76.051 170.6403
