* Measurement data measured by REW V5.20.13
* Source: C:\Users\kurin\Desktop\Targets and Curves\Resolve\Img\Files\WF1000XM3_SPL.txt
* Format: Comma/Tab/Space delimited data
* Dated: Aug 14, 2023 6:49:09 PM
* REW Settings:
*  C-weighting compensation: Off
*  Target level: 75.0 dB
* Note: ; Measurement imported from C:\Users\kurin\Desktop\Targets and Curves\Resolve\Img\Files\WF1000XM3_SPL.txt Format: Comma/Tab/Space delimited data 623 values loaded, 5 Hz to 39,792 Hz log spaced 
* Measurement: WF1000XM3_SPL
* Smoothing: 1/48 octave
* Frequency Step: 1/96 octave
* Start Frequency: 5.000 Hz
*
* Freq(Hz) SPL(dB) Phase(degrees)
5.000000 86.686 24.5220
5.036232 86.694 24.5148
5.072727 86.703 24.5070
5.109486 86.713 24.4976
5.146511 86.725 24.4870
5.183805 86.739 24.4749
5.221369 86.755 24.4620
5.259205 86.772 24.4488
5.297316 86.789 24.4350
5.335702 86.807 24.4206
5.374367 86.825 24.4060
5.413311 86.843 24.3915
5.452538 86.862 24.3770
5.492050 86.881 24.3625
5.531847 86.899 24.3480
5.571934 86.917 24.3336
5.612310 86.935 24.3190
5.652979 86.953 24.3041
5.693943 86.972 24.2890
5.735204 86.991 24.2741
5.776763 87.009 24.2590
5.818624 87.027 24.2436
5.860788 87.045 24.2280
5.903258 87.063 24.2125
5.946035 87.082 24.1970
5.989123 87.101 24.1816
6.032523 87.119 24.1660
6.076237 87.137 24.1501
6.120268 87.155 24.1340
6.164618 87.173 24.1181
6.209289 87.192 24.1020
6.254284 87.211 24.0856
6.299605 87.229 24.0690
6.345255 87.247 24.0526
6.391235 87.265 24.0360
6.437549 87.283 24.0191
6.484198 87.302 24.0020
6.531185 87.321 23.9850
6.578513 87.339 23.9680
6.626183 87.357 23.9511
6.674199 87.375 23.9340
6.722563 87.393 23.9166
6.771278 87.412 23.8990
6.820345 87.431 23.8811
6.869768 87.449 23.8630
6.919549 87.467 23.8451
6.969691 87.485 23.8270
7.020196 87.503 23.8086
7.071068 87.522 23.7900
7.122308 87.541 23.7715
7.173919 87.559 23.7530
7.225904 87.577 23.7346
7.278266 87.595 23.7160
7.331007 87.613 23.6966
7.384131 87.632 23.6770
7.437639 87.651 23.6581
7.491535 87.669 23.6390
7.545822 87.687 23.6191
7.600502 87.705 23.5990
7.655579 87.723 23.5790
7.711054 87.742 23.5590
7.766932 87.760 23.5391
7.823214 87.779 23.5190
7.879904 87.798 23.4986
7.937005 87.816 23.4780
7.994520 87.834 23.4571
8.052452 87.852 23.4360
8.110803 87.870 23.4151
8.169578 87.889 23.3940
8.228777 87.908 23.3726
8.288406 87.926 23.3510
8.348468 87.944 23.3291
8.408964 87.962 23.3070
8.469899 87.980 23.2851
8.531276 87.999 23.2630
8.593097 88.018 23.2406
8.655366 88.036 23.2180
8.718086 88.054 23.1956
8.781260 88.072 23.1730
8.844893 88.090 23.1501
8.908987 88.109 23.1270
8.973545 88.128 23.1036
9.038571 88.146 23.0800
9.104069 88.164 23.0561
9.170040 88.182 23.0320
9.236490 88.200 23.0081
9.303422 88.219 22.9840
9.370838 88.238 22.9596
9.438744 88.256 22.9350
9.507140 88.274 22.9101
9.576033 88.292 22.8850
9.645425 88.310 22.8601
9.715320 88.329 22.8350
9.785721 88.348 22.8091
9.856632 88.366 22.7830
9.928058 88.384 22.7571
10.000000 88.402 22.7310
10.072464 88.420 22.7046
10.145453 88.439 22.6780
10.218971 88.458 22.6516
10.293022 88.476 22.6250
10.367610 88.494 22.5976
10.442738 88.512 22.5700
10.518411 88.530 22.5426
10.594631 88.549 22.5150
10.671404 88.568 22.4871
10.748734 88.586 22.4590
10.826623 88.604 22.4306
10.905077 88.622 22.4020
10.984100 88.640 22.3731
11.063695 88.659 22.3440
11.143867 88.677 22.3146
11.224621 88.696 22.2850
11.305959 88.715 22.2556
11.387886 88.733 22.2260
11.470407 88.751 22.1956
11.553527 88.769 22.1650
11.637249 88.787 22.1346
11.721577 88.806 22.1040
11.806517 88.825 22.0727
11.892071 88.843 22.0410
11.978246 88.861 22.0096
12.065045 88.879 21.9780
12.152473 88.897 21.9456
12.240536 88.916 21.9130
12.329235 88.935 21.8806
12.418578 88.953 21.8480
12.508568 88.971 21.8146
12.599211 88.989 21.7810
12.690510 89.007 21.7477
12.782471 89.026 21.7140
12.875097 89.045 21.6797
12.968395 89.063 21.6450
13.062370 89.081 21.6101
13.157025 89.099 21.5750
13.252366 89.117 21.5401
13.348398 89.136 21.5050
13.445127 89.155 21.4693
13.542556 89.173 21.4330
13.640691 89.191 21.3962
13.739536 89.209 21.3590
13.839099 89.227 21.3221
13.939383 89.246 21.2850
14.040393 89.265 21.2477
14.142136 89.283 21.2100
14.244616 89.301 21.1717
14.347837 89.319 21.1330
14.451808 89.337 21.0942
14.556532 89.356 21.0550
14.662014 89.375 21.0152
14.768262 89.393 20.9750
14.875278 89.411 20.9352
14.983070 89.429 20.8950
15.091644 89.447 20.8543
15.201005 89.466 20.8130
15.311157 89.485 20.7712
15.422109 89.503 20.7290
15.533863 89.521 20.6867
15.646428 89.539 20.6440
15.759809 89.557 20.6012
15.874010 89.576 20.5580
15.989040 89.595 20.5142
16.104904 89.613 20.4700
16.221605 89.631 20.4257
16.339155 89.649 20.3811
16.457554 89.667 20.3358
16.576813 89.686 20.2900
16.696936 89.704 20.2437
16.817928 89.723 20.1970
16.939798 89.742 20.1502
17.062551 89.760 20.1031
17.186193 89.778 20.0553
17.310732 89.796 20.0070
17.436172 89.814 19.9582
17.562521 89.833 19.9090
17.689787 89.852 19.8597
17.817974 89.870 19.8101
17.947090 89.888 19.7598
18.077143 89.906 19.7090
18.208138 89.924 19.6577
18.340080 89.943 19.6061
18.472980 89.962 19.5542
18.606844 89.980 19.5020
18.741676 89.998 19.4497
18.877487 90.016 19.3971
19.014280 90.034 19.3441
19.152065 90.053 19.2911
19.290850 90.071 19.2386
19.430639 90.090 19.1860
19.571442 90.109 19.1332
19.713264 90.129 19.0791
19.856115 90.149 19.0235
20.000000 90.169 18.9641
20.144928 90.190 18.8984
20.290907 90.212 18.8261
20.437943 90.233 18.7449
20.586044 90.253 18.6581
20.735220 90.271 18.5670
20.885475 90.288 18.4741
21.036821 90.304 18.3814
21.189262 90.318 18.2921
21.342808 90.330 18.2104
21.497467 90.342 18.1361
21.653246 90.354 18.0721
21.810154 90.367 18.0141
21.968201 90.381 17.9585
22.127390 90.395 17.9061
22.287735 90.409 17.8560
22.449242 90.423 17.8090
22.611917 90.438 17.7654
22.775772 90.453 17.7250
22.940815 90.469 17.6882
23.107054 90.486 17.6550
23.274498 90.504 17.6285
23.443153 90.524 17.6010
23.613033 90.548 17.5675
23.784142 90.575 17.5230
23.956491 90.602 17.4601
24.130091 90.630 17.3811
24.304947 90.657 17.2858
24.481071 90.684 17.1742
24.658470 90.710 17.0439
24.837156 90.733 16.9022
25.017136 90.751 16.7536
25.198421 90.767 16.6032
25.381020 90.781 16.4588
25.564941 90.793 16.3161
25.750195 90.806 16.1721
25.936790 90.816 16.0312
26.124741 90.822 15.8953
26.314051 90.825 15.7692
26.504732 90.828 15.6590
26.696796 90.830 15.5621
26.890253 90.832 15.4772
27.085112 90.834 15.4061
27.281382 90.835 15.3511
27.479073 90.836 15.3100
27.678198 90.840 15.2839
27.878765 90.847 15.2660
28.080786 90.856 15.2506
28.284271 90.866 15.2360
28.489231 90.878 15.2175
28.695675 90.890 15.1990
28.903616 90.901 15.1824
29.113064 90.913 15.1690
29.324028 90.926 15.1619
29.536524 90.941 15.1580
29.750557 90.957 15.1555
29.966141 90.975 15.1540
30.183289 90.994 15.1541
30.402010 91.015 15.1510
30.622314 91.041 15.1412
30.844217 91.068 15.1210
31.067726 91.095 15.0842
31.292856 91.123 15.0351
31.519617 91.150 14.9765
31.748020 91.178 14.9061
31.978081 91.207 14.8209
32.209808 91.236 14.7251
32.443211 91.261 14.6211
32.678310 91.284 14.5111
32.915108 91.308 14.3990
33.153625 91.332 14.2831
33.393871 91.353 14.1618
33.635857 91.374 14.0402
33.879597 91.394 13.9254
34.125103 91.414 13.8102
34.372387 91.438 13.6913
34.621464 91.462 13.5642
34.872345 91.485 13.4216
35.125042 91.507 13.2682
35.379574 91.527 13.1066
35.635948 91.546 12.9362
35.894180 91.565 12.7547
36.154285 91.580 12.5703
36.416275 91.588 12.3876
36.680161 91.593 12.2143
36.945961 91.597 12.0599
37.213688 91.600 11.9222
37.483353 91.602 11.8025
37.754974 91.605 11.6991
38.028561 91.609 11.6118
38.304131 91.614 11.5371
38.581699 91.622 11.4731
38.861279 91.632 11.4151
39.142883 91.645 11.3586
39.426529 91.660 11.3011
39.712231 91.676 11.2371
40.000000 91.694 11.1701
40.289856 91.712 11.1025
40.581814 91.731 11.0321
40.875885 91.753 10.9604
41.172089 91.778 10.8791
41.470440 91.806 10.7810
41.770950 91.836 10.6652
42.073643 91.864 10.5280
42.378525 91.893 10.3702
42.685616 91.923 10.1911
42.994934 91.951 9.9913
43.306492 91.976 9.7687
43.620308 91.997 9.5314
43.936401 92.014 9.2848
44.254780 92.028 9.0344
44.575470 92.038 8.7861
44.898483 92.044 8.5434
45.223835 92.048 8.3117
45.551544 92.050 8.0903
45.881630 92.051 7.8807
46.214108 92.051 7.6813
46.548996 92.051 7.4914
46.886307 92.051 7.3093
47.226067 92.051 7.1335
47.568283 92.051 6.9633
47.912983 92.051 6.7978
48.260181 92.051 6.6363
48.609894 92.051 6.4777
48.962143 92.051 6.3222
49.316940 92.051 6.1699
49.674313 92.051 6.0202
50.034271 92.051 5.8732
50.396843 92.051 5.7282
50.762039 92.051 5.5844
51.129883 92.051 5.4422
51.500389 92.051 5.3020
51.873581 92.051 5.1632
52.249481 92.051 5.0259
52.628101 92.051 4.8892
53.009464 92.051 4.7527
53.393593 92.051 4.6162
53.780506 92.051 4.4792
54.170223 92.051 4.3422
54.562763 92.050 4.2057
54.958145 92.048 4.0702
55.356396 92.046 3.9352
55.757530 92.044 3.8042
56.161572 92.039 3.6802
56.568542 92.034 3.5642
56.978462 92.030 3.4603
57.391350 92.027 3.3622
57.807232 92.027 3.2646
58.226128 92.027 3.1682
58.648056 92.027 3.0723
59.073048 92.027 2.9752
59.501114 92.030 2.8761
59.932281 92.034 2.7702
60.366577 92.040 2.6506
60.804020 92.045 2.5222
61.244629 92.046 2.3864
61.688435 92.045 2.2472
62.135452 92.044 2.1077
62.585712 92.041 1.9722
63.039234 92.035 1.8446
63.496040 92.027 1.7292
63.956161 92.019 1.6339
64.419617 92.011 1.5521
64.886421 92.007 1.4814
65.356621 92.005 1.4171
65.830215 92.004 1.3539
66.307251 92.005 1.2911
66.787743 92.008 1.2286
67.271713 92.013 1.1601
67.759193 92.021 1.0791
68.250206 92.030 0.9862
68.744774 92.037 0.8775
69.242928 92.042 0.7602
69.744690 92.046 0.6399
70.250084 92.049 0.5182
70.759148 92.050 0.3985
71.271896 92.051 0.2812
71.788361 92.051 0.1683
72.308571 92.051 0.0592
72.832550 92.051 -0.0458
73.360321 92.051 -0.1468
73.891922 92.051 -0.2438
74.427376 92.052 -0.3368
74.966705 92.053 -0.4261
75.509949 92.054 -0.5119
76.057121 92.056 -0.5939
76.608261 92.060 -0.6738
77.163399 92.065 -0.7527
77.722557 92.072 -0.8318
78.285767 92.079 -0.9128
78.853058 92.088 -0.9968
79.424461 92.099 -1.0848
80.000000 92.111 -1.1798
80.579712 92.125 -1.2845
81.163628 92.140 -1.4018
81.751770 92.157 -1.5342
82.344177 92.176 -1.6857
82.940880 92.195 -1.8621
83.541901 92.213 -2.0596
84.147285 92.227 -2.2784
84.757050 92.238 -2.5115
85.371231 92.245 -2.7536
85.989868 92.249 -2.9995
86.612984 92.249 -3.2437
87.240616 92.246 -3.4815
87.872803 92.239 -3.7074
88.509560 92.231 -3.9186
89.150940 92.222 -4.1086
89.796967 92.213 -4.2836
90.447670 92.207 -4.4455
91.103088 92.204 -4.6017
91.763260 92.202 -4.7580
92.428215 92.203 -4.9207
93.097992 92.208 -5.0971
93.772614 92.213 -5.2896
94.452133 92.217 -5.5058
95.136566 92.219 -5.7375
95.825966 92.216 -5.9814
96.520363 92.210 -6.2295
97.219788 92.201 -6.4739
97.924286 92.189 -6.7105
98.633881 92.173 -6.9339
99.348625 92.155 -7.1406
100.068542 92.136 -7.3236
100.793686 92.118 -7.4876
101.524078 92.103 -7.6309
102.259766 92.091 -7.7657
103.000778 92.084 -7.9011
103.747162 92.081 -8.0447
104.498962 92.080 -8.2074
105.256203 92.081 -8.3876
106.018929 92.080 -8.5883
106.787186 92.079 -8.8066
107.561012 92.077 -9.0416
108.340446 92.072 -9.2896
109.125526 92.063 -9.5489
109.916290 92.051 -9.8115
110.712791 92.035 -10.0685
111.515060 92.017 -10.3215
112.323143 91.999 -10.5680
113.137085 91.980 -10.8115
113.956924 91.960 -11.0552
114.782700 91.938 -11.2964
115.614464 91.914 -11.5340
116.452255 91.888 -11.7656
117.296112 91.861 -11.9884
118.146095 91.833 -12.2026
119.002228 91.804 -12.4069
119.864563 91.774 -12.6025
120.733154 91.744 -12.7890
121.608040 91.715 -12.9686
122.489258 91.686 -13.1430
123.376869 91.658 -13.3136
124.270905 91.629 -13.4812
125.171425 91.601 -13.6487
126.078468 91.574 -13.8192
126.992081 91.546 -13.9926
127.912323 91.517 -14.1704
128.839233 91.487 -14.3506
129.772842 91.456 -14.5324
130.713242 91.423 -14.7136
131.660431 91.387 -14.8932
132.614502 91.349 -15.0665
133.575485 91.309 -15.2294
134.543427 91.266 -15.3797
135.518387 91.222 -15.5142
136.500412 91.177 -15.6318
137.489548 91.130 -15.7316
138.485855 91.083 -15.8098
139.489380 91.035 -15.8613
140.500168 90.988 -15.8900
141.518295 90.946 -15.8941
142.543793 90.907 -15.8850
143.576721 90.874 -15.8710
144.617142 90.844 -15.8590
145.665100 90.818 -15.8579
146.720642 90.795 -15.8699
147.783844 90.773 -15.9007
148.854752 90.752 -15.9488
149.933411 90.730 -16.0167
151.019897 90.707 -16.0988
152.114243 90.680 -16.1942
153.216522 90.650 -16.2917
154.326797 90.614 -16.3810
155.445114 90.576 -16.4588
156.571533 90.537 -16.5169
157.706116 90.497 -16.5599
158.848923 90.459 -16.5891
160.000000 90.421 -16.6070
161.159424 90.384 -16.6164
162.327255 90.348 -16.6170
163.503540 90.313 -16.6067
164.688354 90.279 -16.5940
165.881760 90.250 -16.5861
167.083801 90.223 -16.5850
168.294571 90.194 -16.5991
169.514099 90.164 -16.6170
170.742462 90.130 -16.6302
171.979736 90.094 -16.6380
173.225967 90.059 -16.6371
174.481232 90.024 -16.6270
175.745605 89.988 -16.6063
177.019119 89.951 -16.5751
178.301880 89.916 -16.5325
179.593933 89.881 -16.4801
180.895340 89.847 -16.4202
182.206177 89.814 -16.3502
183.526520 89.781 -16.2643
184.856430 89.752 -16.1742
186.195984 89.730 -16.0891
187.545227 89.711 -16.0112
188.904266 89.689 -15.9480
190.273132 89.668 -15.8931
191.651932 89.648 -15.8414
193.040726 89.628 -15.7971
194.439575 89.610 -15.7631
195.848572 89.591 -15.7391
197.267761 89.572 -15.7275
198.697250 89.551 -15.7230
200.137085 89.527 -15.7231
201.587372 89.501 -15.7220
203.048157 89.472 -15.7139
204.519531 89.442 -15.6971
206.001556 89.412 -15.6673
207.494324 89.381 -15.6261
208.997925 89.350 -15.5721
210.512405 89.320 -15.5092
212.037857 89.293 -15.4389
213.574371 89.268 -15.3672
215.122025 89.245 -15.3014
216.680893 89.222 -15.2392
218.251053 89.198 -15.1818
219.832581 89.173 -15.1252
221.425583 89.148 -15.0661
223.030121 89.123 -15.0022
224.646286 89.096 -14.9294
226.274170 89.069 -14.8492
227.913849 89.045 -14.7602
229.565399 89.022 -14.6662
231.228928 89.000 -14.5701
232.904510 88.980 -14.4743
234.592224 88.963 -14.3790
236.292191 88.948 -14.2932
238.004456 88.937 -14.2275
239.729126 88.926 -14.1781
241.466309 88.912 -14.1483
243.216080 88.895 -14.1280
244.978516 88.875 -14.1086
246.753738 88.853 -14.0901
248.541809 88.831 -14.0704
250.342850 88.808 -14.0471
252.156937 88.781 -14.0164
253.984161 88.754 -13.9791
255.824646 88.728 -13.9329
257.678467 88.703 -13.8831
259.545685 88.678 -13.8362
261.426483 88.651 -13.7871
263.320862 88.623 -13.7342
265.229004 88.593 -13.6742
267.150970 88.563 -13.6028
269.086853 88.533 -13.5213
271.036774 88.503 -13.4287
273.000824 88.473 -13.3263
274.979095 88.445 -13.2137
276.971710 88.419 -13.0954
278.978760 88.396 -12.9743
281.000336 88.374 -12.8553
283.036591 88.354 -12.7439
285.087585 88.335 -12.6413
287.153442 88.317 -12.5515
289.234283 88.298 -12.4712
291.330200 88.277 -12.4003
293.441284 88.254 -12.3332
295.567688 88.228 -12.2659
297.709503 88.200 -12.1932
299.866821 88.170 -12.1080
302.039795 88.139 -12.0123
304.228485 88.109 -11.9048
306.433044 88.079 -11.7883
308.653595 88.049 -11.6647
310.890228 88.020 -11.5364
313.143066 87.993 -11.4065
315.412231 87.965 -11.2754
317.697845 87.937 -11.1466
320.000000 87.907 -11.0134
322.318848 87.875 -10.8712
324.654510 87.841 -10.7175
327.007080 87.807 -10.5481
329.376709 87.773 -10.3636
331.763519 87.739 -10.1641
334.167603 87.705 -9.9467
336.589142 87.671 -9.7069
339.028198 87.639 -9.4498
341.484924 87.612 -9.1764
343.959473 87.588 -8.8938
346.451935 87.568 -8.6085
348.962463 87.550 -8.3228
351.491211 87.535 -8.0409
354.038239 87.523 -7.7638
356.603760 87.512 -7.4940
359.187866 87.503 -7.2318
361.790680 87.495 -6.9797
364.412354 87.486 -6.7327
367.053040 87.476 -6.4890
369.712860 87.464 -6.2418
372.391968 87.451 -5.9832
375.090454 87.439 -5.7138
377.808533 87.428 -5.4306
380.546265 87.419 -5.1369
383.303864 87.414 -4.8328
386.081451 87.412 -4.5249
388.879150 87.414 -4.2181
391.697144 87.419 -3.9179
394.535522 87.428 -3.6317
397.394501 87.439 -3.3588
400.274170 87.451 -3.1018
403.174744 87.463 -2.8578
406.096313 87.474 -2.6274
409.039062 87.485 -2.4027
412.003113 87.493 -2.1758
414.988647 87.501 -1.9467
417.995850 87.512 -1.7101
421.024811 87.526 -1.4737
424.075714 87.542 -1.2436
427.148743 87.560 -1.0207
430.244049 87.580 -0.8070
433.361786 87.601 -0.6056
436.502106 87.624 -0.4204
439.665161 87.648 -0.2505
442.851166 87.671 -0.0990
446.060242 87.692 0.0416
449.292572 87.711 0.1765
452.548340 87.729 0.3096
455.827698 87.747 0.4473
459.130798 87.765 0.5865
462.457855 87.785 0.7290
465.809021 87.808 0.8666
469.184448 87.835 0.9929
472.584381 87.863 1.1047
476.008911 87.891 1.1962
479.458252 87.920 1.2688
482.932617 87.949 1.3216
486.432159 87.978 1.3549
489.957031 88.005 1.3680
493.507477 88.030 1.3640
497.083618 88.053 1.3446
500.685699 88.073 1.3141
504.313873 88.090 1.2779
507.968323 88.105 1.2351
511.649292 88.119 1.1855
515.356934 88.131 1.1322
519.091370 88.139 1.0779
522.852966 88.144 1.0242
526.641724 88.148 0.9729
530.458008 88.151 0.9252
534.301941 88.151 0.8805
538.173706 88.148 0.8451
542.073547 88.142 0.8264
546.001648 88.136 0.8200
549.958191 88.133 0.8269
553.943420 88.132 0.8380
557.957520 88.132 0.8432
562.000671 88.133 0.8460
566.073181 88.131 0.8463
570.175171 88.129 0.8450
574.306885 88.128 0.8456
578.468567 88.127 0.8410
582.660400 88.128 0.8244
586.882568 88.127 0.7991
591.135376 88.122 0.7639
595.419006 88.115 0.7261
599.733643 88.105 0.6934
604.079590 88.093 0.6641
608.456970 88.081 0.6378
612.866089 88.066 0.6190
617.307190 88.047 0.6115
621.780457 88.026 0.6180
626.286133 88.006 0.6451
630.824463 87.987 0.6849
635.395691 87.969 0.7325
640.000000 87.952 0.7848
644.637695 87.936 0.8379
649.309021 87.920 0.8888
654.014160 87.905 0.9313
658.753418 87.889 0.9719
663.527039 87.868 1.0117
668.335205 87.843 1.0608
673.178284 87.817 1.1302
678.056396 87.789 1.2177
682.969849 87.761 1.3254
687.918945 87.734 1.4515
692.903870 87.707 1.5972
697.924927 87.683 1.7554
702.982422 87.663 1.9238
708.076477 87.647 2.0904
713.207520 87.635 2.2415
718.375732 87.623 2.3805
723.581360 87.608 2.5043
728.824707 87.590 2.6196
734.106079 87.571 2.7286
739.425720 87.547 2.8416
744.783936 87.516 2.9651
750.180908 87.481 3.1124
755.617065 87.442 3.3008
761.092529 87.403 3.5251
766.607727 87.367 3.7877
772.162903 87.332 4.0829
777.758301 87.300 4.4069
783.394287 87.271 4.7557
789.071045 87.248 5.1287
794.789001 87.230 5.5126
800.548340 87.220 5.8951
806.349487 87.215 6.2737
812.192627 87.211 6.6408
818.078125 87.208 6.9997
824.006226 87.208 7.3507
829.977295 87.208 7.6958
835.991699 87.208 8.0358
842.049622 87.208 8.3747
848.151428 87.208 8.7159
854.297485 87.208 9.0617
860.488098 87.208 9.4147
866.723572 87.208 9.7776
873.004211 87.208 10.1540
879.330322 87.210 10.5446
885.702332 87.214 10.9522
892.120483 87.221 11.3745
898.585144 87.232 11.8132
905.096680 87.247 12.2593
911.655396 87.269 12.7069
918.261597 87.297 13.1484
924.915710 87.329 13.5748
931.618042 87.366 13.9845
938.368896 87.406 14.3734
945.168762 87.448 14.7397
952.017822 87.492 15.0789
958.916504 87.537 15.3958
965.865234 87.579 15.6916
972.864319 87.621 15.9720
979.914062 87.662 16.2422
987.014954 87.703 16.5050
994.167236 87.742 16.7649
1001.371399 87.781 17.0221
1008.627747 87.821 17.2798
1015.936646 87.862 17.5339
1023.298584 87.904 17.7808
1030.713867 87.947 18.0222
1038.182739 87.988 18.2594
1045.705933 88.031 18.4910
1053.283447 88.076 18.7159
1060.916016 88.122 18.9341
1068.603882 88.166 19.1435
1076.347412 88.210 19.3492
1084.147095 88.253 19.5564
1092.003296 88.297 19.7623
1099.916382 88.343 19.9666
1107.886841 88.391 20.1662
1115.915039 88.440 20.3576
1124.001343 88.490 20.5413
1132.146362 88.540 20.7161
1140.350342 88.590 20.8834
1148.613770 88.640 21.0445
1156.937134 88.691 21.1994
1165.320801 88.742 21.3481
1173.765137 88.794 21.4914
1182.270752 88.845 21.6297
1190.838013 88.897 21.7635
1199.467285 88.950 21.8967
1208.159180 89.005 22.0195
1216.913940 89.065 22.1242
1225.732178 89.126 22.2087
1234.614380 89.184 22.2658
1243.560913 89.241 22.3039
1252.572266 89.294 22.3271
1261.648926 89.345 22.3410
1270.791382 89.392 22.3500
1280.000000 89.436 22.3619
1289.275391 89.476 22.3870
1298.618042 89.515 22.4228
1308.028320 89.557 22.4733
1317.506836 89.601 22.5298
1327.054077 89.646 22.5847
1336.670410 89.693 22.6378
1346.356567 89.739 22.6881
1356.112793 89.787 22.7299
1365.939697 89.838 22.7570
1375.837891 89.890 22.7690
1385.807739 89.938 22.7586
1395.849854 89.984 22.7391
1405.964844 90.023 22.7198
1416.152954 90.060 22.7060
1426.415039 90.096 22.7077
1436.751465 90.131 22.7209
1447.162720 90.166 22.7457
1457.649414 90.202 22.7808
1468.212158 90.238 22.8249
1478.851440 90.275 22.8788
1489.567871 90.312 22.9447
1500.361816 90.352 23.0167
1511.234131 90.396 23.0924
1522.185059 90.443 23.1627
1533.215454 90.492 23.2152
1544.325806 90.541 23.2578
1555.516602 90.585 23.2918
1566.788574 90.629 23.3249
1578.142090 90.672 23.3653
1589.578003 90.716 23.4128
1601.096680 90.759 23.4697
1612.698975 90.803 23.5357
1624.385254 90.849 23.6146
1636.156250 90.899 23.6966
1648.012451 90.953 23.7746
1659.954590 91.011 23.8448
1671.983398 91.070 23.9016
1684.099243 91.130 23.9439
1696.302856 91.191 23.9668
1708.594971 91.252 23.9750
1720.976196 91.310 23.9670
1733.447144 91.366 23.9560
1746.008423 91.417 23.9557
1758.660645 91.468 23.9630
1771.404663 91.524 23.9804
1784.240967 91.581 24.0039
1797.170288 91.637 24.0296
1810.193359 91.694 24.0599
1823.310791 91.753 24.0982
1836.523193 91.816 24.1369
1849.831421 91.883 24.1688
1863.236084 91.952 24.1949
1876.737793 92.020 24.2120
1890.337524 92.090 24.2259
1904.035645 92.160 24.2442
1917.833008 92.234 24.2590
1931.730469 92.314 24.2676
1945.728638 92.399 24.2621
1959.828125 92.485 24.2333
1974.029907 92.573 24.1823
1988.334473 92.662 24.1060
2002.742798 92.753 24.0074
2017.255493 92.841 23.8870
2031.873291 92.930 23.7486
2046.597168 93.018 23.5949
2061.427734 93.105 23.4298
2076.365479 93.190 23.2556
2091.411865 93.275 23.0787
2106.566895 93.358 22.9091
2121.832031 93.445 22.7377
2137.207764 93.538 22.5617
2152.694824 93.635 22.3728
2168.294189 93.732 22.1609
2184.006592 93.832 21.9281
2199.832764 93.934 21.6755
2215.773682 94.040 21.3962
2231.830078 94.147 21.0828
2248.002686 94.256 20.7385
2264.292725 94.362 20.3632
2280.700684 94.468 19.9598
2297.227539 94.574 19.5333
2313.874268 94.681 19.0769
2330.641602 94.791 18.5855
2347.530273 94.901 18.0583
2364.541504 95.007 17.4919
2381.676025 95.112 16.8898
2398.934570 95.215 16.2566
2416.318359 95.317 15.5861
2433.827881 95.418 14.8737
2451.464355 95.517 14.1182
2469.228760 95.611 13.3123
2487.121826 95.699 12.4697
2505.144531 95.776 11.6016
2523.297852 95.848 10.7081
2541.582764 95.918 9.7942
2560.000000 95.983 8.8562
2578.550781 96.040 7.8880
2597.236084 96.089 6.9016
2616.056641 96.128 5.9045
2635.013672 96.159 4.9042
2654.108154 96.182 3.9105
2673.340820 96.199 2.9243
2692.713135 96.210 1.9503
2712.225586 96.216 0.9875
2731.879395 96.217 0.0364
2751.675781 96.213 -0.9027
2771.615479 96.206 -1.8278
2791.699707 96.195 -2.7440
2811.929688 96.182 -3.6542
2832.305908 96.166 -4.5617
2852.830078 96.146 -5.4731
2873.502930 96.120 -6.3811
2894.325439 96.087 -7.2841
2915.298828 96.046 -8.1720
2936.424316 95.998 -9.0343
2957.702881 95.944 -9.8694
2979.135742 95.886 -10.6722
3000.723633 95.824 -11.4437
3022.468262 95.758 -12.1845
3044.370117 95.688 -12.8898
3066.430908 95.614 -13.5544
3088.651611 95.538 -14.1803
3111.033203 95.464 -14.7669
3133.577148 95.388 -15.3175
3156.284180 95.312 -15.8350
3179.156006 95.235 -16.3198
3202.193359 95.160 -16.7719
3225.397949 95.085 -17.1941
3248.770508 95.011 -17.5876
3272.312500 94.939 -17.9564
3296.024902 94.871 -18.3010
3319.909180 94.806 -18.6325
3343.966797 94.746 -18.9647
3368.198486 94.686 -19.2895
3392.605713 94.621 -19.6061
3417.189941 94.554 -19.9057
3441.952393 94.489 -20.1754
3466.894287 94.426 -20.4259
3492.016846 94.366 -20.6635
3517.321289 94.308 -20.8880
3542.809326 94.250 -21.1000
3568.481934 94.193 -21.3041
3594.340576 94.142 -21.5028
3620.386719 94.092 -21.7020
3646.621582 94.043 -21.9129
3673.046387 93.991 -22.1220
3699.662842 93.934 -22.3208
3726.472168 93.875 -22.5052
3753.475586 93.818 -22.6689
3780.675049 93.759 -22.8094
3808.071289 93.696 -22.9247
3835.666016 93.632 -23.0077
3863.460938 93.569 -23.0485
3891.457275 93.508 -23.0531
3919.656250 93.452 -23.0237
3948.059814 93.400 -22.9624
3976.668945 93.351 -22.8727
4005.485596 93.307 -22.7527
4034.510986 93.267 -22.5957
4063.746582 93.236 -22.4179
4093.194336 93.219 -22.2285
4122.855469 93.211 -22.0419
4152.730957 93.211 -21.8739
4182.823730 93.218 -21.7296
4213.133789 93.234 -21.6171
4243.664062 93.256 -21.5432
4274.415527 93.281 -21.5224
4305.389648 93.306 -21.5408
4336.588379 93.325 -21.5959
4368.013184 93.340 -21.6686
4399.665527 93.350 -21.7424
4431.547363 93.358 -21.8067
4463.660156 93.363 -21.8468
4496.005371 93.368 -21.8590
4528.585449 93.375 -21.8298
4561.401367 93.389 -21.7743
4594.455078 93.415 -21.6975
4627.748535 93.451 -21.6164
4661.283203 93.497 -21.5464
4695.060547 93.553 -21.4972
4729.083008 93.619 -21.4804
4763.352051 93.695 -21.5058
4797.869141 93.777 -21.5865
4832.636719 93.866 -21.7242
4867.655762 93.958 -21.9259
4902.928711 94.053 -22.1886
4938.457520 94.149 -22.5117
4974.243652 94.246 -22.8940
5010.289062 94.343 -23.3344
5046.595703 94.441 -23.8314
5083.165527 94.537 -24.3822
5120.000000 94.633 -24.9899
5157.101562 94.730 -25.6557
5194.472168 94.826 -26.3813
5232.113281 94.919 -27.1677
5270.027344 95.010 -28.0186
5308.216309 95.099 -28.9367
5346.681641 95.185 -29.9260
5385.426270 95.265 -30.9943
5424.451172 95.339 -32.1323
5463.758789 95.400 -33.3353
5503.351562 95.452 -34.5967
5543.230957 95.494 -35.9098
5583.399414 95.525 -37.2692
5623.859375 95.543 -38.6724
5664.611816 95.547 -40.1039
5705.660156 95.535 -41.5471
5747.005859 95.511 -43.0025
5788.650879 95.480 -44.4644
5830.597656 95.438 -45.9344
5872.848633 95.383 -47.4156
5915.405762 95.315 -48.8984
5958.271484 95.235 -50.3760
6001.447266 95.142 -51.8425
6044.936523 95.036 -53.2920
6088.740234 94.918 -54.7179
6132.861816 94.785 -56.1143
6177.303223 94.640 -57.4733
6222.066406 94.482 -58.7873
6267.154297 94.312 -60.0498
6312.568359 94.130 -61.2532
6358.312012 93.938 -62.3934
6404.386719 93.737 -63.4662
6450.795898 93.526 -64.4651
6497.541016 93.306 -65.3847
6544.625000 93.077 -66.2171
6592.049805 92.841 -66.9508
6639.818359 92.601 -67.5909
6687.933594 92.360 -68.1372
6736.396973 92.118 -68.5949
6785.211426 91.875 -68.9690
6834.379883 91.631 -69.2597
6883.904785 91.390 -69.4678
6933.788574 91.151 -69.5956
6984.033691 90.915 -69.6449
7034.642578 90.682 -69.6183
7085.618652 90.454 -69.5206
7136.963867 90.229 -69.3471
7188.681152 90.005 -69.0960
7240.773438 89.785 -68.7639
7293.243164 89.572 -68.3396
7346.092773 89.370 -67.8437
7399.325684 89.184 -67.2898
7452.944336 89.011 -66.6881
7506.951172 88.846 -66.0536
7561.350098 88.693 -65.3855
7616.142578 88.551 -64.6859
7671.332031 88.421 -63.9608
7726.921875 88.302 -63.2174
7782.914551 88.195 -62.4540
7839.312500 88.095 -61.6691
7896.119629 88.008 -60.8683
7953.337891 87.936 -60.0518
8010.971191 87.878 -59.2333
8069.021973 87.835 -58.4228
8127.493164 87.808 -57.6321
8186.388672 87.797 -56.8712
8245.710938 87.802 -56.1556
8305.461914 87.822 -55.5002
8365.647461 87.856 -54.9169
8426.267578 87.901 -54.4219
8487.328125 87.956 -54.0179
8548.831055 88.016 -53.7123
8610.779297 88.081 -53.5068
8673.176758 88.149 -53.4051
8736.026367 88.218 -53.4087
8799.331055 88.286 -53.5215
8863.094727 88.351 -53.7396
8927.320312 88.409 -54.0633
8992.010742 88.459 -54.4835
9057.170898 88.499 -54.9950
9122.802734 88.526 -55.5857
9188.910156 88.538 -56.2484
9255.497070 88.535 -56.9640
9322.566406 88.514 -57.7168
9390.121094 88.476 -58.4889
9458.166016 88.420 -59.2615
9526.704102 88.347 -60.0210
9595.738281 88.259 -60.7520
9665.273438 88.155 -61.4415
9735.311523 88.036 -62.0733
9805.857422 87.906 -62.6411
9876.915039 87.766 -63.1330
9948.487305 87.618 -63.5490
10020.578125 87.464 -63.8840
10093.191406 87.307 -64.1418
10166.331055 87.149 -64.3234
10240.000000 86.990 -64.4326
10314.203125 86.831 -64.4721
10388.944336 86.673 -64.4463
10464.226562 86.518 -64.3591
10540.054688 86.366 -64.2150
10616.432617 86.218 -64.0181
10693.363281 86.074 -63.7726
10770.852539 85.934 -63.4826
10848.902344 85.799 -63.1529
10927.517578 85.669 -62.7890
11006.703125 85.544 -62.3922
11086.461914 85.423 -61.9657
11166.798828 85.306 -61.5096
11247.718750 85.193 -61.0257
11329.223633 85.084 -60.5117
11411.320312 84.978 -59.9667
11494.011719 84.877 -59.3882
11577.301758 84.780 -58.7729
11661.195312 84.688 -58.1227
11745.697266 84.604 -57.4373
11830.811523 84.526 -56.7210
11916.542969 84.458 -55.9750
12002.894531 84.398 -55.2073
12089.873047 84.349 -54.4241
12177.480469 84.310 -53.6315
12265.723633 84.280 -52.8385
12354.606445 84.259 -52.0433
12444.132812 84.245 -51.2481
12534.308594 84.239 -50.4503
12625.136719 84.241 -49.6480
12716.624023 84.252 -48.8413
12808.773438 84.273 -48.0280
12901.591797 84.307 -47.2136
12995.082031 84.353 -46.3980
13089.250000 84.414 -45.5960
13184.099609 84.493 -44.8171
13279.636719 84.589 -44.0767
13375.867188 84.702 -43.3885
13472.793945 84.832 -42.7673
13570.422852 84.979 -42.2258
13668.759766 85.143 -41.7843
13767.809570 85.324 -41.4621
13867.577148 85.518 -41.2747
13968.067383 85.723 -41.2395
14069.285156 85.936 -41.3698
14171.237305 86.155 -41.6808
14273.927734 86.375 -42.1828
14377.362305 86.593 -42.8913
14481.546875 86.803 -43.8057
14586.486328 87.000 -44.9360
14692.185547 87.179 -46.2657
14798.651367 87.333 -47.7906
14905.888672 87.460 -49.4837
15013.902344 87.556 -51.3272
15122.700195 87.618 -53.2896
15232.285156 87.643 -55.3472
15342.664062 87.628 -57.4581
15453.843750 87.570 -59.5874
15565.829102 87.471 -61.6898
15678.625000 87.330 -63.7208
15792.239258 87.150 -65.6430
15906.675781 86.932 -67.4139
16021.942383 86.679 -69.0030
16138.043945 86.396 -70.3700
16254.986328 86.088 -71.5012
16372.777344 85.762 -72.3669
16491.421875 85.426 -72.9743
16610.923828 85.087 -73.3120
16731.294922 84.753 -73.4071
16852.535156 84.433 -73.2712
16974.656250 84.132 -72.9405
17097.662109 83.855 -72.4426
17221.558594 83.604 -71.8161
17346.353516 83.385 -71.0967
17472.052734 83.196 -70.3208
17598.662109 83.038 -69.5289
17726.189453 82.907 -68.7445
17854.640625 82.799 -67.9994
17984.021484 82.711 -67.3086
18114.341797 82.641 -66.6984
18245.605469 82.581 -66.1668
18377.820312 82.527 -65.7251
18510.994141 82.475 -65.3599
18645.132812 82.421 -65.0712
18780.242188 82.360 -64.8302
18916.332031 82.287 -64.6163
19053.408203 82.206 -64.4042
19191.476562 82.118 -64.1615
19330.546875 82.027 -63.8886
19470.623047 81.935 -63.5750
19611.714844 81.844 -63.2221
19753.830078 81.753 -62.8241
19896.974609 81.668 -62.3917
