* Measurement data measured by REW V5.20.13
* Source: C:\Users\kurin\Desktop\Targets and Curves\Resolve\Img\Files\dunu talos_BA_SPL.txt
* Format: Comma/Tab/Space delimited data
* Dated: Aug 14, 2023 3:12:57 PM
* REW Settings:
*  C-weighting compensation: Off
*  Target level: 75.0 dB
* Note: ; Measurement imported from C:\Users\kurin\Desktop\Targets and Curves\Resolve\Img\Files\dunu talos_BA_SPL.txt Format: Comma/Tab/Space delimited data 623 values loaded, 5 Hz to 39,792 Hz log spaced 
* Measurement: dunu talos_BA_SPL
* Smoothing: 1/48 octave
* Frequency Step: 1/96 octave
* Start Frequency: 5.000 Hz
*
* Freq(Hz) SPL(dB) Phase(degrees)
5.000000 92.776 -7.4200
5.036232 92.774 -7.4249
5.072727 92.772 -7.4300
5.109486 92.770 -7.4356
5.146511 92.767 -7.4420
5.183805 92.764 -7.4501
5.221369 92.760 -7.4590
5.259205 92.757 -7.4682
5.297316 92.753 -7.4780
5.335702 92.749 -7.4883
5.374367 92.745 -7.4990
5.413311 92.741 -7.5099
5.452538 92.736 -7.5210
5.492050 92.732 -7.5324
5.531847 92.728 -7.5440
5.571934 92.724 -7.5555
5.612310 92.719 -7.5670
5.652979 92.715 -7.5785
5.693943 92.711 -7.5900
5.735204 92.707 -7.6014
5.776763 92.703 -7.6130
5.818624 92.699 -7.6249
5.860788 92.694 -7.6370
5.903258 92.690 -7.6495
5.946035 92.686 -7.6620
5.989123 92.682 -7.6740
6.032523 92.678 -7.6860
6.076237 92.674 -7.6984
6.120268 92.669 -7.7110
6.164618 92.665 -7.7240
6.209289 92.661 -7.7370
6.254284 92.657 -7.7494
6.299605 92.653 -7.7620
6.345255 92.648 -7.7754
6.391235 92.644 -7.7890
6.437549 92.640 -7.8020
6.484198 92.636 -7.8150
6.531185 92.632 -7.8284
6.578513 92.628 -7.8420
6.626183 92.624 -7.8559
6.674199 92.619 -7.8700
6.722563 92.615 -7.8840
6.771278 92.611 -7.8980
6.820345 92.607 -7.9119
6.869768 92.603 -7.9260
6.919549 92.599 -7.9404
6.969691 92.594 -7.9550
7.020196 92.590 -7.9695
7.071068 92.586 -7.9840
7.122308 92.582 -7.9984
7.173919 92.578 -8.0130
7.225904 92.574 -8.0279
7.278266 92.569 -8.0430
7.331007 92.565 -8.0584
7.384131 92.561 -8.0740
7.437639 92.557 -8.0894
7.491535 92.553 -8.1050
7.545822 92.549 -8.1209
7.600502 92.544 -8.1370
7.655579 92.540 -8.1530
7.711054 92.536 -8.1690
7.766932 92.532 -8.1849
7.823214 92.528 -8.2010
7.879904 92.523 -8.2174
7.937005 92.519 -8.2340
7.994520 92.515 -8.2509
8.052452 92.511 -8.2680
8.110803 92.507 -8.2850
8.169578 92.503 -8.3020
8.228777 92.499 -8.3189
8.288406 92.494 -8.3360
8.348468 92.490 -8.3534
8.408964 92.486 -8.3710
8.469899 92.482 -8.3889
8.531276 92.478 -8.4070
8.593097 92.474 -8.4249
8.655366 92.469 -8.4430
8.718086 92.465 -8.4614
8.781260 92.461 -8.4800
8.844893 92.457 -8.4984
8.908987 92.453 -8.5170
8.973545 92.449 -8.5359
9.038571 92.444 -8.5550
9.104069 92.440 -8.5744
9.170040 92.436 -8.5940
9.236490 92.432 -8.6134
9.303422 92.428 -8.6330
9.370838 92.424 -8.6529
9.438744 92.419 -8.6730
9.507140 92.415 -8.6934
9.576033 92.411 -8.7140
9.645425 92.407 -8.7344
9.715320 92.403 -8.7550
9.785721 92.398 -8.7759
9.856632 92.394 -8.7970
9.928058 92.390 -8.8179
10.000000 92.386 -8.8390
10.072464 92.382 -8.8604
10.145453 92.378 -8.8820
10.218971 92.374 -8.9039
10.293022 92.369 -8.9260
10.367610 92.365 -8.9484
10.442738 92.361 -8.9710
10.518411 92.357 -8.9934
10.594631 92.353 -9.0160
10.671404 92.349 -9.0389
10.748734 92.344 -9.0620
10.826623 92.340 -9.0854
10.905077 92.336 -9.1090
10.984100 92.332 -9.1329
11.063695 92.328 -9.1570
11.143867 92.324 -9.1809
11.224621 92.319 -9.2050
11.305959 92.315 -9.2299
11.387886 92.311 -9.2550
11.470407 92.307 -9.2799
11.553527 92.303 -9.3050
11.637249 92.299 -9.3304
11.721577 92.294 -9.3560
11.806517 92.290 -9.3819
11.892071 92.286 -9.4080
11.978246 92.282 -9.4339
12.065045 92.278 -9.4600
12.152473 92.273 -9.4868
12.240536 92.269 -9.5140
12.329235 92.265 -9.5414
12.418578 92.261 -9.5690
12.508568 92.257 -9.5964
12.599211 92.253 -9.6240
12.690510 92.249 -9.6524
12.782471 92.244 -9.6810
12.875097 92.240 -9.7093
12.968395 92.236 -9.7380
13.062370 92.232 -9.7674
13.157025 92.228 -9.7970
13.252366 92.224 -9.8264
13.348398 92.219 -9.8560
13.445127 92.215 -9.8863
13.542556 92.211 -9.9170
13.640691 92.207 -9.9474
13.739536 92.203 -9.9780
13.839099 92.199 -10.0093
13.939383 92.194 -10.0410
14.040393 92.190 -10.0728
14.142136 92.186 -10.1050
14.244616 92.182 -10.1379
14.347837 92.178 -10.1710
14.451808 92.174 -10.2039
14.556532 92.169 -10.2370
14.662014 92.165 -10.2708
14.768262 92.161 -10.3050
14.875278 92.157 -10.3393
14.983070 92.153 -10.3740
15.091644 92.148 -10.4088
15.201005 92.144 -10.4440
15.311157 92.140 -10.4797
15.422109 92.136 -10.5160
15.533863 92.132 -10.5529
15.646428 92.128 -10.5900
15.759809 92.124 -10.6268
15.874010 92.119 -10.6640
15.989040 92.115 -10.7022
16.104904 92.111 -10.7410
16.221605 92.107 -10.7798
16.339155 92.103 -10.8190
16.457554 92.099 -10.8583
16.576813 92.094 -10.8980
16.696936 92.090 -10.9382
16.817928 92.086 -10.9790
16.939798 92.082 -11.0202
17.062551 92.078 -11.0619
17.186193 92.074 -11.1042
17.310732 92.069 -11.1470
17.436172 92.065 -11.1902
17.562521 92.061 -11.2340
17.689787 92.057 -11.2781
17.817974 92.053 -11.3230
17.947090 92.049 -11.3687
18.077143 92.044 -11.4150
18.208138 92.040 -11.4612
18.340080 92.036 -11.5080
18.472980 92.032 -11.5556
18.606844 92.028 -11.6040
18.741676 92.023 -11.6531
18.877487 92.019 -11.7029
19.014280 92.015 -11.7536
19.152065 92.011 -11.8049
19.290850 92.007 -11.8568
19.430639 92.003 -11.9100
19.571442 91.999 -11.9654
19.713264 91.995 -12.0229
19.856115 91.991 -12.0827
20.000000 91.987 -12.1449
20.144928 91.982 -12.2107
20.290907 91.977 -12.2779
20.437943 91.970 -12.3461
20.586044 91.963 -12.4120
20.735220 91.955 -12.4719
20.885475 91.946 -12.5269
21.036821 91.938 -12.5769
21.189262 91.930 -12.6219
21.342808 91.922 -12.6621
21.497467 91.914 -12.6980
21.653246 91.908 -12.7288
21.810154 91.903 -12.7590
21.968201 91.900 -12.7920
22.127390 91.899 -12.8290
22.287735 91.898 -12.8724
22.449242 91.897 -12.9220
22.611917 91.897 -12.9780
22.775772 91.897 -13.0409
22.940815 91.897 -13.1115
23.107054 91.896 -13.1889
23.274498 91.895 -13.2726
23.443153 91.894 -13.3619
23.613033 91.891 -13.4566
23.784142 91.887 -13.5539
23.956491 91.882 -13.6518
24.130091 91.875 -13.7479
24.304947 91.868 -13.8390
24.481071 91.860 -13.9259
24.658470 91.852 -14.0083
24.837156 91.844 -14.0869
25.017136 91.837 -14.1615
25.198421 91.830 -14.2349
25.381020 91.826 -14.3086
25.564941 91.822 -14.3859
25.750195 91.819 -14.4705
25.936790 91.816 -14.5629
26.124741 91.813 -14.6653
26.314051 91.810 -14.7758
26.504732 91.805 -14.8946
26.696796 91.799 -15.0178
26.890253 91.791 -15.1420
27.085112 91.782 -15.2669
27.281382 91.773 -15.3912
27.479073 91.762 -15.5138
27.678198 91.750 -15.6337
27.878765 91.736 -15.7488
28.080786 91.722 -15.8554
28.284271 91.708 -15.9579
28.489231 91.696 -16.0596
28.695675 91.684 -16.1609
28.903616 91.671 -16.2637
29.113064 91.658 -16.3659
29.324028 91.644 -16.4651
29.536524 91.631 -16.5639
29.750557 91.619 -16.6644
29.966141 91.606 -16.7659
30.183289 91.592 -16.8693
30.402010 91.578 -16.9719
30.622314 91.563 -17.0700
30.844217 91.549 -17.1679
31.067726 91.536 -17.2688
31.292856 91.523 -17.3718
31.519617 91.508 -17.4776
31.748020 91.493 -17.5849
31.978081 91.478 -17.6921
32.209808 91.462 -17.8009
32.443211 91.446 -17.9134
32.678310 91.430 -18.0269
32.915108 91.412 -18.1400
33.153625 91.392 -18.2509
33.393871 91.372 -18.3576
33.635857 91.350 -18.4589
33.879597 91.327 -18.5526
34.125103 91.304 -18.6389
34.372387 91.282 -18.7155
34.621464 91.260 -18.7869
34.872345 91.240 -18.8565
35.125042 91.221 -18.9259
35.379574 91.202 -18.9982
35.635948 91.183 -19.0719
35.894180 91.164 -19.1469
36.154285 91.144 -19.2229
36.416275 91.124 -19.2999
36.680161 91.103 -19.3769
36.945961 91.082 -19.4538
37.213688 91.060 -19.5279
37.483353 91.036 -19.5969
37.754974 91.011 -19.6589
38.028561 90.987 -19.7101
38.304131 90.963 -19.7539
38.581699 90.941 -19.7924
38.861279 90.919 -19.8270
39.142883 90.898 -19.8603
39.426529 90.877 -19.8910
39.712231 90.857 -19.9175
40.000000 90.838 -19.9430
40.289856 90.821 -19.9699
40.581814 90.805 -19.9990
40.875885 90.789 -20.0319
41.172089 90.774 -20.0679
41.470440 90.759 -20.1057
41.770950 90.745 -20.1489
42.073643 90.733 -20.2011
42.378525 90.721 -20.2619
42.685616 90.708 -20.3336
42.994934 90.693 -20.4119
43.306492 90.677 -20.4933
43.620308 90.661 -20.5779
43.936401 90.644 -20.6649
44.254780 90.626 -20.7539
44.575470 90.607 -20.8447
44.898483 90.587 -20.9359
45.223835 90.566 -21.0268
45.551544 90.543 -21.1149
45.881630 90.519 -21.1964
46.214108 90.495 -21.2739
46.548996 90.472 -21.3479
46.886307 90.449 -21.4209
47.226067 90.426 -21.4966
47.568283 90.402 -21.5719
47.912983 90.376 -21.6448
48.260181 90.349 -21.7149
48.609894 90.323 -21.7805
48.962143 90.297 -21.8439
49.316940 90.270 -21.9083
49.674313 90.242 -21.9689
50.034271 90.212 -22.0227
50.396843 90.181 -22.0679
50.762039 90.150 -22.1013
51.129883 90.119 -22.1250
51.500389 90.089 -22.1396
51.873581 90.060 -22.1470
52.249481 90.032 -22.1488
52.628101 90.005 -22.1460
53.009464 89.980 -22.1385
53.393593 89.957 -22.1320
53.780506 89.936 -22.1325
54.170223 89.916 -22.1390
54.562763 89.895 -22.1540
54.958145 89.873 -22.1730
55.356396 89.850 -22.1910
55.757530 89.827 -22.2120
56.161572 89.807 -22.2383
56.568542 89.786 -22.2689
56.978462 89.762 -22.3055
57.391350 89.736 -22.3419
57.807232 89.709 -22.3719
58.226128 89.682 -22.3980
58.648056 89.655 -22.4217
59.073048 89.627 -22.4400
59.501114 89.596 -22.4512
59.932281 89.565 -22.4520
60.366577 89.534 -22.4369
60.804020 89.504 -22.4101
61.244629 89.476 -22.3732
61.688435 89.449 -22.3281
62.135452 89.424 -22.2749
62.585712 89.401 -22.2201
63.039234 89.382 -22.1689
63.496040 89.366 -22.1251
63.956161 89.351 -22.0949
64.419617 89.336 -22.0760
64.886421 89.321 -22.0688
65.356621 89.305 -22.0710
65.830215 89.289 -22.0810
66.307251 89.272 -22.0970
66.787743 89.254 -22.1172
67.271713 89.234 -22.1400
67.759193 89.214 -22.1635
68.250206 89.192 -22.1860
68.744774 89.169 -22.2042
69.242928 89.146 -22.2200
69.744690 89.124 -22.2342
70.250084 89.101 -22.2470
70.759148 89.077 -22.2589
71.271896 89.053 -22.2690
71.788361 89.029 -22.2749
72.308571 89.006 -22.2810
72.832550 88.984 -22.2917
73.360321 88.962 -22.3040
73.891922 88.937 -22.3174
74.427376 88.911 -22.3290
74.966705 88.885 -22.3346
75.509949 88.859 -22.3380
76.057121 88.834 -22.3430
76.608261 88.808 -22.3460
77.163399 88.779 -22.3454
77.722557 88.750 -22.3390
78.285767 88.721 -22.3230
78.853058 88.693 -22.3011
79.424461 88.666 -22.2765
80.000000 88.639 -22.2471
80.579712 88.610 -22.2113
81.163628 88.582 -22.1701
81.751770 88.556 -22.1230
82.344177 88.531 -22.0731
82.940880 88.506 -22.0237
83.541901 88.482 -21.9731
84.147285 88.458 -21.9198
84.757050 88.435 -21.8661
85.371231 88.414 -21.8135
85.989868 88.393 -21.7631
86.612984 88.373 -21.7158
87.240616 88.353 -21.6731
87.872803 88.335 -21.6371
88.509560 88.316 -21.6061
89.150940 88.296 -21.5799
89.796967 88.275 -21.5560
90.447670 88.253 -21.5316
91.103088 88.231 -21.5080
91.763260 88.210 -21.4862
92.428215 88.189 -21.4650
93.097992 88.166 -21.4456
93.772614 88.141 -21.4231
94.452133 88.115 -21.3918
95.136566 88.090 -21.3551
95.825966 88.066 -21.3129
96.520363 88.043 -21.2691
97.219788 88.021 -21.2280
97.924286 87.999 -21.1881
98.633881 87.976 -21.1496
99.348625 87.953 -21.1111
100.068542 87.930 -21.0698
100.793686 87.907 -21.0291
101.524078 87.886 -20.9915
102.259766 87.864 -20.9561
103.000778 87.841 -20.9243
103.747162 87.816 -20.8911
104.498962 87.790 -20.8507
105.256203 87.764 -20.8061
106.018929 87.739 -20.7578
106.787186 87.715 -20.7071
107.561012 87.690 -20.6565
108.340446 87.664 -20.6021
109.125526 87.637 -20.5399
109.916290 87.611 -20.4721
110.712791 87.586 -20.3982
111.515060 87.562 -20.3222
112.323143 87.540 -20.2485
113.137085 87.518 -20.1762
113.956924 87.496 -20.1063
114.782700 87.474 -20.0372
115.614464 87.451 -19.9668
116.452255 87.429 -19.8971
117.296112 87.408 -19.8303
118.146095 87.386 -19.7641
119.002228 87.363 -19.6987
119.864563 87.338 -19.6292
120.733154 87.312 -19.5499
121.608040 87.287 -19.4632
122.489258 87.263 -19.3680
123.376869 87.241 -19.2692
124.270905 87.221 -19.1714
125.171425 87.201 -19.0742
126.078468 87.181 -18.9789
126.992081 87.162 -18.8852
127.912323 87.143 -18.7928
128.839233 87.125 -18.7022
129.772842 87.107 -18.6135
130.713242 87.090 -18.5272
131.660431 87.073 -18.4440
132.614502 87.055 -18.3632
133.575485 87.038 -18.2843
134.543427 87.020 -18.2071
135.518387 87.003 -18.1321
136.500412 86.985 -18.0581
137.489548 86.967 -17.9843
138.485855 86.949 -17.9112
139.489380 86.931 -17.8390
140.500168 86.912 -17.7682
141.518295 86.894 -17.6998
142.543793 86.875 -17.6312
143.576721 86.854 -17.5602
144.617142 86.833 -17.4862
145.665100 86.812 -17.4070
146.720642 86.792 -17.3252
147.783844 86.772 -17.2422
148.854752 86.753 -17.1592
149.933411 86.734 -17.0784
151.019897 86.714 -16.9982
152.114243 86.693 -16.9186
153.216522 86.672 -16.8372
154.326797 86.650 -16.7511
155.445114 86.629 -16.6622
156.571533 86.609 -16.5718
157.706116 86.588 -16.4792
158.848923 86.565 -16.3853
160.000000 86.542 -16.2862
161.159424 86.519 -16.1776
162.327255 86.496 -16.0623
163.503540 86.475 -15.9411
164.688354 86.455 -15.8153
165.881760 86.435 -15.6855
167.083801 86.416 -15.5543
168.294571 86.399 -15.4245
169.514099 86.383 -15.2963
170.742462 86.367 -15.1718
171.979736 86.352 -15.0493
173.225967 86.336 -14.9272
174.481232 86.321 -14.8073
175.745605 86.307 -14.6915
177.019119 86.293 -14.5783
178.301880 86.277 -14.4676
179.593933 86.261 -14.3573
180.895340 86.246 -14.2446
182.206177 86.231 -14.1313
183.526520 86.216 -14.0189
184.856430 86.200 -13.9053
186.195984 86.183 -13.7884
187.545227 86.167 -13.6693
188.904266 86.152 -13.5482
190.273132 86.137 -13.4253
191.651932 86.121 -13.3010
193.040726 86.106 -13.1744
194.439575 86.091 -13.0432
195.848572 86.078 -12.9124
197.267761 86.067 -12.7860
198.697250 86.057 -12.6643
200.137085 86.046 -12.5496
201.587372 86.034 -12.4403
203.048157 86.022 -12.3366
204.519531 86.010 -12.2353
206.001556 85.996 -12.1339
207.494324 85.981 -12.0303
208.997925 85.965 -11.9213
210.512405 85.949 -11.8073
212.037857 85.932 -11.6870
213.574371 85.916 -11.5613
215.122025 85.901 -11.4297
216.680893 85.886 -11.2944
218.251053 85.872 -11.1565
219.832581 85.859 -11.0184
221.425583 85.847 -10.8825
223.030121 85.836 -10.7493
224.646286 85.825 -10.6213
226.274170 85.814 -10.4953
227.913849 85.801 -10.3699
229.565399 85.788 -10.2423
231.228928 85.775 -10.1083
232.904510 85.762 -9.9714
234.592224 85.751 -9.8338
236.292191 85.740 -9.6964
238.004456 85.729 -9.5612
239.729126 85.718 -9.4264
241.466309 85.707 -9.2906
243.216080 85.697 -9.1544
244.978516 85.687 -9.0176
246.753738 85.677 -8.8814
248.541809 85.668 -8.7473
250.342850 85.658 -8.6144
252.156937 85.648 -8.4827
253.984161 85.638 -8.3504
255.824646 85.627 -8.2156
257.678467 85.616 -8.0783
259.545685 85.606 -7.9373
261.426483 85.597 -7.7944
263.320862 85.588 -7.6509
265.229004 85.579 -7.5074
267.150970 85.571 -7.3643
269.086853 85.564 -7.2224
271.036774 85.557 -7.0812
273.000824 85.551 -6.9444
274.979095 85.547 -6.8159
276.971710 85.542 -6.6944
278.978760 85.536 -6.5814
281.000336 85.528 -6.4723
283.036591 85.519 -6.3638
285.087585 85.508 -6.2533
287.153442 85.496 -6.1388
289.234283 85.482 -6.0163
291.330200 85.467 -5.8810
293.441284 85.451 -5.7344
295.567688 85.437 -5.5750
297.709503 85.425 -5.4075
299.866821 85.414 -5.2354
302.039795 85.405 -5.0605
304.228485 85.397 -4.8849
306.433044 85.390 -4.7115
308.653595 85.386 -4.5446
310.890228 85.382 -4.3824
313.143066 85.376 -4.2260
315.412231 85.369 -4.0704
317.697845 85.361 -3.9116
320.000000 85.353 -3.7485
322.318848 85.345 -3.5788
324.654510 85.338 -3.4026
327.007080 85.331 -3.2186
329.376709 85.325 -3.0276
331.763519 85.320 -2.8276
334.167603 85.318 -2.6256
336.589142 85.320 -2.4264
339.028198 85.325 -2.2345
341.484924 85.331 -2.0564
343.959473 85.338 -1.8914
346.451935 85.345 -1.7413
348.962463 85.353 -1.6054
351.491211 85.361 -1.4844
354.038239 85.367 -1.3763
356.603760 85.371 -1.2815
359.187866 85.373 -1.1933
361.790680 85.371 -1.1063
364.412354 85.367 -1.0163
367.053040 85.361 -0.9166
369.712860 85.353 -0.8084
372.391968 85.346 -0.6901
375.090454 85.338 -0.5624
377.808533 85.330 -0.4245
380.546265 85.323 -0.2784
383.303864 85.317 -0.1244
386.081451 85.312 0.0335
388.879150 85.309 0.1917
391.697144 85.307 0.3485
394.535522 85.306 0.5015
397.394501 85.305 0.6506
400.274170 85.305 0.7949
403.174744 85.305 0.9346
406.096313 85.305 1.0691
409.039062 85.304 1.1996
412.003113 85.303 1.3264
414.988647 85.300 1.4516
417.995850 85.296 1.5760
421.024811 85.290 1.7036
424.075714 85.283 1.8390
427.148743 85.275 1.9815
430.244049 85.267 2.1319
433.361786 85.259 2.2905
436.502106 85.251 2.4585
439.665161 85.244 2.6344
442.851166 85.238 2.8184
446.060242 85.233 3.0074
449.292572 85.230 3.1994
452.548340 85.228 3.3924
455.827698 85.226 3.5835
459.130798 85.225 3.7734
462.457855 85.225 3.9618
465.809021 85.225 4.1494
469.184448 85.225 4.3365
472.584381 85.225 4.5244
476.008911 85.225 4.7142
479.458252 85.225 4.9064
482.932617 85.226 5.1019
486.432159 85.227 5.3004
489.957031 85.228 5.5022
493.507477 85.231 5.7054
497.083618 85.236 5.9093
500.685699 85.242 6.1103
504.313873 85.250 6.3040
507.968323 85.258 6.4914
511.649292 85.266 6.6720
515.356934 85.273 6.8464
519.091370 85.281 7.0147
522.852966 85.288 7.1775
526.641724 85.294 7.3339
530.458008 85.299 7.4885
534.301941 85.302 7.6452
538.173706 85.304 7.8055
542.073547 85.305 7.9722
546.001648 85.305 8.1454
549.958191 85.305 8.3261
553.943420 85.305 8.5144
557.957520 85.306 8.7112
562.000671 85.307 8.9153
566.073181 85.309 9.1267
570.175171 85.312 9.3433
574.306885 85.317 9.5636
578.468567 85.323 9.7852
582.660400 85.330 10.0049
586.882568 85.338 10.2232
591.135376 85.346 10.4394
595.419006 85.355 10.6543
599.733643 85.365 10.8689
604.079590 85.375 11.0813
608.456970 85.386 11.2890
612.866089 85.397 11.4943
617.307190 85.407 11.6978
621.780457 85.417 11.9013
626.286133 85.427 12.1073
630.824463 85.436 12.3153
635.395691 85.445 12.5263
640.000000 85.455 12.7393
644.637695 85.466 12.9531
649.309021 85.477 13.1683
654.014160 85.488 13.3839
658.753418 85.499 13.6023
663.527039 85.510 13.8256
668.335205 85.521 14.0522
673.178284 85.534 14.2819
678.056396 85.547 14.5122
682.969849 85.561 14.7395
687.918945 85.575 14.9682
692.903870 85.587 15.2014
697.924927 85.600 15.4392
702.982422 85.614 15.6836
708.076477 85.630 15.9311
713.207520 85.647 16.1777
718.375732 85.664 16.4261
723.581360 85.681 16.6788
728.824707 85.700 16.9331
734.106079 85.721 17.1873
739.425720 85.743 17.4401
744.783936 85.765 17.6886
750.180908 85.788 17.9351
755.617065 85.811 18.1814
761.092529 85.834 18.4271
766.607727 85.858 18.6719
772.162903 85.882 18.9181
777.758301 85.905 19.1684
783.394287 85.930 19.4211
789.071045 85.957 19.6760
794.789001 85.985 19.9311
800.548340 86.013 20.1838
806.349487 86.042 20.4351
812.192627 86.072 20.6859
818.078125 86.104 20.9341
824.006226 86.136 21.1773
829.977295 86.169 21.4181
835.991699 86.200 21.6583
842.049622 86.232 21.8991
848.151428 86.265 22.1428
854.297485 86.299 22.3891
860.488098 86.332 22.6381
866.723572 86.367 22.8911
873.004211 86.402 23.1501
879.330322 86.440 23.4121
885.702332 86.480 23.6753
892.120483 86.522 23.9371
898.585144 86.566 24.1949
905.096680 86.613 24.4461
911.655396 86.662 24.6864
918.261597 86.712 24.9172
924.915710 86.762 25.1375
931.618042 86.812 25.3492
938.368896 86.863 25.5545
945.168762 86.915 25.7513
952.017822 86.967 25.9372
958.916504 87.020 26.1163
965.865234 87.071 26.2923
972.864319 87.122 26.4644
979.914062 87.175 26.6341
987.014954 87.229 26.7984
994.167236 87.282 26.9538
1001.371399 87.336 27.1035
1008.627747 87.388 27.2490
1015.936646 87.441 27.3924
1023.298584 87.493 27.5358
1030.713867 87.545 27.6805
1038.182739 87.597 27.8279
1045.705933 87.649 27.9793
1053.283447 87.702 28.1370
1060.916016 87.756 28.2993
1068.603882 87.812 28.4677
1076.347412 87.872 28.6353
1084.147095 87.936 28.7976
1092.003296 88.003 28.9495
1099.916382 88.071 29.0843
1107.886841 88.142 29.2025
1115.915039 88.213 29.3024
1124.001343 88.285 29.3847
1132.146362 88.357 29.4487
1140.350342 88.428 29.4968
1148.613770 88.497 29.5301
1156.937134 88.566 29.5519
1165.320801 88.632 29.5653
1173.765137 88.698 29.5730
1182.270752 88.762 29.5794
1190.838013 88.827 29.5830
1199.467285 88.891 29.5839
1208.159180 88.955 29.5820
1216.913940 89.018 29.5768
1225.732178 89.082 29.5690
1234.614380 89.146 29.5595
1243.560913 89.210 29.5471
1252.572266 89.274 29.5301
1261.648926 89.338 29.5101
1270.791382 89.401 29.4878
1280.000000 89.464 29.4631
1289.275391 89.528 29.4363
1298.618042 89.593 29.4071
1308.028320 89.657 29.3751
1317.506836 89.721 29.3411
1327.054077 89.786 29.3068
1336.670410 89.852 29.2692
1346.356567 89.919 29.2260
1356.112793 89.987 29.1772
1365.939697 90.054 29.1210
1375.837891 90.122 29.0593
1385.807739 90.190 28.9933
1395.849854 90.259 28.9223
1405.964844 90.327 28.8452
1416.152954 90.396 28.7633
1426.415039 90.464 28.6772
1436.751465 90.533 28.5874
1447.162720 90.602 28.4942
1457.649414 90.671 28.3984
1468.212158 90.740 28.3010
1478.851440 90.811 28.2004
1489.567871 90.882 28.0950
1500.361816 90.954 27.9854
1511.234131 91.025 27.8715
1522.185059 91.098 27.7545
1533.215454 91.171 27.6363
1544.325806 91.245 27.5145
1555.516602 91.321 27.3881
1566.788574 91.399 27.2556
1578.142090 91.477 27.1158
1589.578003 91.557 26.9676
1601.096680 91.638 26.8104
1612.698975 91.722 26.6417
1624.385254 91.806 26.4594
1636.156250 91.892 26.2629
1648.012451 91.978 26.0499
1659.954590 92.064 25.8229
1671.983398 92.149 25.5834
1684.099243 92.235 25.3321
1696.302856 92.321 25.0702
1708.594971 92.408 24.7973
1720.976196 92.495 24.5129
1733.447144 92.583 24.2173
1746.008423 92.671 23.9104
1758.660645 92.760 23.5923
1771.404663 92.849 23.2646
1784.240967 92.940 22.9234
1797.170288 93.032 22.5660
1810.193359 93.126 22.1905
1823.310791 93.220 21.7942
1836.523193 93.316 21.3767
1849.831421 93.411 20.9373
1863.236084 93.507 20.4751
1876.737793 93.602 19.9889
1890.337524 93.697 19.4793
1904.035645 93.791 18.9457
1917.833008 93.884 18.3902
1931.730469 93.975 17.8142
1945.728638 94.065 17.2186
1959.828125 94.154 16.6054
1974.029907 94.243 15.9737
1988.334473 94.330 15.3237
2002.742798 94.418 14.6537
2017.255493 94.505 13.9635
2031.873291 94.593 13.2499
2046.597168 94.679 12.5102
2061.427734 94.766 11.7425
2076.365479 94.852 10.9442
2091.411865 94.937 10.1135
2106.566895 95.021 9.2483
2121.832031 95.103 8.3468
2137.207764 95.182 7.4072
2152.694824 95.259 6.4290
2168.294189 95.332 5.4120
2184.006592 95.403 4.3539
2199.832764 95.470 3.2525
2215.773682 95.532 2.1068
2231.830078 95.588 0.9163
2248.002686 95.639 -0.3227
2264.292725 95.684 -1.6150
2280.700684 95.720 -2.9591
2297.227539 95.745 -4.3589
2313.874268 95.756 -5.8040
2330.641602 95.752 -7.2904
2347.530273 95.731 -8.8025
2364.541504 95.691 -10.3335
2381.676025 95.629 -11.8521
2398.934570 95.541 -13.3373
2416.318359 95.430 -14.7509
2433.827881 95.294 -16.0553
2451.464355 95.140 -17.2284
2469.228760 94.971 -18.2351
2487.121826 94.794 -19.0777
2505.144531 94.615 -19.7384
2523.297852 94.443 -20.2440
2541.582764 94.284 -20.6035
2560.000000 94.142 -20.8541
2578.550781 94.021 -21.0235
2597.236084 93.922 -21.1495
2616.056641 93.849 -21.2711
2635.013672 93.794 -21.4113
2654.108154 93.756 -21.6047
2673.340820 93.729 -21.8548
2692.713135 93.709 -22.1794
2712.225586 93.692 -22.5700
2731.879395 93.674 -23.0277
2751.675781 93.654 -23.5405
2771.615479 93.629 -24.0994
2791.699707 93.600 -24.6973
2811.929688 93.567 -25.3261
2832.305908 93.528 -25.9799
2852.830078 93.483 -26.6529
2873.502930 93.431 -27.3360
2894.325439 93.372 -28.0197
2915.298828 93.307 -28.6999
2936.424316 93.237 -29.3693
2957.702881 93.163 -30.0282
2979.135742 93.086 -30.6743
3000.723633 93.006 -31.3083
3022.468262 92.923 -31.9288
3044.370117 92.836 -32.5382
3066.430908 92.749 -33.1383
3088.651611 92.660 -33.7304
3111.033203 92.569 -34.3161
3133.577148 92.474 -34.8963
3156.284180 92.378 -35.4716
3179.156006 92.278 -36.0433
3202.193359 92.176 -36.6134
3225.397949 92.071 -37.1793
3248.770508 91.960 -37.7404
3272.312500 91.844 -38.2925
3296.024902 91.723 -38.8334
3319.909180 91.596 -39.3566
3343.966797 91.462 -39.8585
3368.198486 91.321 -40.3289
3392.605713 91.172 -40.7611
3417.189941 91.017 -41.1414
3441.952393 90.854 -41.4573
3466.894287 90.687 -41.6981
3492.016846 90.516 -41.8465
3517.321289 90.348 -41.9099
3542.809326 90.186 -41.8822
3568.481934 90.036 -41.7876
3594.340576 89.899 -41.6331
3620.386719 89.782 -41.4648
3646.621582 89.690 -41.3110
3673.046387 89.620 -41.2321
3699.662842 89.575 -41.2863
3726.472168 89.541 -41.5095
3753.475586 89.512 -41.9622
3780.675049 89.472 -42.6295
3808.071289 89.411 -43.5480
3835.666016 89.311 -44.6226
3863.460938 89.151 -45.8247
3891.457275 88.928 -46.9907
3919.656250 88.626 -47.9955
3948.059814 88.256 -48.6937
3976.668945 87.815 -48.9160
4005.485596 87.327 -48.6089
4034.510986 86.801 -47.6364
4063.746582 86.276 -46.0768
4093.194336 85.785 -43.9036
4122.855469 85.361 -41.2986
4152.730957 85.048 -38.3766
4182.823730 84.841 -35.3146
4213.133789 84.758 -32.2913
4243.664062 84.772 -29.4161
4274.415527 84.873 -26.8534
4305.389648 85.028 -24.6170
4336.588379 85.207 -22.8014
4368.013184 85.393 -21.3282
4399.665527 85.561 -20.1773
4431.547363 85.712 -19.2660
4463.660156 85.841 -18.5173
4496.005371 85.951 -17.8929
4528.585449 86.047 -17.3311
4561.401367 86.132 -16.8253
4594.455078 86.209 -16.3467
4627.748535 86.281 -15.9011
4661.283203 86.349 -15.4829
4695.060547 86.413 -15.0978
4729.083008 86.474 -14.7503
4763.352051 86.530 -14.4384
4797.869141 86.579 -14.1649
4832.636719 86.620 -13.9192
4867.655762 86.651 -13.6965
4902.928711 86.673 -13.4820
4938.457520 86.683 -13.2660
4974.243652 86.681 -13.0282
5010.289062 86.666 -12.7523
5046.595703 86.641 -12.4179
5083.165527 86.606 -12.0028
5120.000000 86.564 -11.4957
5157.101562 86.520 -10.8775
5194.472168 86.477 -10.1498
5232.113281 86.440 -9.3011
5270.027344 86.414 -8.3520
5308.216309 86.407 -7.3090
5346.681641 86.418 -6.2035
5385.426270 86.451 -5.0624
5424.451172 86.504 -3.9066
5463.758789 86.576 -2.7625
5503.351562 86.664 -1.6414
5543.230957 86.765 -0.5669
5583.399414 86.874 0.4710
5623.859375 86.988 1.4653
5664.611816 87.104 2.4432
5705.660156 87.220 3.4267
5747.005859 87.341 4.4258
5788.650879 87.473 5.4602
5830.597656 87.618 6.5225
5872.848633 87.779 7.6162
5915.405762 87.958 8.7272
5958.271484 88.161 9.8522
6001.447266 88.389 10.9624
6044.936523 88.646 12.0367
6088.740234 88.930 13.0481
6132.861816 89.239 13.9693
6177.303223 89.572 14.7793
6222.066406 89.931 15.4552
6267.154297 90.310 15.9758
6312.568359 90.709 16.3162
6358.312012 91.122 16.4638
6404.386719 91.544 16.4013
6450.795898 91.972 16.1181
6497.541016 92.403 15.5974
6544.625000 92.830 14.8404
6592.049805 93.245 13.8353
6639.818359 93.645 12.6049
6687.933594 94.025 11.1594
6736.396973 94.382 9.5249
6785.211426 94.715 7.7211
6834.379883 95.022 5.7773
6883.904785 95.302 3.7222
6933.788574 95.558 1.5782
6984.033691 95.790 -0.6234
7034.642578 96.002 -2.8805
7085.618652 96.197 -5.1790
7136.963867 96.374 -7.5241
7188.681152 96.536 -9.9154
7240.773438 96.679 -12.3566
7293.243164 96.805 -14.8547
7346.092773 96.909 -17.3991
7399.325684 96.987 -19.9929
7452.944336 97.038 -22.6029
7506.951172 97.056 -25.2127
7561.350098 97.042 -27.7750
7616.142578 96.994 -30.2475
7671.332031 96.919 -32.5983
7726.921875 96.822 -34.7793
7782.914551 96.711 -36.7970
7839.312500 96.596 -38.6310
7896.119629 96.484 -40.3165
7953.337891 96.382 -41.8654
8010.971191 96.294 -43.3274
8069.021973 96.229 -44.7413
8127.493164 96.181 -46.1515
8186.388672 96.151 -47.6126
8245.710938 96.129 -49.1328
8305.461914 96.107 -50.7452
8365.647461 96.081 -52.4279
8426.267578 96.045 -54.1780
8487.328125 95.997 -55.9705
8548.831055 95.935 -57.7850
8610.779297 95.859 -59.6044
8673.176758 95.771 -61.4036
8736.026367 95.676 -63.1854
8799.331055 95.576 -64.9377
8863.094727 95.474 -66.6808
8927.320312 95.371 -68.4255
8992.010742 95.268 -70.1886
9057.170898 95.164 -71.9901
9122.802734 95.055 -73.8312
9188.910156 94.937 -75.7246
9255.497070 94.808 -77.6545
9322.566406 94.662 -79.6162
9390.121094 94.501 -81.5876
9458.166016 94.321 -83.5498
9526.704102 94.124 -85.4879
9595.738281 93.910 -87.3805
9665.273438 93.682 -89.2284
9735.311523 93.443 -91.0188
9805.857422 93.196 -92.7706
9876.915039 92.947 -94.4920
9948.487305 92.692 -96.2017
10020.578125 92.433 -97.9210
10093.191406 92.165 -99.6506
10166.331055 91.886 -101.4029
10240.000000 91.591 -103.1637
10314.203125 91.277 -104.9314
10388.944336 90.941 -106.6798
10464.226562 90.577 -108.3931
10540.054688 90.185 -110.0375
10616.432617 89.762 -111.5826
10693.363281 89.310 -113.0020
10770.852539 88.831 -114.2687
10848.902344 88.325 -115.3557
10927.517578 87.791 -116.2357
11006.703125 87.234 -116.8832
11086.461914 86.656 -117.2713
11166.798828 86.060 -117.3763
11247.718750 85.447 -117.1693
11329.223633 84.825 -116.6386
11411.320312 84.199 -115.7570
11494.011719 83.577 -114.5435
11577.301758 82.970 -112.9972
11661.195312 82.384 -111.1510
11745.697266 81.826 -109.0182
11830.811523 81.308 -106.6563
11916.542969 80.842 -104.1063
12002.894531 80.426 -101.4321
12089.873047 80.065 -98.7038
12177.480469 79.750 -95.9447
12265.723633 79.473 -93.2025
12354.606445 79.229 -90.4737
12444.132812 79.013 -87.7844
12534.308594 78.815 -85.0926
12625.136719 78.620 -82.3823
12716.624023 78.435 -79.6010
12808.773438 78.256 -76.6970
12901.591797 78.094 -73.6508
12995.082031 77.954 -70.4173
13089.250000 77.851 -67.0204
13184.099609 77.798 -63.4438
13279.636719 77.810 -59.7641
13375.867188 77.905 -56.0208
13472.793945 78.081 -52.3118
13570.422852 78.345 -48.7193
13668.759766 78.686 -45.3314
13767.809570 79.102 -42.2443
13867.577148 79.571 -39.5157
13968.067383 80.079 -37.2378
14069.285156 80.605 -35.4021
14171.237305 81.127 -34.0464
14273.927734 81.639 -33.1218
14377.362305 82.130 -32.6151
14481.546875 82.595 -32.4550
14586.486328 83.021 -32.5869
14692.185547 83.420 -32.9464
14798.651367 83.796 -33.4555
14905.888672 84.156 -34.0999
15013.902344 84.508 -34.8347
15122.700195 84.856 -35.6739
15232.285156 85.206 -36.6015
15342.664062 85.561 -37.6641
15453.843750 85.928 -38.8838
15565.829102 86.301 -40.3205
15678.625000 86.677 -42.0310
15792.239258 87.046 -44.0462
15906.675781 87.399 -46.4174
16021.942383 87.723 -49.1393
16138.043945 88.009 -52.2395
16254.986328 88.245 -55.6691
16372.777344 88.416 -59.4153
16491.421875 88.520 -63.3974
16610.923828 88.549 -67.5672
16731.294922 88.498 -71.8133
16852.535156 88.354 -76.0470
16974.656250 88.124 -80.1497
17097.662109 87.806 -83.9974
17221.558594 87.411 -87.5158
17346.353516 86.943 -90.6019
17472.052734 86.414 -93.2196
17598.662109 85.831 -95.2955
17726.189453 85.213 -96.8396
17854.640625 84.575 -97.8187
17984.021484 83.937 -98.2907
18114.341797 83.317 -98.2754
18245.605469 82.728 -97.8564
18377.820312 82.185 -97.0982
18510.994141 81.691 -96.0795
18645.132812 81.256 -94.8845
18780.242188 80.875 -93.5624
18916.332031 80.545 -92.1814
19053.408203 80.260 -90.7681
19191.476562 80.019 -89.3680
19330.546875 79.812 -87.9914
19470.623047 79.633 -86.6642
19611.714844 79.478 -85.3831
19753.830078 79.340 -84.1553
19896.974609 79.219 -82.9750
