* Measurement data measured by REW V5.20.13
* Source: C:\Users\kurin\Desktop\Targets and Curves\Resolve\Img\Files\64 Nio_MX_SPL.txt
* Format: Comma/Tab/Space delimited data
* Dated: Aug 14, 2023 2:18:35 PM
* REW Settings:
*  C-weighting compensation: Off
*  Target level: 75.0 dB
* Note: ; Measurement imported from C:\Users\kurin\Desktop\Targets and Curves\Resolve\Img\Files\64 Nio_MX_SPL.txt Format: Comma/Tab/Space delimited data 623 values loaded, 5 Hz to 39,792 Hz log spaced 
* Measurement: 64 Nio_MX_SPL
* Smoothing: 1/48 octave
* Frequency Step: 1/96 octave
* Start Frequency: 5.000 Hz
*
* Freq(Hz) SPL(dB) Phase(degrees)
5.000000 79.713 46.6940
5.036232 79.728 46.6796
5.072727 79.745 46.6640
5.109486 79.765 46.6458
5.146511 79.788 46.6250
5.183805 79.816 46.6009
5.221369 79.846 46.5750
5.259205 79.877 46.5490
5.297316 79.909 46.5220
5.335702 79.944 46.4933
5.374367 79.979 46.4640
5.413311 80.014 46.4350
5.452538 80.049 46.4060
5.492050 80.084 46.3770
5.531847 80.119 46.3480
5.571934 80.154 46.3191
5.612310 80.189 46.2900
5.652979 80.224 46.2601
5.693943 80.259 46.2300
5.735204 80.294 46.2001
5.776763 80.329 46.1700
5.818624 80.364 46.1396
5.860788 80.399 46.1090
5.903258 80.434 46.0781
5.946035 80.469 46.0470
5.989123 80.504 46.0156
6.032523 80.540 45.9840
6.076237 80.575 45.9526
6.120268 80.610 45.9210
6.164618 80.645 45.8886
6.209289 80.680 45.8560
6.254284 80.715 45.8236
6.299605 80.750 45.7910
6.345255 80.785 45.7582
6.391235 80.820 45.7250
6.437549 80.855 45.6911
6.484198 80.890 45.6570
6.531185 80.925 45.6231
6.578513 80.960 45.5890
6.626183 80.995 45.5546
6.674199 81.030 45.5200
6.722563 81.065 45.4851
6.771278 81.100 45.4500
6.820345 81.135 45.4146
6.869768 81.170 45.3790
6.919549 81.205 45.3432
6.969691 81.240 45.3070
7.020196 81.275 45.2701
7.071068 81.310 45.2330
7.122308 81.345 45.1961
7.173919 81.380 45.1590
7.225904 81.415 45.1217
7.278266 81.450 45.0840
7.331007 81.485 45.0456
7.384131 81.521 45.0070
7.437639 81.556 44.9686
7.491535 81.591 44.9300
7.545822 81.626 44.8907
7.600502 81.661 44.8510
7.655579 81.696 44.8111
7.711054 81.731 44.7710
7.766932 81.766 44.7306
7.823214 81.801 44.6900
7.879904 81.836 44.6492
7.937005 81.871 44.6080
7.994520 81.906 44.5662
8.052452 81.941 44.5240
8.110803 81.976 44.4816
8.169578 82.011 44.4390
8.228777 82.046 44.3961
8.288406 82.081 44.3530
8.348468 82.116 44.3096
8.408964 82.151 44.2660
8.469899 82.186 44.2222
8.531276 82.221 44.1780
8.593097 82.256 44.1333
8.655366 82.291 44.0880
8.718086 82.326 44.0421
8.781260 82.361 43.9960
8.844893 82.396 43.9501
8.908987 82.431 43.9040
8.973545 82.466 43.8573
9.038571 82.502 43.8100
9.104069 82.537 43.7622
9.170040 82.572 43.7140
9.236490 82.607 43.6656
9.303422 82.642 43.6170
9.370838 82.677 43.5682
9.438744 82.712 43.5190
9.507140 82.747 43.4692
9.576033 82.782 43.4190
9.645425 82.817 43.3687
9.715320 82.852 43.3180
9.785721 82.887 43.2668
9.856632 82.922 43.2150
9.928058 82.957 43.1627
10.000000 82.992 43.1100
10.072464 83.027 43.0572
10.145453 83.062 43.0041
10.218971 83.097 42.9502
10.293022 83.132 42.8960
10.367610 83.167 42.8417
10.442738 83.202 42.7870
10.518411 83.237 42.7318
10.594631 83.272 42.6760
10.671404 83.307 42.6198
10.748734 83.342 42.5630
10.826623 83.377 42.5057
10.905077 83.412 42.4481
10.984100 83.447 42.3903
11.063695 83.483 42.3320
11.143867 83.518 42.2728
11.224621 83.553 42.2130
11.305959 83.588 42.1532
11.387886 83.623 42.0930
11.470407 83.658 42.0323
11.553527 83.693 41.9710
11.637249 83.728 41.9093
11.721577 83.763 41.8471
11.806517 83.798 41.7843
11.892071 83.833 41.7211
11.978246 83.868 41.6573
12.065045 83.903 41.5930
12.152473 83.938 41.5283
12.240536 83.973 41.4630
12.329235 84.008 41.3974
12.418578 84.043 41.3311
12.508568 84.078 41.2638
12.599211 84.113 41.1960
12.690510 84.148 41.1283
12.782471 84.183 41.0601
12.875097 84.218 40.9909
12.968395 84.253 40.9211
13.062370 84.288 40.8508
13.157025 84.323 40.7800
13.252366 84.358 40.7089
13.348398 84.394 40.6371
13.445127 84.429 40.5644
13.542556 84.464 40.4911
13.640691 84.499 40.4174
13.739536 84.534 40.3430
13.839099 84.569 40.2679
13.939383 84.604 40.1921
14.040393 84.639 40.1153
14.142136 84.674 40.0380
14.244616 84.709 39.9608
14.347837 84.744 39.8830
14.451808 84.779 39.8040
14.556532 84.814 39.7240
14.662014 84.849 39.6434
14.768262 84.884 39.5621
14.875278 84.919 39.4804
14.983070 84.954 39.3981
15.091644 84.989 39.3150
15.201005 85.024 39.2311
15.311157 85.059 39.1459
15.422109 85.094 39.0601
15.533863 85.129 38.9739
15.646428 85.164 38.8871
15.759809 85.199 38.7990
15.874010 85.234 38.7101
15.989040 85.269 38.6204
16.104904 85.304 38.5301
16.221605 85.339 38.4390
16.339155 85.375 38.3471
16.457554 85.410 38.2540
16.576813 85.445 38.1601
16.696936 85.480 38.0655
16.817928 85.515 37.9701
16.939798 85.550 37.8736
17.062551 85.585 37.7761
17.186193 85.620 37.6777
17.310732 85.655 37.5781
17.436172 85.690 37.4771
17.562521 85.725 37.3751
17.689787 85.760 37.2726
17.817974 85.795 37.1691
17.947090 85.830 37.0642
18.077143 85.865 36.9581
18.208138 85.900 36.8507
18.340080 85.935 36.7421
18.472980 85.970 36.6328
18.606844 86.005 36.5221
18.741676 86.040 36.4093
18.877487 86.075 36.2951
19.014280 86.110 36.1799
19.152065 86.145 36.0631
19.290850 86.180 35.9445
19.430639 86.215 35.8241
19.571442 86.250 35.7021
19.713264 86.285 35.5782
19.856115 86.320 35.4519
20.000000 86.356 35.3231
20.144928 86.391 35.1918
20.290907 86.426 35.0571
20.437943 86.461 34.9183
20.586044 86.496 34.7751
20.735220 86.530 34.6273
20.885475 86.564 34.4742
21.036821 86.598 34.3144
21.189262 86.630 34.1502
21.342808 86.660 33.9820
21.497467 86.688 33.8142
21.653246 86.714 33.6497
21.810154 86.738 33.4932
21.968201 86.759 33.3498
22.127390 86.780 33.2211
22.287735 86.801 33.1114
22.449242 86.822 33.0181
22.611917 86.845 32.9416
22.775772 86.871 32.8771
22.940815 86.900 32.8223
23.107054 86.932 32.7701
23.274498 86.969 32.7141
23.443153 87.009 32.6491
23.613033 87.052 32.5675
23.784142 87.097 32.4691
23.956491 87.142 32.3508
24.130091 87.188 32.2132
24.304947 87.234 32.0545
24.481071 87.279 31.8782
24.658470 87.321 31.6854
24.837156 87.360 31.4813
25.017136 87.398 31.2710
25.198421 87.433 31.0562
25.381020 87.466 30.8393
25.564941 87.497 30.6232
25.750195 87.525 30.4115
25.936790 87.552 30.2052
26.124741 87.579 30.0068
26.314051 87.605 29.8153
26.504732 87.630 29.6314
26.696796 87.656 29.4522
26.890253 87.683 29.2756
27.085112 87.711 29.1002
27.281382 87.738 28.9235
27.479073 87.765 28.7462
27.678198 87.792 28.5687
27.878765 87.820 28.3902
28.080786 87.848 28.2097
28.284271 87.875 28.0292
28.489231 87.901 27.8497
28.695675 87.926 27.6732
28.903616 87.951 27.5027
29.113064 87.976 27.3362
29.324028 88.003 27.1740
29.536524 88.031 27.0132
29.750557 88.060 26.8529
29.966141 88.091 26.6882
30.183289 88.124 26.5139
30.402010 88.158 26.3302
30.622314 88.190 26.1357
30.844217 88.223 25.9303
31.067726 88.257 25.7134
31.292856 88.290 25.4854
31.519617 88.321 25.2442
31.748020 88.350 24.9953
31.978081 88.377 24.7436
32.209808 88.402 24.4893
32.443211 88.426 24.2336
32.678310 88.448 23.9783
32.915108 88.468 23.7256
33.153625 88.486 23.4763
33.393871 88.505 23.2330
33.635857 88.523 22.9924
33.879597 88.541 22.7507
34.125103 88.557 22.5123
34.372387 88.571 22.2804
34.621464 88.584 22.0553
34.872345 88.598 21.8401
35.125042 88.613 21.6303
35.379574 88.628 21.4215
35.635948 88.643 21.2162
35.894180 88.657 21.0159
36.154285 88.671 20.8193
36.416275 88.687 20.6267
36.680161 88.704 20.4343
36.945961 88.722 20.2375
37.213688 88.740 20.0383
37.483353 88.757 19.8371
37.754974 88.774 19.6343
38.028561 88.792 19.4313
38.304131 88.810 19.2253
38.581699 88.829 19.0130
38.861279 88.847 18.7973
39.142883 88.864 18.5808
39.426529 88.880 18.3613
39.712231 88.898 18.1381
40.000000 88.916 17.9093
40.289856 88.932 17.6715
40.581814 88.947 17.4294
40.875885 88.960 17.1854
41.172089 88.971 16.9424
41.470440 88.981 16.7035
41.770950 88.989 16.4704
42.073643 88.995 16.2447
42.378525 89.001 16.0293
42.685616 89.006 15.8291
42.994934 89.011 15.6403
43.306492 89.019 15.4628
43.620308 89.029 15.2903
43.936401 89.041 15.1172
44.254780 89.056 14.9403
44.575470 89.072 14.7552
44.898483 89.090 14.5593
45.223835 89.109 14.3481
45.551544 89.127 14.1233
45.881630 89.143 13.8837
46.214108 89.158 13.6344
46.548996 89.170 13.3785
46.886307 89.179 13.1204
47.226067 89.186 12.8646
47.568283 89.190 12.6144
47.912983 89.192 12.3748
48.260181 89.194 12.1454
48.609894 89.196 11.9282
48.962143 89.198 11.7213
49.316940 89.200 11.5245
49.674313 89.203 11.3343
50.034271 89.209 11.1485
50.396843 89.216 10.9623
50.762039 89.225 10.7701
51.129883 89.234 10.5723
51.500389 89.243 10.3673
51.873581 89.253 10.1554
52.249481 89.262 9.9362
52.628101 89.271 9.7104
53.009464 89.278 9.4769
53.393593 89.284 9.2404
53.780506 89.287 9.0046
54.170223 89.289 8.7714
54.562763 89.290 8.5441
54.958145 89.291 8.3214
55.356396 89.291 8.1028
55.757530 89.291 7.8883
56.161572 89.291 7.6782
56.568542 89.291 7.4713
56.978462 89.291 7.2667
57.391350 89.291 7.0644
57.807232 89.291 6.8640
58.226128 89.291 6.6653
58.648056 89.291 6.4677
59.073048 89.291 6.2713
59.501114 89.291 6.0763
59.932281 89.291 5.8823
60.366577 89.291 5.6890
60.804020 89.291 5.4963
61.244629 89.291 5.3045
61.688435 89.291 5.1133
62.135452 89.291 4.9227
62.585712 89.291 4.7323
63.039234 89.291 4.5418
63.496040 89.291 4.3513
63.956161 89.291 4.1613
64.419617 89.291 3.9713
64.886421 89.291 3.7809
65.356621 89.291 3.5903
65.830215 89.291 3.4001
66.307251 89.291 3.2094
66.787743 89.291 3.0178
67.271713 89.291 2.8254
67.759193 89.291 2.6319
68.250206 89.291 2.4374
68.744774 89.291 2.2420
69.242928 89.291 2.0454
69.744690 89.291 1.8473
70.250084 89.291 1.6474
70.759148 89.291 1.4454
71.271896 89.291 1.2404
71.788361 89.291 1.0310
72.308571 89.291 0.8174
72.832550 89.290 0.5991
73.360321 89.289 0.3764
73.891922 89.287 0.1487
74.427376 89.284 -0.0816
74.966705 89.278 -0.3133
75.509949 89.271 -0.5426
76.057121 89.262 -0.7645
76.608261 89.253 -0.9806
77.163399 89.244 -1.1903
77.722557 89.234 -1.3946
78.285767 89.225 -1.5938
78.853058 89.216 -1.7896
79.424461 89.208 -1.9823
80.000000 89.201 -2.1766
80.579712 89.196 -2.3774
81.163628 89.190 -2.5846
81.751770 89.183 -2.8011
82.344177 89.175 -3.0225
82.940880 89.166 -3.2455
83.541901 89.155 -3.4706
84.147285 89.143 -3.6984
84.757050 89.129 -3.9246
85.371231 89.112 -4.1468
85.989868 89.092 -4.3596
86.612984 89.070 -4.5561
87.240616 89.048 -4.7377
87.872803 89.027 -4.9022
88.509560 89.007 -5.0527
89.150940 88.987 -5.1913
89.796967 88.968 -5.3187
90.447670 88.951 -5.4344
91.103088 88.936 -5.5448
91.763260 88.926 -5.6544
92.428215 88.918 -5.7688
93.097992 88.912 -5.8945
93.772614 88.908 -6.0327
94.452133 88.905 -6.1875
95.136566 88.901 -6.3556
95.825966 88.895 -6.5366
96.520363 88.888 -6.7256
97.219788 88.878 -6.9176
97.924286 88.867 -7.1126
98.633881 88.856 -7.3092
99.348625 88.844 -7.5056
100.068542 88.829 -7.7003
100.793686 88.812 -7.8905
101.524078 88.794 -8.0711
102.259766 88.777 -8.2476
103.000778 88.762 -8.4244
103.747162 88.746 -8.5997
104.498962 88.728 -8.7733
105.256203 88.709 -8.9437
106.018929 88.691 -9.1082
106.787186 88.673 -9.2697
107.561012 88.655 -9.4307
108.340446 88.636 -9.5887
109.125526 88.616 -9.7416
109.916290 88.597 -9.8917
110.712791 88.579 -10.0408
111.515060 88.562 -10.1897
112.323143 88.544 -10.3409
113.137085 88.525 -10.4917
113.956924 88.506 -10.6391
114.782700 88.486 -10.7856
115.614464 88.468 -10.9332
116.452255 88.449 -11.0797
117.296112 88.428 -11.2240
118.146095 88.407 -11.3657
119.002228 88.387 -11.5032
119.864563 88.368 -11.6386
120.733154 88.347 -11.7736
121.608040 88.327 -11.9077
122.489258 88.308 -12.0403
123.376869 88.289 -12.1737
124.270905 88.270 -12.3105
125.171425 88.250 -12.4487
126.078468 88.229 -12.5873
126.992081 88.208 -12.7257
127.912323 88.187 -12.8631
128.839233 88.165 -12.9997
129.772842 88.143 -13.1360
130.713242 88.120 -13.2697
131.660431 88.096 -13.3983
132.614502 88.072 -13.5236
133.575485 88.049 -13.6470
134.543427 88.026 -13.7678
135.518387 88.002 -13.8859
136.500412 87.977 -14.0018
137.489548 87.953 -14.1157
138.485855 87.930 -14.2277
139.489380 87.906 -14.3379
140.500168 87.882 -14.4468
141.518295 87.859 -14.5547
142.543793 87.835 -14.6617
143.576721 87.811 -14.7683
144.617142 87.786 -14.8738
145.665100 87.762 -14.9772
146.720642 87.738 -15.0797
147.783844 87.713 -15.1820
148.854752 87.688 -15.2837
149.933411 87.664 -15.3843
151.019897 87.639 -15.4847
152.114243 87.614 -15.5865
153.216522 87.589 -15.6877
154.326797 87.563 -15.7867
155.445114 87.536 -15.8838
156.571533 87.509 -15.9793
157.706116 87.482 -16.0718
158.848923 87.454 -16.1602
160.000000 87.425 -16.2438
161.159424 87.396 -16.3208
162.327255 87.368 -16.3928
163.503540 87.340 -16.4609
164.688354 87.313 -16.5259
165.881760 87.286 -16.5887
167.083801 87.260 -16.6508
168.294571 87.234 -16.7136
169.514099 87.209 -16.7778
170.742462 87.184 -16.8447
171.979736 87.159 -16.9138
173.225967 87.133 -16.9861
174.481232 87.107 -17.0588
175.745605 87.079 -17.1298
177.019119 87.050 -17.1978
178.301880 87.022 -17.2602
179.593933 86.993 -17.3189
180.895340 86.965 -17.3752
182.206177 86.936 -17.4279
183.526520 86.907 -17.4752
184.856430 86.878 -17.5199
186.195984 86.851 -17.5639
187.545227 86.824 -17.6079
188.904266 86.797 -17.6536
190.273132 86.769 -17.6999
191.651932 86.742 -17.7459
193.040726 86.714 -17.7919
194.439575 86.686 -17.8386
195.848572 86.657 -17.8839
197.267761 86.627 -17.9251
198.697250 86.597 -17.9639
200.137085 86.569 -18.0016
201.587372 86.540 -18.0369
203.048157 86.509 -18.0694
204.519531 86.477 -18.0979
206.001556 86.447 -18.1203
207.494324 86.417 -18.1400
208.997925 86.388 -18.1608
210.512405 86.358 -18.1790
212.037857 86.326 -18.1910
213.574371 86.294 -18.1990
215.122025 86.265 -18.2031
216.680893 86.237 -18.2050
218.251053 86.207 -18.2069
219.832581 86.177 -18.2070
221.425583 86.148 -18.2031
223.030121 86.119 -18.1980
224.646286 86.091 -18.1936
226.274170 86.064 -18.1900
227.913849 86.037 -18.1881
229.565399 86.009 -18.1880
231.228928 85.982 -18.1903
232.904510 85.954 -18.1940
234.592224 85.925 -18.1994
236.292191 85.895 -18.2030
238.004456 85.863 -18.2009
239.729126 85.831 -18.1940
241.466309 85.800 -18.1821
243.216080 85.769 -18.1641
244.978516 85.736 -18.1385
246.753738 85.703 -18.1061
248.541809 85.673 -18.0657
250.342850 85.643 -18.0221
252.156937 85.614 -17.9799
253.984161 85.586 -17.9381
255.824646 85.558 -17.8968
257.678467 85.531 -17.8571
259.545685 85.504 -17.8209
261.426483 85.477 -17.7861
263.320862 85.448 -17.7518
265.229004 85.419 -17.7161
267.150970 85.390 -17.6763
269.086853 85.361 -17.6341
271.036774 85.332 -17.5916
273.000824 85.302 -17.5451
274.979095 85.271 -17.4915
276.971710 85.240 -17.4322
278.978760 85.211 -17.3667
281.000336 85.183 -17.2982
283.036591 85.155 -17.2303
285.087585 85.127 -17.1612
287.153442 85.099 -17.0896
289.234283 85.072 -17.0172
291.330200 85.046 -16.9452
293.441284 85.020 -16.8742
295.567688 84.994 -16.8057
297.709503 84.968 -16.7382
299.866821 84.942 -16.6709
302.039795 84.915 -16.6032
304.228485 84.888 -16.5343
306.433044 84.861 -16.4642
308.653595 84.833 -16.3937
310.890228 84.805 -16.3202
313.143066 84.776 -16.2414
315.412231 84.746 -16.1572
317.697845 84.718 -16.0666
320.000000 84.690 -15.9713
322.318848 84.662 -15.8733
324.654510 84.634 -15.7713
327.007080 84.606 -15.6641
329.376709 84.579 -15.5533
331.763519 84.553 -15.4400
334.167603 84.528 -15.3254
336.589142 84.503 -15.2113
339.028198 84.479 -15.0973
341.484924 84.454 -14.9833
343.959473 84.430 -14.8693
346.451935 84.407 -14.7556
348.962463 84.383 -14.6413
351.491211 84.359 -14.5260
354.038239 84.334 -14.4093
356.603760 84.311 -14.2913
359.187866 84.287 -14.1714
361.790680 84.263 -14.0492
364.412354 84.238 -13.9244
367.053040 84.215 -13.7964
369.712860 84.192 -13.6654
372.391968 84.168 -13.5316
375.090454 84.144 -13.3944
377.808533 84.121 -13.2525
380.546265 84.099 -13.1084
383.303864 84.078 -12.9644
386.081451 84.058 -12.8204
388.879150 84.038 -12.6771
391.697144 84.018 -12.5344
394.535522 83.998 -12.3923
397.394501 83.979 -12.2514
400.274170 83.960 -12.1133
403.174744 83.941 -11.9754
406.096313 83.920 -11.8361
409.039062 83.899 -11.6944
412.003113 83.879 -11.5489
414.988647 83.858 -11.3995
417.995850 83.837 -11.2454
421.024811 83.816 -11.0875
424.075714 83.797 -10.9256
427.148743 83.778 -10.7615
430.244049 83.759 -10.5980
433.361786 83.741 -10.4325
436.502106 83.723 -10.2625
439.665161 83.705 -10.0915
442.851166 83.689 -9.9228
446.060242 83.674 -9.7555
449.292572 83.657 -9.5911
452.548340 83.640 -9.4255
455.827698 83.623 -9.2536
459.130798 83.607 -9.0796
462.457855 83.593 -8.9067
465.809021 83.578 -8.7336
469.184448 83.561 -8.5607
472.584381 83.544 -8.3846
476.008911 83.528 -8.2002
479.458252 83.513 -8.0126
482.932617 83.500 -7.8248
486.432159 83.487 -7.6376
489.957031 83.474 -7.4534
493.507477 83.461 -7.2696
497.083618 83.448 -7.0841
500.685699 83.435 -6.8976
504.313873 83.423 -6.7096
507.968323 83.412 -6.5216
511.649292 83.401 -6.3353
515.356934 83.389 -6.1496
519.091370 83.378 -5.9649
522.852966 83.366 -5.7786
526.641724 83.353 -5.5886
530.458008 83.340 -5.3946
534.301941 83.328 -5.1947
538.173706 83.316 -4.9917
542.073547 83.306 -4.7883
546.001648 83.296 -4.5837
549.958191 83.285 -4.3777
553.943420 83.275 -4.1707
557.957520 83.266 -3.9624
562.000671 83.257 -3.7537
566.073181 83.248 -3.5461
570.175171 83.239 -3.3367
574.306885 83.229 -3.1234
578.468567 83.218 -2.9058
582.660400 83.209 -2.6826
586.882568 83.200 -2.4538
591.135376 83.190 -2.2188
595.419006 83.181 -1.9778
599.733643 83.174 -1.7296
604.079590 83.168 -1.4779
608.456970 83.165 -1.2257
612.866089 83.163 -0.9748
617.307190 83.162 -0.7287
621.780457 83.161 -0.4858
626.286133 83.161 -0.2460
630.824463 83.161 -0.0088
635.395691 83.161 0.2263
640.000000 83.161 0.4602
644.637695 83.161 0.6941
649.309021 83.161 0.9282
654.014160 83.161 1.1629
658.753418 83.161 1.3992
663.527039 83.161 1.6378
668.335205 83.161 1.8792
673.178284 83.161 2.1240
678.056396 83.161 2.3732
682.969849 83.161 2.6275
687.918945 83.162 2.8871
692.903870 83.163 3.1526
697.924927 83.166 3.4230
702.982422 83.170 3.6988
708.076477 83.175 3.9770
713.207520 83.182 4.2549
718.375732 83.191 4.5320
723.581360 83.201 4.8065
728.824707 83.211 5.0790
734.106079 83.222 5.3494
739.425720 83.233 5.6180
744.783936 83.245 5.8854
750.180908 83.258 6.1511
755.617065 83.271 6.4143
761.092529 83.285 6.6770
766.607727 83.298 6.9414
772.162903 83.312 7.2061
777.758301 83.328 7.4717
783.394287 83.345 7.7351
789.071045 83.362 7.9920
794.789001 83.380 8.2461
800.548340 83.396 8.4995
806.349487 83.413 8.7531
812.192627 83.431 9.0090
818.078125 83.449 9.2651
824.006226 83.467 9.5182
829.977295 83.485 9.7731
835.991699 83.502 10.0337
842.049622 83.519 10.2990
848.151428 83.538 10.5696
854.297485 83.558 10.8450
860.488098 83.577 11.1239
866.723572 83.596 11.4089
873.004211 83.617 11.7037
879.330322 83.640 12.0039
885.702332 83.666 12.3070
892.120483 83.694 12.6109
898.585144 83.724 12.9123
905.096680 83.755 13.2119
911.655396 83.787 13.5096
918.261597 83.821 13.8049
924.915710 83.856 14.0972
931.618042 83.892 14.3870
938.368896 83.929 14.6741
945.168762 83.968 14.9599
952.017822 84.007 15.2453
958.916504 84.047 15.5309
965.865234 84.089 15.8189
972.864319 84.133 16.1059
979.914062 84.180 16.3907
987.014954 84.229 16.6700
994.167236 84.280 16.9403
1001.371399 84.334 17.2011
1008.627747 84.389 17.4505
1015.936646 84.446 17.6890
1023.298584 84.503 17.9159
1030.713867 84.562 18.1323
1038.182739 84.620 18.3396
1045.705933 84.680 18.5372
1053.283447 84.741 18.7246
1060.916016 84.803 18.9023
1068.603882 84.864 19.0701
1076.347412 84.927 19.2284
1084.147095 84.990 19.3775
1092.003296 85.054 19.5166
1099.916382 85.118 19.6443
1107.886841 85.182 19.7625
1115.915039 85.246 19.8722
1124.001343 85.310 19.9736
1132.146362 85.374 20.0671
1140.350342 85.438 20.1537
1148.613770 85.502 20.2344
1156.937134 85.566 20.3097
1165.320801 85.630 20.3810
1173.765137 85.695 20.4467
1182.270752 85.761 20.5060
1190.838013 85.828 20.5578
1199.467285 85.895 20.6006
1208.159180 85.962 20.6349
1216.913940 86.029 20.6607
1225.732178 86.097 20.6780
1234.614380 86.164 20.6860
1243.560913 86.232 20.6860
1252.572266 86.300 20.6788
1261.648926 86.368 20.6641
1270.791382 86.435 20.6417
1280.000000 86.503 20.6121
1289.275391 86.571 20.5757
1298.618042 86.639 20.5322
1308.028320 86.706 20.4817
1317.506836 86.774 20.4243
1327.054077 86.841 20.3601
1336.670410 86.909 20.2893
1346.356567 86.976 20.2121
1356.112793 87.044 20.1283
1365.939697 87.112 20.0374
1375.837891 87.180 19.9404
1385.807739 87.247 19.8382
1395.849854 87.314 19.7304
1405.964844 87.382 19.6173
1416.152954 87.450 19.4984
1426.415039 87.518 19.3737
1436.751465 87.586 19.2425
1447.162720 87.655 19.1059
1457.649414 87.725 18.9596
1468.212158 87.796 18.7998
1478.851440 87.869 18.6257
1489.567871 87.941 18.4346
1500.361816 88.012 18.2288
1511.234131 88.081 18.0091
1522.185059 88.149 17.7771
1533.215454 88.216 17.5333
1544.325806 88.281 17.2811
1555.516602 88.343 17.0231
1566.788574 88.404 16.7621
1578.142090 88.463 16.5016
1589.578003 88.521 16.2421
1601.096680 88.578 15.9861
1612.698975 88.636 15.7311
1624.385254 88.694 15.4760
1636.156250 88.753 15.2191
1648.012451 88.811 14.9584
1659.954590 88.869 14.6940
1671.983398 88.928 14.4255
1684.099243 88.987 14.1521
1696.302856 89.046 13.8729
1708.594971 89.105 13.5883
1720.976196 89.164 13.2986
1733.447144 89.223 13.0033
1746.008423 89.282 12.7018
1758.660645 89.341 12.3943
1771.404663 89.400 12.0804
1784.240967 89.459 11.7603
1797.170288 89.517 11.4341
1810.193359 89.576 11.1013
1823.310791 89.635 10.7615
1836.523193 89.694 10.4144
1849.831421 89.753 10.0599
1863.236084 89.812 9.6976
1876.737793 89.871 9.3273
1890.337524 89.930 8.9487
1904.035645 89.989 8.5617
1917.833008 90.048 8.1656
1931.730469 90.106 7.7597
1945.728638 90.165 7.3438
1959.828125 90.224 6.9179
1974.029907 90.283 6.4809
1988.334473 90.342 6.0320
2002.742798 90.401 5.5699
2017.255493 90.459 5.0931
2031.873291 90.518 4.6010
2046.597168 90.576 4.0925
2061.427734 90.633 3.5674
2076.365479 90.689 3.0241
2091.411865 90.743 2.4644
2106.566895 90.795 1.8886
2121.832031 90.845 1.2985
2137.207764 90.892 0.6964
2152.694824 90.938 0.0815
2168.294189 90.982 -0.5470
2184.006592 91.024 -1.1871
2199.832764 91.062 -1.8377
2215.773682 91.098 -2.4973
2231.830078 91.131 -3.1629
2248.002686 91.162 -3.8372
2264.292725 91.191 -4.5232
2280.700684 91.216 -5.2170
2297.227539 91.237 -5.9166
2313.874268 91.254 -6.6191
2330.641602 91.269 -7.3206
2347.530273 91.280 -8.0220
2364.541504 91.288 -8.7234
2381.676025 91.293 -9.4228
2398.934570 91.295 -10.1189
2416.318359 91.293 -10.8099
2433.827881 91.288 -11.4941
2451.464355 91.280 -12.1702
2469.228760 91.270 -12.8364
2487.121826 91.257 -13.4922
2505.144531 91.241 -14.1373
2523.297852 91.223 -14.7701
2541.582764 91.202 -15.3892
2560.000000 91.180 -15.9944
2578.550781 91.157 -16.5845
2597.236084 91.132 -17.1604
2616.056641 91.106 -17.7219
2635.013672 91.079 -18.2697
2654.108154 91.052 -18.8042
2673.340820 91.024 -19.3267
2692.713135 90.996 -19.8393
2712.225586 90.967 -20.3407
2731.879395 90.937 -20.8297
2751.675781 90.907 -21.3088
2771.615479 90.878 -21.7808
2791.699707 90.849 -22.2440
2811.929688 90.817 -22.6983
2832.305908 90.784 -23.1419
2852.830078 90.752 -23.5723
2873.502930 90.719 -23.9912
2894.325439 90.686 -24.4001
2915.298828 90.652 -24.7972
2936.424316 90.617 -25.1817
2957.702881 90.582 -25.5514
2979.135742 90.547 -25.9031
3000.723633 90.512 -26.2396
3022.468262 90.479 -26.5623
3044.370117 90.447 -26.8716
3066.430908 90.414 -27.1695
3088.651611 90.382 -27.4528
3111.033203 90.350 -27.7186
3133.577148 90.320 -27.9679
3156.284180 90.292 -28.1994
3179.156006 90.266 -28.4170
3202.193359 90.243 -28.6237
3225.397949 90.222 -28.8201
3248.770508 90.204 -29.0065
3272.312500 90.189 -29.1862
3296.024902 90.177 -29.3621
3319.909180 90.168 -29.5362
3343.966797 90.162 -29.7114
3368.198486 90.158 -29.8872
3392.605713 90.155 -30.0647
3417.189941 90.154 -30.2412
3441.952393 90.154 -30.4150
3466.894287 90.156 -30.5833
3492.016846 90.159 -30.7425
3517.321289 90.164 -30.8923
3542.809326 90.172 -31.0292
3568.481934 90.185 -31.1584
3594.340576 90.204 -31.2824
3620.386719 90.229 -31.4064
3646.621582 90.259 -31.5346
3673.046387 90.296 -31.6733
3699.662842 90.340 -31.8270
3726.472168 90.392 -32.0061
3753.475586 90.450 -32.2213
3780.675049 90.513 -32.4758
3808.071289 90.579 -32.7773
3835.666016 90.647 -33.1223
3863.460938 90.715 -33.5098
3891.457275 90.784 -33.9389
3919.656250 90.854 -34.4088
3948.059814 90.923 -34.9176
3976.668945 90.989 -35.4654
4005.485596 91.054 -36.0451
4034.510986 91.116 -36.6500
4063.746582 91.176 -37.2780
4093.194336 91.235 -37.9236
4122.855469 91.294 -38.5907
4152.730957 91.352 -39.2820
4182.823730 91.410 -39.9946
4213.133789 91.465 -40.7272
4243.664062 91.520 -41.4784
4274.415527 91.574 -42.2447
4305.389648 91.630 -43.0301
4336.588379 91.686 -43.8372
4368.013184 91.744 -44.6670
4399.665527 91.802 -45.5202
4431.547363 91.862 -46.4006
4463.660156 91.925 -47.3073
4496.005371 91.992 -48.2551
4528.585449 92.065 -49.2547
4561.401367 92.142 -50.3188
4594.455078 92.221 -51.4590
4627.748535 92.303 -52.6888
4661.283203 92.386 -54.0203
4695.060547 92.468 -55.4676
4729.083008 92.546 -57.0477
4763.352051 92.616 -58.7645
4797.869141 92.673 -60.6321
4832.636719 92.711 -62.6366
4867.655762 92.724 -64.7811
4902.928711 92.706 -67.0288
4938.457520 92.653 -69.3625
4974.243652 92.562 -71.7268
5010.289062 92.425 -74.0834
5046.595703 92.244 -76.3629
5083.165527 92.014 -78.5010
5120.000000 91.742 -80.4431
5157.101562 91.433 -82.1182
5194.472168 91.097 -83.5109
5232.113281 90.741 -84.5770
5270.027344 90.377 -85.3330
5308.216309 90.015 -85.7644
5346.681641 89.670 -85.9209
5385.426270 89.355 -85.8265
5424.451172 89.075 -85.5447
5463.758789 88.838 -85.1303
5503.351562 88.641 -84.6345
5543.230957 88.488 -84.1154
5583.399414 88.373 -83.6084
5623.859375 88.294 -83.1633
5664.611816 88.244 -82.7956
5705.660156 88.217 -82.5355
5747.005859 88.208 -82.3884
5788.650879 88.214 -82.3688
5830.597656 88.232 -82.4801
5872.848633 88.256 -82.7304
5915.405762 88.284 -83.1206
5958.271484 88.313 -83.6535
6001.447266 88.340 -84.3321
6044.936523 88.362 -85.1615
6088.740234 88.375 -86.1387
6132.861816 88.374 -87.2700
6177.303223 88.352 -88.5324
6222.066406 88.303 -89.9207
6267.154297 88.222 -91.3865
6312.568359 88.104 -92.9024
6358.312012 87.945 -94.3996
6404.386719 87.740 -95.8279
6450.795898 87.491 -97.1040
6497.541016 87.193 -98.1496
6544.625000 86.858 -98.8991
6592.049805 86.489 -99.2606
6639.818359 86.107 -99.2352
6687.933594 85.726 -98.7735
6736.396973 85.366 -97.9352
6785.211426 85.044 -96.7309
6834.379883 84.778 -95.2611
6883.904785 84.590 -93.5892
6933.788574 84.480 -91.8390
6984.033691 84.464 -90.1245
7034.642578 84.522 -88.5395
7085.618652 84.648 -87.2038
7136.963867 84.822 -86.1535
7188.681152 85.028 -85.4700
7240.773438 85.249 -85.1348
7293.243164 85.464 -85.1745
7346.092773 85.666 -85.5335
7399.325684 85.841 -86.1846
7452.944336 85.988 -87.0681
7506.951172 86.102 -88.1323
7561.350098 86.184 -89.3246
7616.142578 86.229 -90.5876
7671.332031 86.243 -91.8833
7726.921875 86.228 -93.1597
7782.914551 86.189 -94.4017
7839.312500 86.130 -95.5775
7896.119629 86.055 -96.6873
7953.337891 85.969 -97.7214
8010.971191 85.873 -98.6791
8069.021973 85.767 -99.5568
8127.493164 85.656 -100.3540
8186.388672 85.541 -101.0686
8245.710938 85.425 -101.7029
8305.461914 85.308 -102.2578
8365.647461 85.194 -102.7347
8426.267578 85.082 -103.1303
8487.328125 84.978 -103.4584
8548.831055 84.885 -103.7266
8610.779297 84.804 -103.9499
8673.176758 84.735 -104.1415
8736.026367 84.679 -104.3151
8799.331055 84.639 -104.4803
8863.094727 84.616 -104.6629
8927.320312 84.612 -104.8870
8992.010742 84.622 -105.1673
9057.170898 84.642 -105.5240
9122.802734 84.673 -105.9654
9188.910156 84.714 -106.5034
9255.497070 84.762 -107.1482
9322.566406 84.812 -107.9156
9390.121094 84.862 -108.8010
9458.166016 84.907 -109.8062
9526.704102 84.946 -110.9268
9595.738281 84.978 -112.1631
9665.273438 85.000 -113.5037
9735.311523 85.005 -114.9432
9805.857422 84.995 -116.4636
9876.915039 84.968 -118.0476
9948.487305 84.923 -119.6870
10020.578125 84.863 -121.3721
10093.191406 84.784 -123.0896
10166.331055 84.685 -124.8291
10240.000000 84.565 -126.5718
10314.203125 84.424 -128.3006
10388.944336 84.264 -130.0000
10464.226562 84.084 -131.6502
10540.054688 83.887 -133.2477
10616.432617 83.676 -134.7821
10693.363281 83.450 -136.2544
10770.852539 83.213 -137.6652
10848.902344 82.962 -139.0069
10927.517578 82.699 -140.2767
11006.703125 82.423 -141.4618
11086.461914 82.134 -142.5515
11166.798828 81.835 -143.5368
11247.718750 81.526 -144.4095
11329.223633 81.207 -145.1575
11411.320312 80.876 -145.7681
11494.011719 80.539 -146.2349
11577.301758 80.199 -146.5441
11661.195312 79.860 -146.7045
11745.697266 79.526 -146.7168
11830.811523 79.201 -146.5920
11916.542969 78.886 -146.3384
12002.894531 78.584 -145.9664
12089.873047 78.295 -145.4856
12177.480469 78.023 -144.9066
12265.723633 77.767 -144.2389
12354.606445 77.529 -143.4952
12444.132812 77.311 -142.6837
12534.308594 77.114 -141.8267
12625.136719 76.943 -140.9428
12716.624023 76.796 -140.0527
12808.773438 76.671 -139.1794
12901.591797 76.567 -138.3347
12995.082031 76.482 -137.5355
13089.250000 76.414 -136.7896
13184.099609 76.361 -136.1114
13279.636719 76.319 -135.4970
13375.867188 76.286 -134.9489
13472.793945 76.260 -134.4626
13570.422852 76.241 -134.0341
13668.759766 76.229 -133.6650
13767.809570 76.224 -133.3542
13867.577148 76.225 -133.1062
13968.067383 76.232 -132.9251
14069.285156 76.243 -132.8114
14171.237305 76.257 -132.7674
14273.927734 76.273 -132.7927
14377.362305 76.290 -132.8879
14481.546875 76.306 -133.0530
14586.486328 76.322 -133.2898
14692.185547 76.334 -133.5930
14798.651367 76.340 -133.9625
14905.888672 76.338 -134.3844
15013.902344 76.327 -134.8545
15122.700195 76.303 -135.3442
15232.285156 76.263 -135.8430
15342.664062 76.204 -136.2915
15453.843750 76.122 -136.6454
15565.829102 76.026 -136.8474
15678.625000 75.920 -136.8324
15792.239258 75.822 -136.5801
15906.675781 75.740 -136.0268
16021.942383 75.709 -135.2379
16138.043945 75.762 -134.2017
16254.986328 75.916 -133.0865
16372.777344 76.203 -131.9862
16491.421875 76.614 -131.1148
16610.923828 77.164 -130.6499
16731.294922 77.808 -130.7970
16852.535156 78.523 -131.7871
16974.656250 79.258 -133.7231
17097.662109 79.962 -136.7989
17221.558594 80.606 -140.9703
17346.353516 81.152 -146.3234
17472.052734 81.574 -152.6568
17598.662109 81.836 -159.8963
17726.189453 81.938 -167.7421
17854.640625 81.866 -175.9694
17984.021484 81.621 175.7258
18114.341797 81.197 167.6259
18245.605469 80.592 160.0193
18377.820312 79.795 153.2368
18510.994141 78.831 147.4324
18645.132812 77.711 142.8545
18780.242188 76.459 139.5493
18916.332031 75.085 137.6757
19053.408203 73.636 137.1383
19191.476562 72.141 137.9915
19330.546875 70.673 139.9438
19470.623047 69.313 142.7957
19611.714844 68.073 146.3175
19753.830078 66.982 150.2752
19896.974609 66.069 154.4841
