* Measurement data measured by REW V5.20.13
* Source: C:\Users\kurin\Desktop\Targets and Curves\Resolve\Img\Files\Dunu Zen_SPL.txt
* Format: Comma/Tab/Space delimited data
* Dated: Aug 14, 2023 3:16:41 PM
* REW Settings:
*  C-weighting compensation: Off
*  Target level: 75.0 dB
* Note: ; Measurement imported from C:\Users\kurin\Desktop\Targets and Curves\Resolve\Img\Files\Dunu Zen_SPL.txt Format: Comma/Tab/Space delimited data 623 values loaded, 5 Hz to 39,792 Hz log spaced 
* Measurement: Dunu Zen_SPL
* Smoothing: 1/48 octave
* Frequency Step: 1/96 octave
* Start Frequency: 5.000 Hz
*
* Freq(Hz) SPL(dB) Phase(degrees)
5.000000 85.007 26.3980
5.036232 85.016 26.3865
5.072727 85.026 26.3740
5.109486 85.038 26.3591
5.146511 85.051 26.3420
5.183805 85.067 26.3223
5.221369 85.085 26.3010
5.259205 85.103 26.2795
5.297316 85.122 26.2570
5.335702 85.142 26.2328
5.374367 85.163 26.2080
5.413311 85.184 26.1835
5.452538 85.204 26.1590
5.492050 85.225 26.1346
5.531847 85.245 26.1100
5.571934 85.266 26.0851
5.612310 85.286 26.0600
5.652979 85.307 26.0346
5.693943 85.327 26.0090
5.735204 85.347 25.9836
5.776763 85.368 25.9580
5.818624 85.388 25.9321
5.860788 85.409 25.9060
5.903258 85.430 25.8796
5.946035 85.451 25.8530
5.989123 85.472 25.8261
6.032523 85.492 25.7990
6.076237 85.512 25.7721
6.120268 85.533 25.7450
6.164618 85.553 25.7176
6.209289 85.574 25.6900
6.254284 85.594 25.6621
6.299605 85.615 25.6340
6.345255 85.635 25.6061
6.391235 85.656 25.5780
6.437549 85.676 25.5491
6.484198 85.697 25.5200
6.531185 85.717 25.4911
6.578513 85.738 25.4620
6.626183 85.758 25.4326
6.674199 85.779 25.4030
6.722563 85.799 25.3731
6.771278 85.820 25.3430
6.820345 85.841 25.3126
6.869768 85.862 25.2820
6.919549 85.883 25.2511
6.969691 85.903 25.2200
7.020196 85.923 25.1891
7.071068 85.944 25.1580
7.122308 85.964 25.1261
7.173919 85.985 25.0940
7.225904 86.005 25.0621
7.278266 86.026 25.0300
7.331007 86.046 24.9971
7.384131 86.067 24.9640
7.437639 86.087 24.9311
7.491535 86.108 24.8980
7.545822 86.128 24.8647
7.600502 86.149 24.8310
7.655579 86.169 24.7966
7.711054 86.190 24.7620
7.766932 86.210 24.7276
7.823214 86.231 24.6930
7.879904 86.251 24.6582
7.937005 86.272 24.6230
7.994520 86.293 24.5871
8.052452 86.314 24.5510
8.110803 86.335 24.5151
8.169578 86.355 24.4790
8.228777 86.375 24.4421
8.288406 86.396 24.4050
8.348468 86.416 24.3681
8.408964 86.437 24.3310
8.469899 86.457 24.2932
8.531276 86.478 24.2550
8.593097 86.498 24.2166
8.655366 86.519 24.1780
8.718086 86.539 24.1391
8.781260 86.560 24.1000
8.844893 86.580 24.0607
8.908987 86.601 24.0210
8.973545 86.621 23.9806
9.038571 86.642 23.9400
9.104069 86.662 23.8996
9.170040 86.683 23.8590
9.236490 86.704 23.8177
9.303422 86.725 23.7760
9.370838 86.746 23.7342
9.438744 86.766 23.6920
9.507140 86.786 23.6491
9.576033 86.807 23.6060
9.645425 86.827 23.5631
9.715320 86.848 23.5200
9.785721 86.868 23.4762
9.856632 86.889 23.4320
9.928058 86.909 23.3877
10.000000 86.930 23.3430
10.072464 86.950 23.2977
10.145453 86.971 23.2521
10.218971 86.991 23.2062
10.293022 87.012 23.1600
10.367610 87.033 23.1137
10.442738 87.053 23.0670
10.518411 87.073 23.0198
10.594631 87.094 22.9720
10.671404 87.115 22.9236
10.748734 87.136 22.8750
10.826623 87.157 22.8267
10.905077 87.177 22.7780
10.984100 87.197 22.7283
11.063695 87.218 22.6780
11.143867 87.238 22.6276
11.224621 87.259 22.5770
11.305959 87.279 22.5262
11.387886 87.300 22.4750
11.470407 87.320 22.4233
11.553527 87.341 22.3710
11.637249 87.361 22.3182
11.721577 87.382 22.2650
11.806517 87.402 22.2117
11.892071 87.423 22.1581
11.978246 87.443 22.1037
12.065045 87.464 22.0490
12.152473 87.484 21.9943
12.240536 87.505 21.9390
12.329235 87.526 21.8828
12.418578 87.547 21.8261
12.508568 87.568 21.7692
12.599211 87.588 21.7120
12.690510 87.608 21.6543
12.782471 87.629 21.5961
12.875097 87.649 21.5372
12.968395 87.670 21.4780
13.062370 87.690 21.4188
13.157025 87.711 21.3590
13.252366 87.731 21.2983
13.348398 87.752 21.2370
13.445127 87.772 21.1758
13.542556 87.793 21.1141
13.640691 87.813 21.0513
13.739536 87.834 20.9880
13.839099 87.854 20.9247
13.939383 87.875 20.8611
14.040393 87.895 20.7969
14.142136 87.916 20.7320
14.244616 87.936 20.6663
14.347837 87.957 20.6000
14.451808 87.978 20.5333
14.556532 87.999 20.4660
14.662014 88.020 20.3983
14.768262 88.040 20.3301
14.875278 88.060 20.2614
14.983070 88.081 20.1921
15.091644 88.101 20.1219
15.201005 88.122 20.0511
15.311157 88.142 19.9799
15.422109 88.163 19.9081
15.533863 88.183 19.8354
15.646428 88.204 19.7620
15.759809 88.224 19.6884
15.874010 88.245 19.6141
15.989040 88.265 19.5389
16.104904 88.286 19.4631
16.221605 88.306 19.3868
16.339155 88.327 19.3101
16.457554 88.347 19.2329
16.576813 88.368 19.1551
16.696936 88.389 19.0764
16.817928 88.410 18.9970
16.939798 88.431 18.9168
17.062551 88.451 18.8361
17.186193 88.471 18.7554
17.310732 88.492 18.6741
17.436172 88.512 18.5914
17.562521 88.533 18.5081
17.689787 88.553 18.4248
17.817974 88.574 18.3411
17.947090 88.594 18.2564
18.077143 88.615 18.1710
18.208138 88.635 18.0853
18.340080 88.656 17.9991
18.472980 88.676 17.9123
18.606844 88.697 17.8251
18.741676 88.717 17.7377
18.877487 88.738 17.6501
19.014280 88.758 17.5620
19.152065 88.779 17.4741
19.290850 88.799 17.3873
19.430639 88.820 17.3011
19.571442 88.841 17.2151
19.713264 88.862 17.1301
19.856115 88.883 17.0469
20.000000 88.905 16.9641
20.144928 88.928 16.8811
20.290907 88.952 16.7961
20.437943 88.977 16.7066
20.586044 89.002 16.6131
20.735220 89.027 16.5158
20.885475 89.053 16.4131
21.036821 89.080 16.3035
21.189262 89.108 16.1862
21.342808 89.135 16.0587
21.497467 89.161 15.9252
21.653246 89.186 15.7902
21.810154 89.211 15.6502
21.968201 89.237 15.5025
22.127390 89.263 15.3482
22.287735 89.287 15.1865
22.449242 89.310 15.0201
22.611917 89.332 14.8525
22.775772 89.353 14.6812
22.940815 89.374 14.5035
23.107054 89.394 14.3232
23.274498 89.411 14.1427
23.443153 89.426 13.9642
23.613033 89.441 13.7919
23.784142 89.456 13.6231
23.956491 89.470 13.4557
24.130091 89.483 13.2932
24.304947 89.494 13.1388
24.481071 89.505 12.9912
24.658470 89.519 12.8517
24.837156 89.533 12.7162
25.017136 89.547 12.5804
25.198421 89.561 12.4461
25.381020 89.575 12.3149
25.564941 89.591 12.1841
25.750195 89.609 12.0526
25.936790 89.627 11.9182
26.124741 89.645 11.7776
26.314051 89.663 11.6332
26.504732 89.681 11.4862
26.696796 89.699 11.3362
26.890253 89.718 11.1832
27.085112 89.737 11.0272
27.281382 89.755 10.8678
27.479073 89.774 10.7052
27.678198 89.793 10.5405
27.878765 89.812 10.3702
28.080786 89.833 10.1919
28.284271 89.854 10.0043
28.489231 89.874 9.8037
28.695675 89.893 9.5943
28.903616 89.910 9.3784
29.113064 89.925 9.1573
29.324028 89.939 8.9317
29.536524 89.952 8.7053
29.750557 89.961 8.4817
29.966141 89.969 8.2622
30.183289 89.977 8.0502
30.402010 89.985 7.8423
30.622314 89.993 7.6359
30.844217 90.000 7.4312
31.067726 90.007 7.2278
31.292856 90.014 7.0243
31.519617 90.021 6.8190
31.748020 90.028 6.6123
31.978081 90.034 6.4029
32.209808 90.038 6.1943
32.443211 90.040 5.9891
32.678310 90.042 5.7883
32.915108 90.043 5.5937
33.153625 90.044 5.4052
33.393871 90.044 5.2230
33.635857 90.044 5.0473
33.879597 90.044 4.8786
34.125103 90.044 4.7162
34.372387 90.045 4.5594
34.621464 90.046 4.4082
34.872345 90.048 4.2631
35.125042 90.050 4.1222
35.379574 90.054 3.9847
35.635948 90.060 3.8472
35.894180 90.067 3.7059
36.154285 90.075 3.5612
36.416275 90.084 3.4132
36.680161 90.094 3.2592
36.945961 90.105 3.0978
37.213688 90.117 2.9263
37.483353 90.129 2.7405
37.754974 90.141 2.5443
38.028561 90.150 2.3399
38.304131 90.159 2.1283
38.581699 90.167 1.9116
38.861279 90.175 1.6893
39.142883 90.181 1.4605
39.426529 90.185 1.2283
39.712231 90.187 0.9958
40.000000 90.187 0.7633
40.289856 90.187 0.5320
40.581814 90.185 0.3033
40.875885 90.181 0.0785
41.172089 90.175 -0.1397
41.470440 90.168 -0.3476
41.770950 90.161 -0.5467
42.073643 90.154 -0.7369
42.378525 90.147 -0.9187
42.685616 90.140 -1.0924
42.994934 90.133 -1.2588
43.306492 90.127 -1.4176
43.620308 90.123 -1.5728
43.936401 90.121 -1.7278
44.254780 90.119 -1.8838
44.575470 90.118 -2.0427
44.898483 90.117 -2.2047
45.223835 90.117 -2.3706
45.551544 90.117 -2.5398
45.881630 90.117 -2.7121
46.214108 90.117 -2.8877
46.548996 90.117 -3.0665
46.886307 90.117 -3.2487
47.226067 90.117 -3.4346
47.568283 90.117 -3.6247
47.912983 90.117 -3.8195
48.260181 90.116 -4.0187
48.609894 90.115 -4.2223
48.962143 90.112 -4.4287
49.316940 90.108 -4.6370
49.674313 90.102 -4.8447
50.034271 90.095 -5.0487
50.396843 90.088 -5.2497
50.762039 90.081 -5.4467
51.129883 90.073 -5.6407
51.500389 90.065 -5.8323
51.873581 90.056 -6.0207
52.249481 90.047 -6.2046
52.628101 90.038 -6.3857
53.009464 90.030 -6.5650
53.393593 90.022 -6.7427
53.780506 90.014 -6.9195
54.170223 90.007 -7.0957
54.562763 90.000 -7.2714
54.958145 89.993 -7.4477
55.356396 89.986 -7.6250
55.757530 89.979 -7.8057
56.161572 89.974 -7.9921
56.568542 89.969 -8.1847
56.978462 89.963 -8.3852
57.391350 89.956 -8.5916
57.807232 89.948 -8.8034
58.226128 89.938 -9.0176
58.648056 89.926 -9.2325
59.073048 89.913 -9.4447
59.501114 89.898 -9.6504
59.932281 89.881 -9.8487
60.366577 89.864 -10.0366
60.804020 89.846 -10.2157
61.244629 89.829 -10.3853
61.688435 89.813 -10.5487
62.135452 89.798 -10.7077
62.585712 89.784 -10.8657
63.039234 89.771 -11.0275
63.496040 89.759 -11.1917
63.956161 89.746 -11.3593
64.419617 89.732 -11.5287
64.886421 89.718 -11.6988
65.356621 89.704 -11.8687
65.830215 89.689 -12.0369
66.307251 89.674 -12.2037
66.787743 89.659 -12.3684
67.271713 89.644 -12.5317
67.759193 89.628 -12.6940
68.250206 89.613 -12.8557
68.744774 89.599 -13.0172
69.242928 89.585 -13.1797
69.744690 89.570 -13.3449
70.250084 89.555 -13.5117
70.759148 89.540 -13.6798
71.271896 89.524 -13.8487
71.788361 89.508 -14.0176
72.308571 89.491 -14.1867
72.832550 89.473 -14.3566
73.360321 89.455 -14.5247
73.891922 89.436 -14.6880
74.427376 89.417 -14.8487
74.966705 89.399 -15.0080
75.509949 89.380 -15.1657
76.057121 89.360 -15.3227
76.608261 89.340 -15.4767
77.163399 89.319 -15.6251
77.722557 89.299 -15.7697
78.285767 89.279 -15.9105
78.853058 89.260 -16.0497
79.424461 89.241 -16.1892
80.000000 89.223 -16.3297
80.579712 89.205 -16.4730
81.163628 89.187 -16.6187
81.751770 89.169 -16.7675
82.344177 89.151 -16.9177
82.940880 89.131 -17.0686
83.541901 89.111 -17.2187
84.147285 89.090 -17.3664
84.757050 89.069 -17.5117
85.371231 89.047 -17.6536
85.989868 89.026 -17.7937
86.612984 89.006 -17.9329
87.240616 88.987 -18.0727
87.872803 88.967 -18.2153
88.509560 88.946 -18.3597
89.150940 88.926 -18.5051
89.796967 88.905 -18.6527
90.447670 88.884 -18.8040
91.103088 88.863 -18.9577
91.763260 88.840 -19.1147
92.428215 88.815 -19.2697
93.097992 88.788 -19.4165
93.772614 88.761 -19.5577
94.452133 88.735 -19.6937
95.136566 88.709 -19.8247
95.825966 88.682 -19.9519
96.520363 88.654 -20.0737
97.219788 88.627 -20.1876
97.924286 88.600 -20.2978
98.633881 88.575 -20.4075
99.348625 88.551 -20.5168
100.068542 88.526 -20.6271
100.793686 88.501 -20.7377
101.524078 88.477 -20.8478
102.259766 88.453 -20.9587
103.000778 88.429 -21.0719
103.747162 88.404 -21.1858
104.498962 88.379 -21.2994
105.256203 88.354 -21.4128
106.018929 88.329 -21.5262
106.787186 88.303 -21.6388
107.561012 88.276 -21.7499
108.340446 88.249 -21.8588
109.125526 88.222 -21.9638
109.916290 88.195 -22.0668
110.712791 88.169 -22.1685
111.515060 88.144 -22.2708
112.323143 88.118 -22.3768
113.137085 88.092 -22.4838
113.956924 88.065 -22.5896
114.782700 88.037 -22.6947
115.614464 88.010 -22.7989
116.452255 87.983 -22.9028
117.296112 87.954 -23.0083
118.146095 87.925 -23.1118
119.002228 87.895 -23.2097
119.864563 87.864 -23.3038
120.733154 87.835 -23.3943
121.608040 87.805 -23.4818
122.489258 87.775 -23.5676
123.376869 87.744 -23.6498
124.270905 87.714 -23.7267
125.171425 87.683 -23.7999
126.078468 87.653 -23.8700
126.992081 87.623 -23.9378
127.912323 87.593 -24.0037
128.839233 87.564 -24.0689
129.772842 87.536 -24.1346
130.713242 87.508 -24.2009
131.660431 87.480 -24.2686
132.614502 87.452 -24.3368
133.575485 87.424 -24.4045
134.543427 87.395 -24.4729
135.518387 87.367 -24.5436
136.500412 87.338 -24.6149
137.489548 87.308 -24.6865
138.485855 87.278 -24.7558
139.489380 87.247 -24.8187
140.500168 87.216 -24.8789
141.518295 87.187 -24.9391
142.543793 87.158 -24.9989
143.576721 87.127 -25.0586
144.617142 87.096 -25.1179
145.665100 87.066 -25.1760
146.720642 87.036 -25.2338
147.783844 87.006 -25.2929
148.854752 86.975 -25.3508
149.933411 86.943 -25.4058
151.019897 86.910 -25.4579
152.114243 86.878 -25.5064
153.216522 86.846 -25.5519
154.326797 86.813 -25.5943
155.445114 86.780 -25.6339
156.571533 86.748 -25.6703
157.706116 86.716 -25.7049
158.848923 86.684 -25.7397
160.000000 86.652 -25.7729
161.159424 86.620 -25.8035
162.327255 86.587 -25.8319
163.503540 86.555 -25.8586
164.688354 86.523 -25.8829
165.881760 86.490 -25.9048
167.083801 86.457 -25.9240
168.294571 86.425 -25.9396
169.514099 86.393 -25.9540
170.742462 86.362 -25.9698
171.979736 86.331 -25.9850
173.225967 86.298 -25.9986
174.481232 86.265 -26.0100
175.745605 86.233 -26.0174
177.019119 86.202 -26.0230
178.301880 86.170 -26.0297
179.593933 86.138 -26.0340
180.895340 86.105 -26.0334
182.206177 86.072 -26.0280
183.526520 86.040 -26.0155
184.856430 86.009 -26.0010
186.195984 85.980 -25.9888
187.545227 85.951 -25.9790
188.904266 85.923 -25.9738
190.273132 85.894 -25.9720
191.651932 85.865 -25.9732
193.040726 85.836 -25.9770
194.439575 85.807 -25.9833
195.848572 85.777 -25.9910
197.267761 85.746 -26.0000
198.697250 85.714 -26.0070
200.137085 85.679 -26.0087
201.587372 85.644 -26.0040
203.048157 85.610 -25.9907
204.519531 85.575 -25.9691
206.001556 85.540 -25.9380
207.494324 85.505 -25.9001
208.997925 85.473 -25.8567
210.512405 85.442 -25.8111
212.037857 85.412 -25.7672
213.574371 85.382 -25.7241
215.122025 85.352 -25.6825
216.680893 85.323 -25.6421
218.251053 85.295 -25.6029
219.832581 85.267 -25.5651
221.425583 85.238 -25.5292
223.030121 85.209 -25.4941
224.646286 85.180 -25.4586
226.274170 85.151 -25.4231
227.913849 85.122 -25.3876
229.565399 85.093 -25.3521
231.228928 85.064 -25.3168
232.904510 85.034 -25.2811
234.592224 85.004 -25.2449
236.292191 84.974 -25.2071
238.004456 84.943 -25.1674
239.729126 84.911 -25.1231
241.466309 84.879 -25.0710
243.216080 84.847 -25.0132
244.978516 84.816 -24.9501
246.753738 84.786 -24.8832
248.541809 84.756 -24.8141
250.342850 84.727 -24.7432
252.156937 84.699 -24.6710
253.984161 84.671 -24.5992
255.824646 84.644 -24.5294
257.678467 84.618 -24.4622
259.545685 84.592 -24.3996
261.426483 84.565 -24.3392
263.320862 84.538 -24.2793
265.229004 84.510 -24.2192
267.150970 84.482 -24.1572
269.086853 84.453 -24.0932
271.036774 84.425 -24.0261
273.000824 84.396 -23.9562
274.979095 84.368 -23.8829
276.971710 84.339 -23.8072
278.978760 84.311 -23.7304
281.000336 84.282 -23.6512
283.036591 84.254 -23.5687
285.087585 84.225 -23.4833
287.153442 84.197 -23.3943
289.234283 84.169 -23.3032
291.330200 84.142 -23.2118
293.441284 84.116 -23.1193
295.567688 84.089 -23.0252
297.709503 84.062 -22.9303
299.866821 84.036 -22.8344
302.039795 84.011 -22.7383
304.228485 83.985 -22.6433
306.433044 83.959 -22.5473
308.653595 83.932 -22.4484
310.890228 83.905 -22.3463
313.143066 83.879 -22.2395
315.412231 83.853 -22.1293
317.697845 83.828 -22.0165
320.000000 83.803 -21.9013
322.318848 83.778 -21.7842
324.654510 83.753 -21.6654
327.007080 83.730 -21.5441
329.376709 83.708 -21.4234
331.763519 83.687 -21.3061
334.167603 83.666 -21.1914
336.589142 83.644 -21.0803
339.028198 83.622 -20.9703
341.484924 83.600 -20.8586
343.959473 83.577 -20.7463
346.451935 83.556 -20.6343
348.962463 83.534 -20.5213
351.491211 83.512 -20.4063
354.038239 83.489 -20.2893
356.603760 83.467 -20.1696
359.187866 83.445 -20.0484
361.790680 83.424 -19.9272
364.412354 83.402 -19.8044
367.053040 83.380 -19.6784
369.712860 83.358 -19.5504
372.391968 83.338 -19.4211
375.090454 83.317 -19.2904
377.808533 83.296 -19.1590
380.546265 83.274 -19.0244
383.303864 83.253 -18.8827
386.081451 83.232 -18.7384
388.879150 83.214 -18.5956
391.697144 83.196 -18.4524
394.535522 83.177 -18.3082
397.394501 83.158 -18.1634
400.274170 83.141 -18.0176
403.174744 83.125 -17.8735
406.096313 83.110 -17.7341
409.039062 83.094 -17.5974
412.003113 83.077 -17.4630
414.988647 83.060 -17.3284
417.995850 83.042 -17.1913
421.024811 83.024 -17.0514
424.075714 83.006 -16.9084
427.148743 82.988 -16.7615
430.244049 82.970 -16.6097
433.361786 82.952 -16.4535
436.502106 82.935 -16.2925
439.665161 82.919 -16.1285
442.851166 82.904 -15.9630
446.060242 82.890 -15.7975
449.292572 82.877 -15.6346
452.548340 82.864 -15.4725
455.827698 82.851 -15.3095
459.130798 82.838 -15.1475
462.457855 82.827 -14.9887
465.809021 82.816 -14.8315
469.184448 82.804 -14.6762
472.584381 82.791 -14.5195
476.008911 82.778 -14.3573
479.458252 82.765 -14.1925
482.932617 82.754 -14.0266
486.432159 82.744 -13.8605
489.957031 82.733 -13.6962
493.507477 82.723 -13.5325
497.083618 82.713 -13.3691
500.685699 82.703 -13.2055
504.313873 82.694 -13.0409
507.968323 82.684 -12.8765
511.649292 82.674 -12.7143
515.356934 82.664 -12.5515
519.091370 82.653 -12.3868
522.852966 82.642 -12.2176
526.641724 82.631 -12.0401
530.458008 82.620 -11.8566
534.301941 82.611 -11.6676
538.173706 82.602 -11.4747
542.073547 82.594 -11.2796
546.001648 82.586 -11.0817
549.958191 82.580 -10.8796
553.943420 82.575 -10.6767
557.957520 82.572 -10.4756
562.000671 82.569 -10.2767
566.073181 82.567 -10.0810
570.175171 82.566 -9.8886
574.306885 82.566 -9.7005
578.468567 82.566 -9.5156
582.660400 82.566 -9.3334
586.882568 82.566 -9.1536
591.135376 82.566 -8.9759
595.419006 82.566 -8.7996
599.733643 82.566 -8.6244
604.079590 82.566 -8.4496
608.456970 82.566 -8.2747
612.866089 82.566 -8.0996
617.307190 82.566 -7.9239
621.780457 82.566 -7.7476
626.286133 82.566 -7.5706
630.824463 82.566 -7.3926
635.395691 82.566 -7.2130
640.000000 82.566 -7.0316
644.637695 82.566 -6.8484
649.309021 82.566 -6.6626
654.014160 82.566 -6.4736
658.753418 82.566 -6.2807
663.527039 82.566 -6.0832
668.335205 82.566 -5.8807
673.178284 82.567 -5.6721
678.056396 82.568 -5.4577
682.969849 82.569 -5.2370
687.918945 82.572 -5.0108
692.903870 82.576 -4.7788
697.924927 82.582 -4.5438
702.982422 82.589 -4.3088
708.076477 82.597 -4.0729
713.207520 82.606 -3.8355
718.375732 82.616 -3.5978
723.581360 82.627 -3.3602
728.824707 82.640 -3.1238
734.106079 82.654 -2.8914
739.425720 82.668 -2.6598
744.783936 82.682 -2.4265
750.180908 82.697 -2.1928
755.617065 82.714 -1.9585
761.092529 82.732 -1.7258
766.607727 82.750 -1.4985
772.162903 82.769 -1.2728
777.758301 82.788 -1.0462
783.394287 82.807 -0.8188
789.071045 82.827 -0.5889
794.789001 82.849 -0.3588
800.548340 82.871 -0.1311
806.349487 82.894 0.0972
812.192627 82.917 0.3286
818.078125 82.941 0.5621
824.006226 82.966 0.7985
829.977295 82.993 1.0352
835.991699 83.022 1.2694
842.049622 83.052 1.5021
848.151428 83.082 1.7331
854.297485 83.113 1.9631
860.488098 83.146 2.1932
866.723572 83.180 2.4222
873.004211 83.215 2.6496
879.330322 83.252 2.8752
885.702332 83.290 3.0988
892.120483 83.329 3.3192
898.585144 83.370 3.5353
905.096680 83.413 3.7472
911.655396 83.456 3.9549
918.261597 83.500 4.1583
924.915710 83.546 4.3576
931.618042 83.593 4.5513
938.368896 83.642 4.7374
945.168762 83.692 4.9173
952.017822 83.741 5.0913
958.916504 83.791 5.2614
965.865234 83.842 5.4309
972.864319 83.895 5.5964
979.914062 83.950 5.7556
987.014954 84.006 5.9084
994.167236 84.062 6.0530
1001.371399 84.119 6.1925
1008.627747 84.176 6.3313
1015.936646 84.236 6.4645
1023.298584 84.299 6.5885
1030.713867 84.363 6.7036
1038.182739 84.426 6.8086
1045.705933 84.490 6.9046
1053.283447 84.556 6.9934
1060.916016 84.623 7.0727
1068.603882 84.691 7.1403
1076.347412 84.760 7.1968
1084.147095 84.830 7.2418
1092.003296 84.900 7.2759
1099.916382 84.970 7.2998
1107.886841 85.040 7.3130
1115.915039 85.111 7.3146
1124.001343 85.183 7.3061
1132.146362 85.253 7.2881
1140.350342 85.324 7.2611
1148.613770 85.395 7.2252
1156.937134 85.466 7.1812
1165.320801 85.535 7.1295
1173.765137 85.605 7.0713
1182.270752 85.674 7.0075
1190.838013 85.744 6.9393
1199.467285 85.813 6.8682
1208.159180 85.883 6.7933
1216.913940 85.953 6.7137
1225.732178 86.024 6.6303
1234.614380 86.094 6.5439
1243.560913 86.165 6.4533
1252.572266 86.236 6.3579
1261.648926 86.309 6.2574
1270.791382 86.381 6.1516
1280.000000 86.455 6.0404
1289.275391 86.529 5.9240
1298.618042 86.604 5.8025
1308.028320 86.679 5.6765
1317.506836 86.755 5.5446
1327.054077 86.833 5.4066
1336.670410 86.912 5.2596
1346.356567 86.991 5.1003
1356.112793 87.072 4.9297
1365.939697 87.152 4.7471
1375.837891 87.233 4.5538
1385.807739 87.313 4.3503
1395.849854 87.394 4.1379
1405.964844 87.473 3.9167
1416.152954 87.551 3.6908
1426.415039 87.628 3.4640
1436.751465 87.706 3.2369
1447.162720 87.784 3.0124
1457.649414 87.864 2.7879
1468.212158 87.945 2.5624
1478.851440 88.028 2.3339
1489.567871 88.112 2.1013
1500.361816 88.199 1.8609
1511.234131 88.288 1.6097
1522.185059 88.380 1.3452
1533.215454 88.473 1.0632
1544.325806 88.567 0.7663
1555.516602 88.659 0.4553
1566.788574 88.753 0.1314
1578.142090 88.847 -0.2033
1589.578003 88.943 -0.5505
1601.096680 89.039 -0.9119
1612.698975 89.137 -1.2854
1624.385254 89.233 -1.6697
1636.156250 89.330 -2.0642
1648.012451 89.429 -2.4654
1659.954590 89.530 -2.8804
1671.983398 89.634 -3.3156
1684.099243 89.740 -3.7711
1696.302856 89.844 -4.2497
1708.594971 89.949 -4.7497
1720.976196 90.054 -5.2695
1733.447144 90.161 -5.8106
1746.008423 90.266 -6.3750
1758.660645 90.372 -6.9596
1771.404663 90.475 -7.5621
1784.240967 90.579 -8.1814
1797.170288 90.682 -8.8156
1810.193359 90.785 -9.4654
1823.310791 90.888 -10.1301
1836.523193 90.992 -10.8123
1849.831421 91.096 -11.5135
1863.236084 91.201 -12.2357
1876.737793 91.305 -12.9804
1890.337524 91.410 -13.7506
1904.035645 91.516 -14.5500
1917.833008 91.622 -15.3787
1931.730469 91.725 -16.2395
1945.728638 91.826 -17.1271
1959.828125 91.923 -18.0367
1974.029907 92.019 -18.9700
1988.334473 92.114 -19.9277
2002.742798 92.208 -20.9090
2017.255493 92.297 -21.9136
2031.873291 92.384 -22.9399
2046.597168 92.469 -23.9848
2061.427734 92.553 -25.0522
2076.365479 92.633 -26.1465
2091.411865 92.711 -27.2643
2106.566895 92.784 -28.4041
2121.832031 92.854 -29.5651
2137.207764 92.919 -30.7470
2152.694824 92.981 -31.9462
2168.294189 93.037 -33.1601
2184.006592 93.088 -34.3854
2199.832764 93.135 -35.6184
2215.773682 93.177 -36.8579
2231.830078 93.214 -38.1020
2248.002686 93.248 -39.3498
2264.292725 93.278 -40.5989
2280.700684 93.305 -41.8516
2297.227539 93.329 -43.1097
2313.874268 93.349 -44.3718
2330.641602 93.364 -45.6375
2347.530273 93.376 -46.9055
2364.541504 93.384 -48.1747
2381.676025 93.388 -49.4442
2398.934570 93.388 -50.7145
2416.318359 93.383 -51.9813
2433.827881 93.372 -53.2418
2451.464355 93.357 -54.4928
2469.228760 93.338 -55.7305
2487.121826 93.315 -56.9538
2505.144531 93.289 -58.1607
2523.297852 93.259 -59.3506
2541.582764 93.227 -60.5220
2560.000000 93.193 -61.6759
2578.550781 93.157 -62.8129
2597.236084 93.120 -63.9339
2616.056641 93.081 -65.0399
2635.013672 93.041 -66.1304
2654.108154 92.999 -67.2053
2673.340820 92.956 -68.2644
2692.713135 92.913 -69.3071
2712.225586 92.868 -70.3342
2731.879395 92.823 -71.3472
2751.675781 92.777 -72.3444
2771.615479 92.730 -73.3245
2791.699707 92.682 -74.2878
2811.929688 92.636 -75.2329
2832.305908 92.591 -76.1637
2852.830078 92.547 -77.0836
2873.502930 92.503 -77.9921
2894.325439 92.460 -78.8892
2915.298828 92.418 -79.7760
2936.424316 92.378 -80.6530
2957.702881 92.338 -81.5212
2979.135742 92.300 -82.3816
3000.723633 92.263 -83.2353
3022.468262 92.229 -84.0828
3044.370117 92.196 -84.9261
3066.430908 92.165 -85.7687
3088.651611 92.135 -86.6082
3111.033203 92.106 -87.4428
3133.577148 92.079 -88.2750
3156.284180 92.056 -89.1057
3179.156006 92.035 -89.9380
3202.193359 92.016 -90.7756
3225.397949 92.000 -91.6190
3248.770508 91.986 -92.4694
3272.312500 91.974 -93.3291
3296.024902 91.965 -94.1999
3319.909180 91.959 -95.0849
3343.966797 91.955 -95.9878
3368.198486 91.953 -96.9086
3392.605713 91.951 -97.8488
3417.189941 91.950 -98.8075
3441.952393 91.950 -99.7844
3466.894287 91.950 -100.7785
3492.016846 91.951 -101.7886
3517.321289 91.952 -102.8152
3542.809326 91.953 -103.8576
3568.481934 91.956 -104.9180
3594.340576 91.960 -105.9974
3620.386719 91.966 -107.0997
3646.621582 91.973 -108.2290
3673.046387 91.980 -109.3864
3699.662842 91.987 -110.5742
3726.472168 91.994 -111.7933
3753.475586 92.000 -113.0454
3780.675049 92.006 -114.3311
3808.071289 92.010 -115.6527
3835.666016 92.012 -117.0075
3863.460938 92.010 -118.3942
3891.457275 92.004 -119.8112
3919.656250 91.997 -121.2554
3948.059814 91.986 -122.7291
3976.668945 91.972 -124.2345
4005.485596 91.953 -125.7694
4034.510986 91.930 -127.3331
4063.746582 91.901 -128.9244
4093.194336 91.868 -130.5417
4122.855469 91.830 -132.1849
4152.730957 91.785 -133.8546
4182.823730 91.733 -135.5459
4213.133789 91.673 -137.2566
4243.664062 91.605 -138.9798
4274.415527 91.529 -140.7094
4305.389648 91.443 -142.4406
4336.588379 91.350 -144.1681
4368.013184 91.249 -145.8869
4399.665527 91.138 -147.5908
4431.547363 91.021 -149.2778
4463.660156 90.896 -150.9434
4496.005371 90.766 -152.5888
4528.585449 90.630 -154.2145
4561.401367 90.489 -155.8184
4594.455078 90.341 -157.3992
4627.748535 90.188 -158.9555
4661.283203 90.030 -160.4858
4695.060547 89.867 -161.9877
4729.083008 89.697 -163.4610
4763.352051 89.522 -164.8983
4797.869141 89.341 -166.2916
4832.636719 89.155 -167.6423
4867.655762 88.967 -168.9495
4902.928711 88.776 -170.2119
4938.457520 88.581 -171.4285
4974.243652 88.384 -172.5986
5010.289062 88.187 -173.7196
5046.595703 87.990 -174.7967
5083.165527 87.794 -175.8353
5120.000000 87.597 -176.8322
5157.101562 87.399 -177.7858
5194.472168 87.201 -178.6967
5232.113281 87.005 -179.5638
5270.027344 86.810 179.6100
5308.216309 86.617 178.8223
5346.681641 86.426 178.0736
5385.426270 86.237 177.3641
5424.451172 86.050 176.6932
5463.758789 85.867 176.0610
5503.351562 85.687 175.4658
5543.230957 85.510 174.9058
5583.399414 85.337 174.3815
5623.859375 85.167 173.8940
5664.611816 85.003 173.4401
5705.660156 84.844 173.0186
5747.005859 84.692 172.6250
5788.650879 84.546 172.2549
5830.597656 84.406 171.9067
5872.848633 84.271 171.5779
5915.405762 84.144 171.2665
5958.271484 84.023 170.9705
6001.447266 83.910 170.6874
6044.936523 83.802 170.4139
6088.740234 83.700 170.1513
6132.861816 83.604 169.8999
6177.303223 83.514 169.6602
6222.066406 83.431 169.4332
6267.154297 83.355 169.2170
6312.568359 83.287 169.0110
6358.312012 83.227 168.8120
6404.386719 83.176 168.6177
6450.795898 83.134 168.4260
6497.541016 83.101 168.2351
6544.625000 83.078 168.0410
6592.049805 83.066 167.8403
6639.818359 83.064 167.6291
6687.933594 83.072 167.4043
6736.396973 83.092 167.1603
6785.211426 83.125 166.8927
6834.379883 83.170 166.5956
6883.904785 83.226 166.2648
6933.788574 83.295 165.8911
6984.033691 83.378 165.4658
7034.642578 83.473 164.9826
7085.618652 83.579 164.4337
7136.963867 83.696 163.8153
7188.681152 83.825 163.1247
7240.773438 83.964 162.3511
7293.243164 84.116 161.4850
7346.092773 84.277 160.5191
7399.325684 84.447 159.4440
7452.944336 84.623 158.2573
7506.951172 84.806 156.9558
7561.350098 84.994 155.5317
7616.142578 85.188 153.9774
7671.332031 85.386 152.2881
7726.921875 85.585 150.4573
7782.914551 85.784 148.4816
7839.312500 85.983 146.3572
7896.119629 86.180 144.0765
7953.337891 86.373 141.6310
8010.971191 86.559 139.0193
8069.021973 86.734 136.2327
8127.493164 86.894 133.2850
8186.388672 87.034 130.1802
8245.710938 87.152 126.9384
8305.461914 87.249 123.5728
8365.647461 87.321 120.1085
8426.267578 87.364 116.5668
8487.328125 87.381 112.9750
8548.831055 87.372 109.3654
8610.779297 87.341 105.7461
8673.176758 87.293 102.1363
8736.026367 87.227 98.5355
8799.331055 87.146 94.9524
8863.094727 87.054 91.3788
8927.320312 86.953 87.8146
8992.010742 86.845 84.2439
9057.170898 86.729 80.6546
9122.802734 86.606 77.0352
9188.910156 86.475 73.3742
9255.497070 86.335 69.6602
9322.566406 86.186 65.8778
9390.121094 86.024 62.0285
9458.166016 85.844 58.1068
9526.704102 85.645 54.1202
9595.738281 85.426 50.0687
9665.273438 85.182 45.9698
9735.311523 84.909 41.8291
9805.857422 84.604 37.6825
9876.915039 84.262 33.5575
9948.487305 83.886 29.4839
10020.578125 83.478 25.4901
10093.191406 83.035 21.6067
10166.331055 82.555 17.8627
10240.000000 82.042 14.2914
10314.203125 81.497 10.9326
10388.944336 80.926 7.7964
10464.226562 80.336 4.9057
10540.054688 79.729 2.2610
10616.432617 79.106 -0.1288
10693.363281 78.476 -2.2651
10770.852539 77.844 -4.1400
10848.902344 77.216 -5.7748
10927.517578 76.601 -7.1831
11006.703125 75.998 -8.3801
11086.461914 75.409 -9.3807
11166.798828 74.839 -10.1979
11247.718750 74.293 -10.8413
11329.223633 73.773 -11.3348
11411.320312 73.281 -11.6996
11494.011719 72.818 -11.9539
11577.301758 72.387 -12.1164
11661.195312 71.989 -12.2067
11745.697266 71.628 -12.2401
11830.811523 71.306 -12.2479
11916.542969 71.026 -12.2560
12002.894531 70.788 -12.2966
12089.873047 70.593 -12.3994
12177.480469 70.440 -12.5985
12265.723633 70.330 -12.9211
12354.606445 70.264 -13.4177
12444.132812 70.244 -14.1306
12534.308594 70.261 -15.1119
12625.136719 70.313 -16.4164
12716.624023 70.389 -18.0792
12808.773438 70.481 -20.1461
12901.591797 70.577 -22.6385
12995.082031 70.670 -25.6002
13089.250000 70.742 -29.0107
13184.099609 70.777 -32.8834
13279.636719 70.767 -37.1580
13375.867188 70.701 -41.8080
13472.793945 70.571 -46.7443
13570.422852 70.364 -51.9047
13668.759766 70.079 -57.1815
13767.809570 69.710 -62.4727
13867.577148 69.261 -67.6970
13968.067383 68.734 -72.7643
14069.285156 68.130 -77.6003
14171.237305 67.445 -82.1146
14273.927734 66.696 -86.2651
14377.362305 65.892 -89.9747
14481.546875 65.045 -93.2601
14586.486328 64.171 -96.1078
14692.185547 63.272 -98.5331
14798.651367 62.352 -100.5300
14905.888672 61.430 -102.1456
15013.902344 60.529 -103.4046
15122.700195 59.647 -104.3702
15232.285156 58.792 -105.1063
15342.664062 57.963 -105.6373
15453.843750 57.163 -106.0007
15565.829102 56.394 -106.2202
15678.625000 55.663 -106.3337
15792.239258 54.957 -106.3363
15906.675781 54.265 -106.2366
16021.942383 53.593 -106.0304
16138.043945 52.943 -105.7064
16254.986328 52.317 -105.2946
16372.777344 51.715 -104.8142
16491.421875 51.139 -104.2860
16610.923828 50.587 -103.7266
16731.294922 50.066 -103.1672
16852.535156 49.584 -102.6350
16974.656250 49.132 -102.1597
17097.662109 48.707 -101.7822
17221.558594 48.301 -101.4955
17346.353516 47.908 -101.3110
17472.052734 47.523 -101.2134
17598.662109 47.144 -101.1947
17726.189453 46.767 -101.2435
17854.640625 46.389 -101.3489
17984.021484 46.011 -101.5011
18114.341797 45.633 -101.6877
18245.605469 45.254 -101.9067
18377.820312 44.876 -102.1526
18510.994141 44.498 -102.4224
18645.132812 44.120 -102.7118
18780.242188 43.742 -103.0193
18916.332031 43.364 -103.3427
19053.408203 42.986 -103.6801
19191.476562 42.608 -104.0295
19330.546875 42.230 -104.3900
19470.623047 41.852 -104.7601
19611.714844 41.474 -105.1388
19753.830078 41.096 -105.5248
19896.974609 40.718 -105.9176
