* Measurement data measured by REW V5.20.13
* Source: C:\Users\kurin\Desktop\Targets and Curves\Resolve\Img\Files\Blessing3_L_SPL.txt
* Format: Comma/Tab/Space delimited data
* Dated: Aug 14, 2023 3:05:29 PM
* REW Settings:
*  C-weighting compensation: Off
*  Target level: 75.0 dB
* Note: ; Measurement imported from C:\Users\kurin\Desktop\Targets and Curves\Resolve\Img\Files\Blessing3_L_SPL.txt Format: Comma/Tab/Space delimited data 623 values loaded, 5 Hz to 39,792 Hz log spaced 
* Measurement: Blessing3_L_SPL
* Smoothing: 1/48 octave
* Frequency Step: 1/96 octave
* Start Frequency: 5.000 Hz
*
* Freq(Hz) SPL(dB) Phase(degrees)
5.000000 94.445 -13.0010
5.036232 94.442 -13.0043
5.072727 94.438 -13.0080
5.109486 94.433 -13.0125
5.146511 94.428 -13.0180
5.183805 94.422 -13.0251
5.221369 94.415 -13.0330
5.259205 94.408 -13.0407
5.297316 94.400 -13.0490
5.335702 94.392 -13.0582
5.374367 94.383 -13.0680
5.413311 94.375 -13.0779
5.452538 94.367 -13.0880
5.492050 94.359 -13.0980
5.531847 94.351 -13.1080
5.571934 94.343 -13.1180
5.612310 94.335 -13.1280
5.652979 94.326 -13.1379
5.693943 94.318 -13.1480
5.735204 94.310 -13.1584
5.776763 94.302 -13.1690
5.818624 94.294 -13.1800
5.860788 94.286 -13.1910
5.903258 94.278 -13.2015
5.946035 94.269 -13.2120
5.989123 94.261 -13.2229
6.032523 94.253 -13.2340
6.076237 94.245 -13.2449
6.120268 94.237 -13.2560
6.164618 94.229 -13.2674
6.209289 94.220 -13.2790
6.254284 94.212 -13.2905
6.299605 94.204 -13.3020
6.345255 94.196 -13.3134
6.391235 94.188 -13.3250
6.437549 94.180 -13.3369
6.484198 94.171 -13.3490
6.531185 94.163 -13.3610
6.578513 94.155 -13.3730
6.626183 94.147 -13.3849
6.674199 94.139 -13.3970
6.722563 94.131 -13.4094
6.771278 94.122 -13.4220
6.820345 94.114 -13.4350
6.869768 94.106 -13.4480
6.919549 94.098 -13.4605
6.969691 94.090 -13.4730
7.020196 94.081 -13.4859
7.071068 94.073 -13.4990
7.122308 94.065 -13.5119
7.173919 94.057 -13.5250
7.225904 94.049 -13.5384
7.278266 94.041 -13.5520
7.331007 94.033 -13.5654
7.384131 94.025 -13.5790
7.437639 94.017 -13.5929
7.491535 94.008 -13.6070
7.545822 94.000 -13.6209
7.600502 93.992 -13.6350
7.655579 93.984 -13.6494
7.711054 93.976 -13.6640
7.766932 93.967 -13.6785
7.823214 93.959 -13.6930
7.879904 93.951 -13.7074
7.937005 93.943 -13.7220
7.994520 93.935 -13.7369
8.052452 93.927 -13.7520
8.110803 93.919 -13.7669
8.169578 93.910 -13.7820
8.228777 93.902 -13.7974
8.288406 93.894 -13.8130
8.348468 93.886 -13.8284
8.408964 93.878 -13.8440
8.469899 93.869 -13.8599
8.531276 93.861 -13.8760
8.593097 93.853 -13.8919
8.655366 93.845 -13.9080
8.718086 93.837 -13.9244
8.781260 93.829 -13.9410
8.844893 93.821 -13.9574
8.908987 93.812 -13.9740
8.973545 93.804 -13.9909
9.038571 93.796 -14.0080
9.104069 93.788 -14.0255
9.170040 93.780 -14.0430
9.236490 93.771 -14.0599
9.303422 93.763 -14.0770
9.370838 93.755 -14.0949
9.438744 93.747 -14.1130
9.507140 93.739 -14.1310
9.576033 93.731 -14.1490
9.645425 93.723 -14.1669
9.715320 93.715 -14.1850
9.785721 93.706 -14.2039
9.856632 93.698 -14.2230
9.928058 93.690 -14.2414
10.000000 93.682 -14.2600
10.072464 93.674 -14.2794
10.145453 93.666 -14.2990
10.218971 93.658 -14.3185
10.293022 93.649 -14.3380
10.367610 93.641 -14.3574
10.442738 93.633 -14.3770
10.518411 93.625 -14.3969
10.594631 93.617 -14.4170
10.671404 93.608 -14.4374
10.748734 93.600 -14.4580
10.826623 93.592 -14.4789
10.905077 93.584 -14.5000
10.984100 93.576 -14.5209
11.063695 93.568 -14.5420
11.143867 93.560 -14.5634
11.224621 93.551 -14.5850
11.305959 93.543 -14.6064
11.387886 93.535 -14.6280
11.470407 93.527 -14.6504
11.553527 93.519 -14.6730
11.637249 93.511 -14.6954
11.721577 93.502 -14.7180
11.806517 93.494 -14.7409
11.892071 93.486 -14.7640
11.978246 93.478 -14.7869
12.065045 93.470 -14.8100
12.152473 93.462 -14.8334
12.240536 93.453 -14.8570
12.329235 93.445 -14.8809
12.418578 93.437 -14.9050
12.508568 93.429 -14.9294
12.599211 93.421 -14.9540
12.690510 93.413 -14.9789
12.782471 93.405 -15.0040
12.875097 93.397 -15.0294
12.968395 93.388 -15.0550
13.062370 93.380 -15.0804
13.157025 93.372 -15.1060
13.252366 93.364 -15.1319
13.348398 93.356 -15.1580
13.445127 93.348 -15.1843
13.542556 93.339 -15.2110
13.640691 93.331 -15.2384
13.739536 93.323 -15.2660
13.839099 93.315 -15.2934
13.939383 93.307 -15.3210
14.040393 93.299 -15.3489
14.142136 93.290 -15.3770
14.244616 93.282 -15.4049
14.347837 93.274 -15.4330
14.451808 93.266 -15.4618
14.556532 93.258 -15.4910
14.662014 93.250 -15.5204
14.768262 93.241 -15.5500
14.875278 93.233 -15.5798
14.983070 93.225 -15.6100
15.091644 93.217 -15.6408
15.201005 93.209 -15.6720
15.311157 93.201 -15.7029
15.422109 93.192 -15.7340
15.533863 93.184 -15.7653
15.646428 93.176 -15.7970
15.759809 93.168 -15.8294
15.874010 93.160 -15.8620
15.989040 93.152 -15.8944
16.104904 93.143 -15.9270
16.221605 93.135 -15.9603
16.339155 93.127 -15.9940
16.457554 93.119 -16.0278
16.576813 93.111 -16.0620
16.696936 93.103 -16.0969
16.817928 93.095 -16.1320
16.939798 93.087 -16.1668
17.062551 93.078 -16.2020
17.186193 93.070 -16.2378
17.310732 93.062 -16.2740
17.436172 93.054 -16.3104
17.562521 93.046 -16.3470
17.689787 93.038 -16.3838
17.817974 93.029 -16.4210
17.947090 93.021 -16.4583
18.077143 93.013 -16.4960
18.208138 93.005 -16.5343
18.340080 92.997 -16.5730
18.472980 92.989 -16.6119
18.606844 92.980 -16.6510
18.741676 92.972 -16.6900
18.877487 92.964 -16.7290
19.014280 92.956 -16.7680
19.152065 92.948 -16.8070
19.290850 92.940 -16.8459
19.430639 92.932 -16.8850
19.571442 92.924 -16.9242
19.713264 92.917 -16.9640
19.856115 92.909 -17.0046
20.000000 92.902 -17.0470
20.144928 92.896 -17.0924
20.290907 92.890 -17.1400
20.437943 92.883 -17.1893
20.586044 92.875 -17.2400
20.735220 92.867 -17.2909
20.885475 92.860 -17.3429
21.036821 92.853 -17.3964
21.189262 92.846 -17.4519
21.342808 92.839 -17.5107
21.497467 92.832 -17.5709
21.653246 92.824 -17.6312
21.810154 92.815 -17.6919
21.968201 92.807 -17.7532
22.127390 92.798 -17.8149
22.287735 92.789 -17.8779
22.449242 92.780 -17.9400
22.611917 92.770 -17.9989
22.775772 92.759 -18.0549
22.940815 92.749 -18.1064
23.107054 92.740 -18.1559
23.274498 92.732 -18.2053
23.443153 92.725 -18.2559
23.613033 92.718 -18.3098
23.784142 92.711 -18.3669
23.956491 92.704 -18.4281
24.130091 92.698 -18.4929
24.304947 92.692 -18.5615
24.481071 92.685 -18.6339
24.658470 92.679 -18.7100
24.837156 92.672 -18.7899
25.017136 92.665 -18.8744
25.198421 92.658 -18.9619
25.381020 92.649 -19.0513
25.564941 92.640 -19.1419
25.750195 92.631 -19.2324
25.936790 92.621 -19.3239
26.124741 92.611 -19.4180
26.314051 92.600 -19.5119
26.504732 92.588 -19.6026
26.696796 92.576 -19.6919
26.890253 92.564 -19.7804
27.085112 92.553 -19.8689
27.281382 92.542 -19.9586
27.479073 92.530 -20.0489
27.678198 92.518 -20.1388
27.878765 92.506 -20.2299
28.080786 92.494 -20.3241
28.284271 92.482 -20.4199
28.489231 92.469 -20.5169
28.695675 92.455 -20.6139
28.903616 92.441 -20.7088
29.113064 92.426 -20.8029
29.324028 92.412 -20.8966
29.536524 92.398 -20.9899
29.750557 92.383 -21.0825
29.966141 92.368 -21.1749
30.183289 92.353 -21.2678
30.402010 92.337 -21.3609
30.622314 92.322 -21.4548
30.844217 92.306 -21.5479
31.067726 92.289 -21.6388
31.292856 92.271 -21.7269
31.519617 92.253 -21.8103
31.748020 92.236 -21.8909
31.978081 92.219 -21.9700
32.209808 92.202 -22.0469
32.443211 92.185 -22.1204
32.678310 92.169 -22.1939
32.915108 92.155 -22.2697
33.153625 92.142 -22.3499
33.393871 92.129 -22.4382
33.635857 92.115 -22.5319
33.879597 92.100 -22.6291
34.125103 92.085 -22.7299
34.372387 92.069 -22.8337
34.621464 92.053 -22.9398
34.872345 92.035 -23.0486
35.125042 92.016 -23.1569
35.379574 91.996 -23.2615
35.635948 91.975 -23.3629
35.894180 91.954 -23.4598
36.154285 91.933 -23.5539
36.416275 91.912 -23.6470
36.680161 91.891 -23.7379
36.945961 91.869 -23.8263
37.213688 91.846 -23.9109
37.483353 91.823 -23.9893
37.754974 91.801 -24.0639
38.028561 91.780 -24.1358
38.304131 91.759 -24.2059
38.581699 91.738 -24.2753
38.861279 91.717 -24.3439
39.142883 91.697 -24.4113
39.426529 91.677 -24.4799
39.712231 91.659 -24.5513
40.000000 91.641 -24.6269
40.289856 91.623 -24.7094
40.581814 91.604 -24.7959
40.875885 91.584 -24.8849
41.172089 91.563 -24.9749
41.470440 91.541 -25.0634
41.770950 91.519 -25.1509
42.073643 91.497 -25.2370
42.378525 91.474 -25.3209
42.685616 91.451 -25.4013
42.994934 91.427 -25.4789
43.306492 91.404 -25.5537
43.620308 91.381 -25.6269
43.936401 91.358 -25.6994
44.254780 91.336 -25.7719
44.575470 91.314 -25.8444
44.898483 91.293 -25.9189
45.223835 91.272 -25.9978
45.551544 91.250 -26.0799
45.881630 91.228 -26.1652
46.214108 91.206 -26.2529
46.548996 91.183 -26.3422
46.886307 91.159 -26.4329
47.226067 91.135 -26.5249
47.568283 91.110 -26.6168
47.912983 91.084 -26.7080
48.260181 91.057 -26.7969
48.609894 91.029 -26.8817
48.962143 91.000 -26.9619
49.316940 90.971 -27.0357
49.674313 90.942 -27.1039
50.034271 90.913 -27.1663
50.396843 90.884 -27.2239
50.762039 90.856 -27.2768
51.129883 90.829 -27.3269
51.500389 90.803 -27.3753
51.873581 90.777 -27.4249
52.249481 90.753 -27.4792
52.628101 90.730 -27.5379
53.009464 90.706 -27.6020
53.393593 90.682 -27.6719
53.780506 90.658 -27.7484
54.170223 90.634 -27.8309
54.562763 90.609 -27.9199
54.958145 90.582 -28.0119
55.356396 90.552 -28.1045
55.757530 90.521 -28.1949
56.161572 90.489 -28.2797
56.568542 90.456 -28.3579
56.978462 90.421 -28.4268
57.391350 90.386 -28.4879
57.807232 90.352 -28.5413
58.226128 90.318 -28.5879
58.648056 90.283 -28.6281
59.073048 90.249 -28.6629
59.501114 90.216 -28.6932
59.932281 90.184 -28.7210
60.366577 90.153 -28.7484
60.804020 90.123 -28.7760
61.244629 90.092 -28.8052
61.688435 90.061 -28.8349
62.135452 90.030 -28.8645
62.585712 90.000 -28.8939
63.039234 89.970 -28.9232
63.496040 89.939 -28.9520
63.956161 89.908 -28.9793
64.419617 89.878 -29.0070
64.886421 89.849 -29.0365
65.356621 89.819 -29.0679
65.830215 89.789 -29.1021
66.307251 89.758 -29.1379
66.787743 89.727 -29.1751
67.271713 89.696 -29.2129
67.759193 89.664 -29.2518
68.250206 89.631 -29.2889
68.744774 89.597 -29.3217
69.242928 89.562 -29.3500
69.744690 89.527 -29.3724
70.250084 89.492 -29.3900
70.759148 89.457 -29.4027
71.271896 89.423 -29.4120
71.788361 89.390 -29.4186
72.308571 89.357 -29.4250
72.832550 89.325 -29.4339
73.360321 89.293 -29.4450
73.891922 89.261 -29.4598
74.427376 89.228 -29.4760
74.966705 89.194 -29.4920
75.509949 89.160 -29.5070
76.057121 89.125 -29.5197
76.608261 89.090 -29.5300
77.163399 89.054 -29.5375
77.722557 89.018 -29.5420
78.285767 88.982 -29.5428
78.853058 88.945 -29.5400
79.424461 88.909 -29.5335
80.000000 88.873 -29.5240
80.579712 88.837 -29.5121
81.163628 88.801 -29.4980
81.751770 88.765 -29.4820
82.344177 88.729 -29.4640
82.940880 88.693 -29.4447
83.541901 88.656 -29.4230
84.147285 88.620 -29.3984
84.757050 88.584 -29.3711
85.371231 88.548 -29.3410
85.989868 88.511 -29.3081
86.612984 88.475 -29.2718
87.240616 88.440 -29.2331
87.872803 88.405 -29.1921
88.509560 88.370 -29.1501
89.150940 88.336 -29.1077
89.796967 88.302 -29.0661
90.447670 88.269 -29.0261
91.103088 88.236 -28.9891
91.763260 88.203 -28.9574
92.428215 88.170 -28.9291
93.097992 88.136 -28.9039
93.772614 88.100 -28.8791
94.452133 88.064 -28.8521
95.136566 88.027 -28.8221
95.825966 87.988 -28.7875
96.520363 87.949 -28.7471
97.219788 87.910 -28.6989
97.924286 87.870 -28.6441
98.633881 87.831 -28.5823
99.348625 87.792 -28.5161
100.068542 87.755 -28.4483
100.793686 87.718 -28.3792
101.524078 87.681 -28.3100
102.259766 87.643 -28.2402
103.000778 87.606 -28.1698
103.747162 87.569 -28.0981
104.498962 87.531 -28.0249
105.256203 87.492 -27.9482
106.018929 87.453 -27.8662
106.787186 87.413 -27.7782
107.561012 87.373 -27.6824
108.340446 87.334 -27.5802
109.125526 87.295 -27.4716
109.916290 87.257 -27.3582
110.712791 87.220 -27.2412
111.515060 87.183 -27.1213
112.323143 87.147 -26.9994
113.137085 87.111 -26.8763
113.956924 87.077 -26.7523
114.782700 87.043 -26.6283
115.614464 87.009 -26.5063
116.452255 86.974 -26.3832
117.296112 86.939 -26.2565
118.146095 86.905 -26.1273
119.002228 86.872 -25.9955
119.864563 86.839 -25.8624
120.733154 86.807 -25.7296
121.608040 86.774 -25.5963
122.489258 86.741 -25.4614
123.376869 86.709 -25.3263
124.270905 86.677 -25.1920
125.171425 86.646 -25.0582
126.078468 86.615 -24.9262
126.992081 86.583 -24.7933
127.912323 86.550 -24.6570
128.839233 86.517 -24.5183
129.772842 86.485 -24.3773
130.713242 86.453 -24.2343
131.660431 86.421 -24.0898
132.614502 86.388 -23.9424
133.575485 86.356 -23.7900
134.543427 86.324 -23.6353
135.518387 86.293 -23.4807
136.500412 86.262 -23.3253
137.489548 86.230 -23.1697
138.485855 86.198 -23.0114
139.489380 86.166 -22.8475
140.500168 86.134 -22.6794
141.518295 86.102 -22.5078
142.543793 86.070 -22.3314
143.576721 86.038 -22.1489
144.617142 86.006 -21.9604
145.665100 85.975 -21.7649
146.720642 85.945 -21.5646
147.783844 85.916 -21.3607
148.854752 85.888 -21.1545
149.933411 85.862 -20.9466
151.019897 85.837 -20.7395
152.114243 85.813 -20.5367
153.216522 85.789 -20.3366
154.326797 85.765 -20.1389
155.445114 85.741 -19.9435
156.571533 85.718 -19.7499
157.706116 85.695 -19.5574
158.848923 85.671 -19.3654
160.000000 85.647 -19.1725
161.159424 85.622 -18.9769
162.327255 85.598 -18.7794
163.503540 85.574 -18.5802
164.688354 85.551 -18.3794
165.881760 85.527 -18.1775
167.083801 85.503 -17.9735
168.294571 85.480 -17.7666
169.514099 85.456 -17.5565
170.742462 85.432 -17.3434
171.979736 85.408 -17.1256
173.225967 85.384 -16.9011
174.481232 85.360 -16.6705
175.745605 85.337 -16.4331
177.019119 85.316 -16.1916
178.301880 85.296 -15.9478
179.593933 85.278 -15.7036
180.895340 85.261 -15.4615
182.206177 85.245 -15.2216
183.526520 85.229 -14.9852
184.856430 85.213 -14.7515
186.195984 85.198 -14.5210
187.545227 85.183 -14.2915
188.904266 85.167 -14.0621
190.273132 85.150 -13.8306
191.651932 85.134 -13.5935
193.040726 85.118 -13.3537
194.439575 85.104 -13.1128
195.848572 85.090 -12.8707
197.267761 85.075 -12.6282
198.697250 85.061 -12.3846
200.137085 85.048 -12.1392
201.587372 85.036 -11.8936
203.048157 85.024 -11.6500
204.519531 85.011 -11.4057
206.001556 84.999 -11.1593
207.494324 84.986 -10.9096
208.997925 84.973 -10.6550
210.512405 84.961 -10.3956
212.037857 84.949 -10.1315
213.574371 84.937 -9.8617
215.122025 84.926 -9.5845
216.680893 84.917 -9.3018
218.251053 84.909 -9.0147
219.832581 84.903 -8.7239
221.425583 84.897 -8.4302
223.030121 84.893 -8.1338
224.646286 84.890 -7.8336
226.274170 84.890 -7.5328
227.913849 84.892 -7.2334
229.565399 84.897 -6.9377
231.228928 84.904 -6.6482
232.904510 84.912 -6.3658
234.592224 84.922 -6.0915
236.292191 84.933 -5.8277
238.004456 84.947 -5.5771
239.729126 84.962 -5.3406
241.466309 84.977 -5.1208
243.216080 84.991 -4.9145
244.978516 85.004 -4.7200
246.753738 85.016 -4.5355
248.541809 85.028 -4.3598
250.342850 85.038 -4.1895
252.156937 85.046 -4.0213
253.984161 85.053 -3.8545
255.824646 85.060 -3.6864
257.678467 85.067 -3.5184
259.545685 85.074 -3.3508
261.426483 85.080 -3.1834
263.320862 85.086 -3.0163
265.229004 85.092 -2.8495
267.150970 85.098 -2.6834
269.086853 85.103 -2.5175
271.036774 85.109 -2.3518
273.000824 85.114 -2.1845
274.979095 85.117 -2.0137
276.971710 85.121 -1.8395
278.978760 85.126 -1.6606
281.000336 85.132 -1.4795
283.036591 85.139 -1.2983
285.087585 85.146 -1.1175
287.153442 85.154 -0.9375
289.234283 85.163 -0.7605
291.330200 85.173 -0.5890
293.441284 85.183 -0.4224
295.567688 85.193 -0.2620
297.709503 85.203 -0.1054
299.866821 85.212 0.0491
302.039795 85.221 0.2015
304.228485 85.230 0.3530
306.433044 85.239 0.5026
308.653595 85.248 0.6490
310.890228 85.256 0.7946
313.143066 85.264 0.9413
315.412231 85.271 1.0896
317.697845 85.278 1.2413
320.000000 85.286 1.3945
322.318848 85.295 1.5478
324.654510 85.304 1.7015
327.007080 85.312 1.8559
329.376709 85.321 2.0105
331.763519 85.331 2.1659
334.167603 85.342 2.3195
336.589142 85.354 2.4688
339.028198 85.366 2.6146
341.484924 85.377 2.7564
343.959473 85.388 2.8956
346.451935 85.400 3.0342
348.962463 85.412 3.1706
351.491211 85.424 3.3031
354.038239 85.436 3.4336
356.603760 85.447 3.5644
359.187866 85.459 3.6936
361.790680 85.471 3.8199
364.412354 85.484 3.9437
367.053040 85.496 4.0643
369.712860 85.508 4.1826
372.391968 85.521 4.2993
375.090454 85.533 4.4137
377.808533 85.545 4.5246
380.546265 85.556 4.6337
383.303864 85.567 4.7429
386.081451 85.579 4.8507
388.879150 85.591 4.9557
391.697144 85.603 5.0587
394.535522 85.614 5.1600
397.394501 85.624 5.2597
400.274170 85.635 5.3586
403.174744 85.646 5.4557
406.096313 85.657 5.5491
409.039062 85.667 5.6417
412.003113 85.675 5.7356
414.988647 85.683 5.8307
417.995850 85.692 5.9282
421.024811 85.701 6.0267
424.075714 85.710 6.1246
427.148743 85.718 6.2227
430.244049 85.726 6.3210
433.361786 85.734 6.4207
436.502106 85.742 6.5237
439.665161 85.750 6.6277
442.851166 85.759 6.7312
446.060242 85.768 6.8337
449.292572 85.777 6.9334
452.548340 85.785 7.0327
455.827698 85.793 7.1331
459.130798 85.800 7.2347
462.457855 85.808 7.3385
465.809021 85.816 7.4437
469.184448 85.824 7.5497
472.584381 85.832 7.6567
476.008911 85.839 7.7644
479.458252 85.847 7.8737
482.932617 85.855 7.9856
486.432159 85.863 8.0986
489.957031 85.872 8.2123
493.507477 85.882 8.3247
497.083618 85.893 8.4325
500.685699 85.903 8.5387
504.313873 85.912 8.6449
507.968323 85.921 8.7507
511.649292 85.931 8.8565
515.356934 85.941 8.9607
519.091370 85.951 9.0607
522.852966 85.961 9.1597
526.641724 85.969 9.2595
530.458008 85.977 9.3607
534.301941 85.985 9.4644
538.173706 85.993 9.5696
542.073547 86.001 9.6756
546.001648 86.010 9.7826
549.958191 86.018 9.8906
553.943420 86.026 10.0006
557.957520 86.034 10.1146
562.000671 86.042 10.2306
566.073181 86.051 10.3478
570.175171 86.060 10.4646
574.306885 86.070 10.5784
578.468567 86.080 10.6916
582.660400 86.088 10.8062
586.882568 86.097 10.9216
591.135376 86.107 11.0388
595.419006 86.118 11.1556
599.733643 86.128 11.2688
604.079590 86.138 11.3816
608.456970 86.147 11.4965
612.866089 86.156 11.6126
617.307190 86.166 11.7303
621.780457 86.177 11.8476
626.286133 86.187 11.9618
630.824463 86.197 12.0756
635.395691 86.206 12.1912
640.000000 86.215 12.3076
644.637695 86.225 12.4255
649.309021 86.235 12.5426
654.014160 86.245 12.6557
658.753418 86.255 12.7686
663.527039 86.262 12.8836
668.335205 86.269 13.0016
673.178284 86.276 13.1241
678.056396 86.283 13.2516
682.969849 86.289 13.3847
687.918945 86.294 13.5245
692.903870 86.300 13.6727
697.924927 86.307 13.8274
702.982422 86.315 13.9882
708.076477 86.323 14.1534
713.207520 86.332 14.3217
718.375732 86.342 14.4914
723.581360 86.353 14.6599
728.824707 86.365 14.8284
734.106079 86.376 14.9966
739.425720 86.387 15.1664
744.783936 86.398 15.3396
750.180908 86.409 15.5164
755.617065 86.420 15.6968
761.092529 86.432 15.8823
766.607727 86.444 16.0747
772.162903 86.456 16.2723
777.758301 86.470 16.4740
783.394287 86.485 16.6793
789.071045 86.501 16.8878
794.789001 86.517 17.0982
800.548340 86.535 17.3087
806.349487 86.553 17.5202
812.192627 86.571 17.7326
818.078125 86.590 17.9482
824.006226 86.609 18.1699
829.977295 86.629 18.3962
835.991699 86.650 18.6267
842.049622 86.673 18.8611
848.151428 86.696 19.0987
854.297485 86.721 19.3401
860.488098 86.747 19.5868
866.723572 86.776 19.8351
873.004211 86.807 20.0824
879.330322 86.840 20.3271
885.702332 86.875 20.5666
892.120483 86.911 20.8012
898.585144 86.948 21.0307
905.096680 86.987 21.2542
911.655396 87.027 21.4697
918.261597 87.068 21.6792
924.915710 87.109 21.8836
931.618042 87.150 22.0843
938.368896 87.191 22.2835
945.168762 87.234 22.4803
952.017822 87.277 22.6737
958.916504 87.322 22.8653
965.865234 87.366 23.0566
972.864319 87.412 23.2463
979.914062 87.460 23.4347
987.014954 87.511 23.6183
994.167236 87.562 23.7936
1001.371399 87.615 23.9614
1008.627747 87.669 24.1222
1015.936646 87.724 24.2744
1023.298584 87.780 24.4164
1030.713867 87.838 24.5486
1038.182739 87.895 24.6706
1045.705933 87.953 24.7835
1053.283447 88.011 24.8886
1060.916016 88.070 24.9856
1068.603882 88.129 25.0746
1076.347412 88.189 25.1557
1084.147095 88.249 25.2294
1092.003296 88.311 25.2938
1099.916382 88.373 25.3469
1107.886841 88.436 25.3888
1115.915039 88.498 25.4187
1124.001343 88.561 25.4370
1132.146362 88.624 25.4441
1140.350342 88.688 25.4390
1148.613770 88.750 25.4205
1156.937134 88.812 25.3902
1165.320801 88.872 25.3486
1173.765137 88.932 25.2982
1182.270752 88.991 25.2423
1190.838013 89.049 25.1793
1199.467285 89.106 25.1089
1208.159180 89.163 25.0313
1216.913940 89.218 24.9456
1225.732178 89.273 24.8543
1234.614380 89.326 24.7595
1243.560913 89.379 24.6614
1252.572266 89.430 24.5605
1261.648926 89.480 24.4574
1270.791382 89.529 24.3529
1280.000000 89.579 24.2464
1289.275391 89.628 24.1384
1298.618042 89.677 24.0275
1308.028320 89.725 23.9126
1317.506836 89.773 23.7935
1327.054077 89.820 23.6697
1336.670410 89.867 23.5415
1346.356567 89.913 23.4083
1356.112793 89.957 23.2725
1365.939697 89.999 23.1357
1375.837891 90.039 23.0006
1385.807739 90.078 22.8703
1395.849854 90.117 22.7445
1405.964844 90.155 22.6241
1416.152954 90.194 22.5084
1426.415039 90.232 22.3978
1436.751465 90.270 22.2904
1447.162720 90.309 22.1848
1457.649414 90.349 22.0794
1468.212158 90.388 21.9721
1478.851440 90.428 21.8634
1489.567871 90.467 21.7527
1500.361816 90.505 21.6424
1511.234131 90.543 21.5350
1522.185059 90.580 21.4305
1533.215454 90.617 21.3296
1544.325806 90.654 21.2324
1555.516602 90.691 21.1391
1566.788574 90.729 21.0494
1578.142090 90.767 20.9635
1589.578003 90.805 20.8803
1601.096680 90.844 20.7982
1612.698975 90.884 20.7183
1624.385254 90.923 20.6414
1636.156250 90.962 20.5683
1648.012451 91.003 20.5016
1659.954590 91.045 20.4372
1671.983398 91.089 20.3719
1684.099243 91.134 20.3063
1696.302856 91.179 20.2399
1708.594971 91.225 20.1723
1720.976196 91.273 20.1046
1733.447144 91.323 20.0323
1746.008423 91.374 19.9505
1758.660645 91.425 19.8624
1771.404663 91.475 19.7687
1784.240967 91.525 19.6724
1797.170288 91.575 19.5773
1810.193359 91.627 19.4814
1823.310791 91.679 19.3838
1836.523193 91.732 19.2854
1849.831421 91.785 19.1867
1863.236084 91.839 19.0874
1876.737793 91.893 18.9878
1890.337524 91.949 18.8864
1904.035645 92.006 18.7822
1917.833008 92.065 18.6754
1931.730469 92.124 18.5666
1945.728638 92.184 18.4545
1959.828125 92.246 18.3383
1974.029907 92.310 18.2175
1988.334473 92.374 18.0915
2002.742798 92.440 17.9605
2017.255493 92.506 17.8249
2031.873291 92.574 17.6836
2046.597168 92.644 17.5361
2061.427734 92.716 17.3807
2076.365479 92.789 17.2152
2091.411865 92.864 17.0398
2106.566895 92.940 16.8541
2121.832031 93.017 16.6578
2137.207764 93.095 16.4509
2152.694824 93.175 16.2319
2168.294189 93.256 15.9998
2184.006592 93.339 15.7542
2199.832764 93.422 15.4934
2215.773682 93.506 15.2192
2231.830078 93.590 14.9326
2248.002686 93.675 14.6333
2264.292725 93.761 14.3211
2280.700684 93.848 13.9954
2297.227539 93.935 13.6560
2313.874268 94.025 13.3015
2330.641602 94.116 12.9313
2347.530273 94.209 12.5427
2364.541504 94.302 12.1332
2381.676025 94.396 11.7020
2398.934570 94.491 11.2476
2416.318359 94.587 10.7692
2433.827881 94.683 10.2650
2451.464355 94.779 9.7363
2469.228760 94.874 9.1839
2487.121826 94.969 8.6065
2505.144531 95.063 8.0031
2523.297852 95.158 7.3739
2541.582764 95.251 6.7188
2560.000000 95.343 6.0381
2578.550781 95.433 5.3327
2597.236084 95.523 4.6005
2616.056641 95.611 3.8391
2635.013672 95.699 3.0494
2654.108154 95.783 2.2312
2673.340820 95.866 1.3848
2692.713135 95.945 0.5106
2712.225586 96.022 -0.3917
2731.879395 96.095 -1.3228
2751.675781 96.166 -2.2815
2771.615479 96.232 -3.2681
2791.699707 96.293 -4.2785
2811.929688 96.348 -5.3097
2832.305908 96.398 -6.3590
2852.830078 96.443 -7.4230
2873.502930 96.484 -8.5013
2894.325439 96.519 -9.5937
2915.298828 96.549 -10.6960
2936.424316 96.572 -11.8033
2957.702881 96.591 -12.9161
2979.135742 96.606 -14.0317
3000.723633 96.618 -15.1541
3022.468262 96.626 -16.2874
3044.370117 96.628 -17.4287
3066.430908 96.624 -18.5779
3088.651611 96.614 -19.7318
3111.033203 96.599 -20.8879
3133.577148 96.577 -22.0435
3156.284180 96.548 -23.1971
3179.156006 96.512 -24.3426
3202.193359 96.469 -25.4748
3225.397949 96.419 -26.5897
3248.770508 96.363 -27.6823
3272.312500 96.301 -28.7503
3296.024902 96.235 -29.7897
3319.909180 96.164 -30.8014
3343.966797 96.089 -31.7861
3368.198486 96.010 -32.7405
3392.605713 95.927 -33.6620
3417.189941 95.840 -34.5500
3441.952393 95.752 -35.4025
3466.894287 95.662 -36.2214
3492.016846 95.572 -37.0081
3517.321289 95.480 -37.7626
3542.809326 95.387 -38.4842
3568.481934 95.294 -39.1769
3594.340576 95.204 -39.8425
3620.386719 95.114 -40.4870
3646.621582 95.027 -41.1170
3673.046387 94.939 -41.7321
3699.662842 94.852 -42.3341
3726.472168 94.764 -42.9233
3753.475586 94.677 -43.5015
3780.675049 94.589 -44.0655
3808.071289 94.499 -44.6147
3835.666016 94.406 -45.1425
3863.460938 94.313 -45.6406
3891.457275 94.219 -46.1138
3919.656250 94.129 -46.5639
3948.059814 94.039 -46.9921
3976.668945 93.950 -47.3995
4005.485596 93.862 -47.7881
4034.510986 93.779 -48.1572
4063.746582 93.698 -48.5163
4093.194336 93.621 -48.8761
4122.855469 93.545 -49.2323
4152.730957 93.468 -49.5853
4182.823730 93.390 -49.9304
4213.133789 93.315 -50.2628
4243.664062 93.239 -50.5835
4274.415527 93.164 -50.8940
4305.389648 93.088 -51.1886
4336.588379 93.012 -51.4610
4368.013184 92.937 -51.7138
4399.665527 92.867 -51.9453
4431.547363 92.800 -52.1630
4463.660156 92.739 -52.3720
4496.005371 92.681 -52.5780
4528.585449 92.629 -52.7874
4561.401367 92.579 -53.0020
4594.455078 92.533 -53.2258
4627.748535 92.488 -53.4578
4661.283203 92.445 -53.6986
4695.060547 92.403 -53.9468
4729.083008 92.364 -54.2018
4763.352051 92.325 -54.4627
4797.869141 92.287 -54.7291
4832.636719 92.250 -54.9996
4867.655762 92.215 -55.2725
4902.928711 92.182 -55.5486
4938.457520 92.151 -55.8273
4974.243652 92.121 -56.1116
5010.289062 92.095 -56.4047
5046.595703 92.071 -56.7065
5083.165527 92.049 -57.0181
5120.000000 92.028 -57.3384
5157.101562 92.010 -57.6654
5194.472168 91.995 -58.0023
5232.113281 91.984 -58.3500
5270.027344 91.977 -58.7131
5308.216309 91.975 -59.0939
5346.681641 91.978 -59.5009
5385.426270 91.988 -59.9393
5424.451172 92.005 -60.4225
5463.758789 92.029 -60.9608
5503.351562 92.059 -61.5688
5543.230957 92.094 -62.2608
5583.399414 92.132 -63.0489
5623.859375 92.172 -63.9479
5664.611816 92.209 -64.9637
5705.660156 92.241 -66.1089
5747.005859 92.263 -67.3781
5788.650879 92.271 -68.7756
5830.597656 92.261 -70.2840
5872.848633 92.229 -71.8965
5915.405762 92.171 -73.5851
5958.271484 92.085 -75.3312
6001.447266 91.968 -77.0989
6044.936523 91.817 -78.8579
6088.740234 91.634 -80.5735
6132.861816 91.419 -82.2102
6177.303223 91.173 -83.7406
6222.066406 90.899 -85.1318
6267.154297 90.601 -86.3662
6312.568359 90.280 -87.4174
6358.312012 89.942 -88.2792
6404.386719 89.591 -88.9362
6450.795898 89.232 -89.3892
6497.541016 88.868 -89.6319
6544.625000 88.503 -89.6703
6592.049805 88.142 -89.5053
6639.818359 87.788 -89.1463
6687.933594 87.443 -88.5991
6736.396973 87.113 -87.8762
6785.211426 86.799 -86.9851
6834.379883 86.506 -85.9467
6883.904785 86.238 -84.7763
6933.788574 85.996 -83.4978
6984.033691 85.782 -82.1322
7034.642578 85.598 -80.7043
7085.618652 85.445 -79.2389
7136.963867 85.321 -77.7565
7188.681152 85.224 -76.2820
7240.773438 85.154 -74.8262
7293.243164 85.108 -73.4057
7346.092773 85.084 -72.0278
7399.325684 85.081 -70.7044
7452.944336 85.097 -69.4392
7506.951172 85.129 -68.2392
7561.350098 85.177 -67.1057
7616.142578 85.240 -66.0396
7671.332031 85.318 -65.0489
7726.921875 85.411 -64.1382
7782.914551 85.517 -63.3190
7839.312500 85.638 -62.6018
7896.119629 85.769 -61.9939
7953.337891 85.910 -61.5048
8010.971191 86.058 -61.1386
8069.021973 86.211 -60.9027
8127.493164 86.365 -60.7972
8186.388672 86.520 -60.8276
8245.710938 86.671 -60.9858
8305.461914 86.816 -61.2695
8365.647461 86.954 -61.6676
8426.267578 87.083 -62.1725
8487.328125 87.200 -62.7716
8548.831055 87.306 -63.4538
8610.779297 87.399 -64.2069
8673.176758 87.479 -65.0181
8736.026367 87.548 -65.8782
8799.331055 87.603 -66.7755
8863.094727 87.647 -67.7040
8927.320312 87.679 -68.6555
8992.010742 87.701 -69.6248
9057.170898 87.712 -70.6057
9122.802734 87.712 -71.5938
9188.910156 87.702 -72.5842
9255.497070 87.682 -73.5727
9322.566406 87.652 -74.5567
9390.121094 87.612 -75.5259
9458.166016 87.560 -76.4724
9526.704102 87.499 -77.3863
9595.738281 87.430 -78.2547
9665.273438 87.354 -79.0788
9735.311523 87.276 -79.8533
9805.857422 87.195 -80.5842
9876.915039 87.114 -81.2719
9948.487305 87.034 -81.9265
10020.578125 86.958 -82.5535
10093.191406 86.885 -83.1667
10166.331055 86.818 -83.7793
10240.000000 86.753 -84.3997
10314.203125 86.690 -85.0400
10388.944336 86.628 -85.7028
10464.226562 86.566 -86.3951
10540.054688 86.501 -87.1156
10616.432617 86.433 -87.8684
10693.363281 86.358 -88.6453
10770.852539 86.276 -89.4434
10848.902344 86.187 -90.2526
10927.517578 86.088 -91.0648
11006.703125 85.982 -91.8707
11086.461914 85.865 -92.6621
11166.798828 85.739 -93.4278
11247.718750 85.603 -94.1541
11329.223633 85.462 -94.8396
11411.320312 85.317 -95.4766
11494.011719 85.169 -96.0709
11577.301758 85.018 -96.6220
11661.195312 84.868 -97.1402
11745.697266 84.721 -97.6315
11830.811523 84.575 -98.1084
11916.542969 84.430 -98.5840
12002.894531 84.284 -99.0623
12089.873047 84.137 -99.5537
12177.480469 83.985 -100.0531
12265.723633 83.826 -100.5643
12354.606445 83.657 -101.0713
12444.132812 83.476 -101.5674
12534.308594 83.280 -102.0276
12625.136719 83.068 -102.4347
12716.624023 82.839 -102.7586
12808.773438 82.594 -102.9712
12901.591797 82.335 -103.0490
12995.082031 82.063 -102.9630
13089.250000 81.784 -102.7008
13184.099609 81.502 -102.2395
13279.636719 81.222 -101.5819
13375.867188 80.951 -100.7164
13472.793945 80.696 -99.6635
13570.422852 80.466 -98.4304
13668.759766 80.262 -97.0456
13767.809570 80.091 -95.5283
13867.577148 79.956 -93.9146
13968.067383 79.864 -92.2359
14069.285156 79.812 -90.5257
14171.237305 79.800 -88.8179
14273.927734 79.829 -87.1427
14377.362305 79.901 -85.5351
14481.546875 80.011 -84.0156
14586.486328 80.152 -82.6089
14692.185547 80.326 -81.3370
14798.651367 80.538 -80.2155
14905.888672 80.782 -79.2887
15013.902344 81.059 -78.6007
15122.700195 81.356 -78.1677
15232.285156 81.663 -78.0198
15342.664062 81.975 -78.1593
15453.843750 82.288 -78.5966
15565.829102 82.595 -79.3372
15678.625000 82.890 -80.4023
15792.239258 83.163 -81.7530
15906.675781 83.399 -83.3733
16021.942383 83.603 -85.2135
16138.043945 83.772 -87.2302
16254.986328 83.904 -89.3881
16372.777344 83.999 -91.6478
16491.421875 84.058 -93.9789
16610.923828 84.083 -96.3409
16731.294922 84.078 -98.7241
16852.535156 84.045 -101.1061
16974.656250 83.986 -103.4856
17097.662109 83.904 -105.8542
17221.558594 83.797 -108.2097
17346.353516 83.666 -110.5474
17472.052734 83.512 -112.8660
17598.662109 83.337 -115.1654
17726.189453 83.137 -117.4379
17854.640625 82.911 -119.6809
17984.021484 82.656 -121.8780
18114.341797 82.374 -124.0190
18245.605469 82.062 -126.0825
18377.820312 81.721 -128.0575
18510.994141 81.346 -129.9027
18645.132812 80.936 -131.5973
18780.242188 80.489 -133.0688
18916.332031 79.999 -134.2587
19053.408203 79.477 -135.1043
19191.476562 78.923 -135.5191
19330.546875 78.355 -135.5152
19470.623047 77.787 -135.0549
19611.714844 77.233 -134.2039
19753.830078 76.704 -132.9890
19896.974609 76.217 -131.4898
