* Measurement data measured by REW V5.20.13
* Source: C:\Users\kurin\Desktop\Targets and Curves\Resolve\Img\Files\dunu talos_Planar_SPL.txt
* Format: Comma/Tab/Space delimited data
* Dated: Aug 14, 2023 3:13:39 PM
* REW Settings:
*  C-weighting compensation: Off
*  Target level: 75.0 dB
* Note: ; Measurement imported from C:\Users\kurin\Desktop\Targets and Curves\Resolve\Img\Files\dunu talos_Planar_SPL.txt Format: Comma/Tab/Space delimited data 623 values loaded, 5 Hz to 39,792 Hz log spaced 
* Measurement: dunu talos_Planar_SPL
* Smoothing: 1/48 octave
* Frequency Step: 1/96 octave
* Start Frequency: 5.000 Hz
*
* Freq(Hz) SPL(dB) Phase(degrees)
5.000000 92.861 -8.0010
5.036232 92.859 -8.0054
5.072727 92.856 -8.0100
5.109486 92.854 -8.0151
5.146511 92.851 -8.0210
5.183805 92.847 -8.0285
5.221369 92.843 -8.0370
5.259205 92.839 -8.0462
5.297316 92.835 -8.0560
5.335702 92.831 -8.0659
5.374367 92.826 -8.0760
5.413311 92.822 -8.0864
5.452538 92.817 -8.0970
5.492050 92.812 -8.1079
5.531847 92.807 -8.1190
5.571934 92.802 -8.1300
5.612310 92.798 -8.1410
5.652979 92.794 -8.1519
5.693943 92.789 -8.1630
5.735204 92.785 -8.1744
5.776763 92.780 -8.1860
5.818624 92.775 -8.1975
5.860788 92.770 -8.2090
5.903258 92.765 -8.2204
5.946035 92.761 -8.2320
5.989123 92.757 -8.2439
6.032523 92.752 -8.2560
6.076237 92.747 -8.2680
6.120268 92.743 -8.2800
6.164618 92.739 -8.2919
6.209289 92.734 -8.3040
6.254284 92.729 -8.3164
6.299605 92.724 -8.3290
6.345255 92.719 -8.3414
6.391235 92.715 -8.3540
6.437549 92.711 -8.3669
6.484198 92.706 -8.3800
6.531185 92.701 -8.3930
6.578513 92.697 -8.4060
6.626183 92.693 -8.4189
6.674199 92.688 -8.4320
6.722563 92.683 -8.4454
6.771278 92.678 -8.4590
6.820345 92.673 -8.4724
6.869768 92.669 -8.4860
6.919549 92.665 -8.4999
6.969691 92.660 -8.5140
7.020196 92.656 -8.5280
7.071068 92.651 -8.5420
7.122308 92.646 -8.5559
7.173919 92.641 -8.5700
7.225904 92.636 -8.5844
7.278266 92.632 -8.5990
7.331007 92.628 -8.6134
7.384131 92.623 -8.6280
7.437639 92.618 -8.6429
7.491535 92.614 -8.6580
7.545822 92.610 -8.6729
7.600502 92.605 -8.6880
7.655579 92.600 -8.7034
7.711054 92.595 -8.7190
7.766932 92.590 -8.7344
7.823214 92.586 -8.7500
7.879904 92.582 -8.7659
7.937005 92.577 -8.7820
7.994520 92.573 -8.7979
8.052452 92.568 -8.8140
8.110803 92.563 -8.8304
8.169578 92.558 -8.8470
8.228777 92.553 -8.8634
8.288406 92.549 -8.8800
8.348468 92.545 -8.8969
8.408964 92.540 -8.9140
8.469899 92.535 -8.9309
8.531276 92.531 -8.9480
8.593097 92.527 -8.9654
8.655366 92.522 -8.9830
8.718086 92.517 -9.0009
8.781260 92.512 -9.0190
8.844893 92.507 -9.0370
8.908987 92.503 -9.0550
8.973545 92.499 -9.0729
9.038571 92.494 -9.0910
9.104069 92.490 -9.1094
9.170040 92.485 -9.1280
9.236490 92.480 -9.1469
9.303422 92.475 -9.1660
9.370838 92.470 -9.1849
9.438744 92.466 -9.2040
9.507140 92.462 -9.2234
9.576033 92.457 -9.2430
9.645425 92.452 -9.2629
9.715320 92.448 -9.2830
9.785721 92.444 -9.3029
9.856632 92.439 -9.3230
9.928058 92.434 -9.3434
10.000000 92.429 -9.3640
10.072464 92.424 -9.3844
10.145453 92.420 -9.4050
10.218971 92.416 -9.4259
10.293022 92.411 -9.4470
10.367610 92.407 -9.4684
10.442738 92.402 -9.4900
10.518411 92.397 -9.5119
10.594631 92.392 -9.5340
10.671404 92.387 -9.5559
10.748734 92.383 -9.5780
10.826623 92.379 -9.6004
10.905077 92.374 -9.6230
10.984100 92.369 -9.6459
11.063695 92.365 -9.6690
11.143867 92.361 -9.6919
11.224621 92.356 -9.7150
11.305959 92.351 -9.7389
11.387886 92.346 -9.7630
11.470407 92.341 -9.7869
11.553527 92.337 -9.8110
11.637249 92.333 -9.8354
11.721577 92.328 -9.8600
11.806517 92.324 -9.8849
11.892071 92.319 -9.9100
11.978246 92.314 -9.9349
12.065045 92.309 -9.9600
12.152473 92.304 -9.9859
12.240536 92.300 -10.0120
12.329235 92.296 -10.0379
12.418578 92.291 -10.0640
12.508568 92.286 -10.0903
12.599211 92.282 -10.1170
12.690510 92.278 -10.1444
12.782471 92.273 -10.1720
12.875097 92.268 -10.1994
12.968395 92.263 -10.2270
13.062370 92.258 -10.2549
13.157025 92.254 -10.2830
13.252366 92.250 -10.3114
13.348398 92.245 -10.3400
13.445127 92.241 -10.3688
13.542556 92.236 -10.3980
13.640691 92.231 -10.4273
13.739536 92.226 -10.4570
13.839099 92.221 -10.4874
13.939383 92.217 -10.5180
14.040393 92.213 -10.5484
14.142136 92.208 -10.5790
14.244616 92.203 -10.6103
14.347837 92.199 -10.6420
14.451808 92.195 -10.6739
14.556532 92.190 -10.7060
14.662014 92.185 -10.7378
14.768262 92.180 -10.7700
14.875278 92.175 -10.8033
14.983070 92.171 -10.8370
15.091644 92.167 -10.8703
15.201005 92.162 -10.9040
15.311157 92.158 -10.9382
15.422109 92.153 -10.9730
15.533863 92.148 -11.0084
15.646428 92.143 -11.0440
15.759809 92.138 -11.0793
15.874010 92.134 -11.1150
15.989040 92.130 -11.1518
16.104904 92.125 -11.1890
16.221605 92.121 -11.2258
16.339155 92.116 -11.2630
16.457554 92.112 -11.3012
16.576813 92.107 -11.3400
16.696936 92.102 -11.3789
16.817928 92.097 -11.4180
16.939798 92.092 -11.4572
17.062551 92.088 -11.4969
17.186193 92.084 -11.5377
17.310732 92.079 -11.5790
17.436172 92.075 -11.6203
17.562521 92.070 -11.6620
17.689787 92.065 -11.7042
17.817974 92.060 -11.7470
17.947090 92.055 -11.7902
18.077143 92.051 -11.8340
18.208138 92.047 -11.8787
18.340080 92.042 -11.9240
18.472980 92.037 -11.9692
18.606844 92.033 -12.0150
18.741676 92.029 -12.0622
18.877487 92.024 -12.1100
19.014280 92.019 -12.1576
19.152065 92.014 -12.2059
19.290850 92.009 -12.2553
19.430639 92.005 -12.3060
19.571442 92.001 -12.3585
19.713264 91.997 -12.4129
19.856115 91.993 -12.4692
20.000000 91.988 -12.5279
20.144928 91.983 -12.5907
20.290907 91.978 -12.6549
20.437943 91.971 -12.7196
20.586044 91.963 -12.7820
20.735220 91.955 -12.8388
20.885475 91.946 -12.8909
21.036821 91.938 -12.9383
21.189262 91.930 -12.9809
21.342808 91.922 -13.0189
21.497467 91.914 -13.0530
21.653246 91.908 -13.0827
21.810154 91.903 -13.1120
21.968201 91.900 -13.1438
22.127390 91.899 -13.1800
22.287735 91.898 -13.2230
22.449242 91.897 -13.2730
22.611917 91.897 -13.3307
22.775772 91.897 -13.3959
22.940815 91.896 -13.4690
23.107054 91.895 -13.5489
23.274498 91.894 -13.6357
23.443153 91.891 -13.7269
23.613033 91.886 -13.8211
23.784142 91.880 -13.9149
23.956491 91.873 -14.0043
24.130091 91.865 -14.0899
24.304947 91.857 -14.1710
24.481071 91.849 -14.2479
24.658470 91.841 -14.3203
24.837156 91.834 -14.3899
25.017136 91.828 -14.4565
25.198421 91.823 -14.5249
25.381020 91.820 -14.5994
25.564941 91.818 -14.6809
25.750195 91.815 -14.7724
25.936790 91.812 -14.8729
26.124741 91.809 -14.9836
26.314051 91.805 -15.1008
26.504732 91.798 -15.2217
26.696796 91.790 -15.3448
26.890253 91.781 -15.4687
27.085112 91.770 -15.5909
27.281382 91.758 -15.7092
27.479073 91.744 -15.8219
27.678198 91.729 -15.9248
27.878765 91.715 -16.0219
28.080786 91.703 -16.1145
28.284271 91.691 -16.2059
28.489231 91.680 -16.3002
28.695675 91.668 -16.3959
28.903616 91.656 -16.4926
29.113064 91.643 -16.5909
29.324028 91.631 -16.6912
29.536524 91.619 -16.7929
29.750557 91.605 -16.8962
29.966141 91.591 -16.9979
30.183289 91.576 -17.0940
30.402010 91.560 -17.1869
30.622314 91.546 -17.2769
30.844217 91.532 -17.3669
31.067726 91.519 -17.4599
31.292856 91.506 -17.5559
31.519617 91.492 -17.6559
31.748020 91.478 -17.7589
31.978081 91.463 -17.8644
32.209808 91.448 -17.9709
32.443211 91.431 -18.0764
32.678310 91.413 -18.1809
32.915108 91.395 -18.2840
33.153625 91.376 -18.3839
33.393871 91.356 -18.4788
33.635857 91.335 -18.5679
33.879597 91.314 -18.6483
34.125103 91.293 -18.7239
34.372387 91.274 -18.7970
34.621464 91.256 -18.8689
34.872345 91.237 -18.9415
35.125042 91.219 -19.0149
35.379574 91.201 -19.0900
35.635948 91.183 -19.1659
35.894180 91.164 -19.2424
36.154285 91.145 -19.3189
36.416275 91.126 -19.3942
36.680161 91.106 -19.4699
36.945961 91.087 -19.5481
37.213688 91.067 -19.6259
37.483353 91.045 -19.7021
37.754974 91.022 -19.7729
38.028561 90.998 -19.8329
38.304131 90.975 -19.8859
38.581699 90.954 -19.9331
38.861279 90.933 -19.9769
39.142883 90.912 -20.0216
39.426529 90.891 -20.0639
39.712231 90.871 -20.1016
40.000000 90.851 -20.1369
40.289856 90.833 -20.1709
40.581814 90.816 -20.2059
40.875885 90.799 -20.2451
41.172089 90.783 -20.2869
41.470440 90.767 -20.3304
41.770950 90.751 -20.3779
42.073643 90.737 -20.4312
42.378525 90.724 -20.4909
42.685616 90.709 -20.5590
42.994934 90.694 -20.6329
43.306492 90.678 -20.7111
43.620308 90.661 -20.7929
43.936401 90.644 -20.8767
44.254780 90.626 -20.9629
44.575470 90.607 -21.0520
44.898483 90.586 -21.1419
45.223835 90.564 -21.2310
45.551544 90.541 -21.3169
45.881630 90.517 -21.3955
46.214108 90.493 -21.4699
46.548996 90.470 -21.5408
46.886307 90.447 -21.6109
47.226067 90.423 -21.6843
47.568283 90.399 -21.7569
47.912983 90.373 -21.8256
48.260181 90.346 -21.8909
48.609894 90.320 -21.9512
48.962143 90.294 -22.0089
49.316940 90.268 -22.0677
49.674313 90.240 -22.1229
50.034271 90.210 -22.1712
50.396843 90.180 -22.2119
50.762039 90.151 -22.2425
51.129883 90.122 -22.2660
51.500389 90.094 -22.2848
51.873581 90.067 -22.2990
52.249481 90.040 -22.3085
52.628101 90.014 -22.3150
53.009464 89.989 -22.3183
53.393593 89.966 -22.3230
53.780506 89.944 -22.3340
54.170223 89.923 -22.3500
54.562763 89.900 -22.3725
54.958145 89.877 -22.3970
55.356396 89.852 -22.4180
55.757530 89.828 -22.4400
56.161572 89.806 -22.4668
56.568542 89.783 -22.4950
56.978462 89.756 -22.5241
57.391350 89.727 -22.5480
57.807232 89.698 -22.5584
58.226128 89.669 -22.5610
58.648056 89.642 -22.5595
59.073048 89.616 -22.5520
59.501114 89.587 -22.5385
59.932281 89.559 -22.5170
60.366577 89.533 -22.4838
60.804020 89.508 -22.4451
61.244629 89.486 -22.4046
61.688435 89.466 -22.3661
62.135452 89.448 -22.3339
62.585712 89.431 -22.3090
63.039234 89.416 -22.2942
63.496040 89.401 -22.2890
63.956161 89.385 -22.2941
64.419617 89.369 -22.3090
64.886421 89.353 -22.3352
65.356621 89.335 -22.3669
65.830215 89.314 -22.3996
66.307251 89.291 -22.4309
66.787743 89.268 -22.4566
67.271713 89.245 -22.4790
67.759193 89.221 -22.4997
68.250206 89.197 -22.5170
68.744774 89.172 -22.5288
69.242928 89.147 -22.5380
69.744690 89.124 -22.5465
70.250084 89.101 -22.5550
70.759148 89.077 -22.5654
71.271896 89.052 -22.5750
71.788361 89.027 -22.5810
72.308571 89.002 -22.5860
72.832550 88.978 -22.5929
73.360321 88.953 -22.5980
73.891922 88.925 -22.5984
74.427376 88.897 -22.5940
74.966705 88.871 -22.5825
75.509949 88.846 -22.5680
76.057121 88.821 -22.5556
76.608261 88.795 -22.5410
77.163399 88.768 -22.5213
77.722557 88.741 -22.4981
78.285767 88.716 -22.4714
78.853058 88.692 -22.4431
79.424461 88.667 -22.4151
80.000000 88.642 -22.3861
80.579712 88.618 -22.3544
81.163628 88.594 -22.3221
81.751770 88.571 -22.2903
82.344177 88.548 -22.2591
82.940880 88.525 -22.2287
83.541901 88.502 -22.1991
84.147285 88.480 -22.1704
84.757050 88.457 -22.1421
85.371231 88.434 -22.1137
85.989868 88.410 -22.0841
86.612984 88.387 -22.0503
87.240616 88.364 -22.0161
87.872803 88.343 -21.9844
88.509560 88.321 -21.9541
89.150940 88.298 -21.9254
89.796967 88.275 -21.8971
90.447670 88.252 -21.8667
91.103088 88.230 -21.8371
91.763260 88.209 -21.8107
92.428215 88.187 -21.7860
93.097992 88.164 -21.7638
93.772614 88.140 -21.7401
94.452133 88.115 -21.7106
95.136566 88.089 -21.6771
95.825966 88.065 -21.6383
96.520363 88.041 -21.5981
97.219788 88.018 -21.5603
97.924286 87.995 -21.5231
98.633881 87.972 -21.4863
99.348625 87.948 -21.4491
100.068542 87.924 -21.4094
100.793686 87.900 -21.3701
101.524078 87.878 -21.3343
102.259766 87.855 -21.2991
103.000778 87.829 -21.2640
103.747162 87.802 -21.2241
104.498962 87.775 -21.1725
105.256203 87.748 -21.1151
106.018929 87.723 -21.0556
106.787186 87.699 -20.9941
107.561012 87.674 -20.9329
108.340446 87.649 -20.8691
109.125526 87.624 -20.7991
109.916290 87.600 -20.7271
110.712791 87.578 -20.6555
111.515060 87.557 -20.5861
112.323143 87.535 -20.5232
113.137085 87.513 -20.4621
113.956924 87.489 -20.4005
114.782700 87.465 -20.3362
115.614464 87.441 -20.2649
116.452255 87.418 -20.1911
117.296112 87.396 -20.1183
118.146095 87.374 -20.0452
119.002228 87.350 -19.9734
119.864563 87.326 -19.8982
120.733154 87.302 -19.8134
121.608040 87.278 -19.7242
122.489258 87.257 -19.6332
123.376869 87.237 -19.5422
124.270905 87.217 -19.4547
125.171425 87.196 -19.3682
126.078468 87.176 -19.2815
126.992081 87.155 -19.1932
127.912323 87.134 -19.1008
128.839233 87.113 -19.0062
129.772842 87.094 -18.9096
130.713242 87.076 -18.8132
131.660431 87.059 -18.7191
132.614502 87.042 -18.6273
133.575485 87.025 -18.5379
134.543427 87.009 -18.4522
135.518387 86.993 -18.3713
136.500412 86.978 -18.2951
137.489548 86.962 -18.2248
138.485855 86.946 -18.1582
139.489380 86.929 -18.0933
140.500168 86.912 -18.0301
141.518295 86.893 -17.9685
142.543793 86.874 -17.9062
143.576721 86.854 -17.8415
144.617142 86.833 -17.7732
145.665100 86.812 -17.6979
146.720642 86.791 -17.6192
147.783844 86.771 -17.5388
148.854752 86.752 -17.4582
149.933411 86.733 -17.3805
151.019897 86.713 -17.3032
152.114243 86.693 -17.2252
153.216522 86.672 -17.1452
154.326797 86.651 -17.0612
155.445114 86.629 -16.9742
156.571533 86.609 -16.8850
157.706116 86.588 -16.7932
158.848923 86.566 -16.6998
160.000000 86.543 -16.6012
161.159424 86.520 -16.4933
162.327255 86.498 -16.3793
163.503540 86.478 -16.2606
164.688354 86.459 -16.1393
165.881760 86.440 -16.0179
167.083801 86.422 -15.8963
168.294571 86.405 -15.7748
169.514099 86.389 -15.6553
170.742462 86.374 -15.5409
171.979736 86.358 -15.4283
173.225967 86.341 -15.3144
174.481232 86.325 -15.2013
175.745605 86.310 -15.0903
177.019119 86.295 -14.9803
178.301880 86.279 -14.8710
179.593933 86.262 -14.7613
180.895340 86.246 -14.6491
182.206177 86.231 -14.5363
183.526520 86.215 -14.4248
184.856430 86.199 -14.3123
186.195984 86.182 -14.1968
187.545227 86.166 -14.0793
188.904266 86.151 -13.9602
190.273132 86.136 -13.8393
191.651932 86.120 -13.7168
193.040726 86.105 -13.5923
194.439575 86.091 -13.4641
195.848572 86.078 -13.3364
197.267761 86.067 -13.2125
198.697250 86.056 -13.0933
200.137085 86.045 -12.9815
201.587372 86.034 -12.8752
203.048157 86.023 -12.7746
204.519531 86.010 -12.6763
206.001556 85.996 -12.5779
207.494324 85.980 -12.4773
208.997925 85.964 -12.3712
210.512405 85.948 -12.2603
212.037857 85.932 -12.1438
213.574371 85.916 -12.0223
215.122025 85.900 -11.8954
216.680893 85.885 -11.7654
218.251053 85.871 -11.6334
219.832581 85.858 -11.5014
221.425583 85.846 -11.3714
223.030121 85.834 -11.2433
224.646286 85.822 -11.1188
226.274170 85.810 -10.9943
227.913849 85.796 -10.8675
229.565399 85.782 -10.7373
231.228928 85.768 -10.6008
232.904510 85.755 -10.4614
234.592224 85.744 -10.3216
236.292191 85.734 -10.1824
238.004456 85.724 -10.0455
239.729126 85.714 -9.9114
241.466309 85.705 -9.7812
243.216080 85.695 -9.6533
244.978516 85.685 -9.5267
246.753738 85.674 -9.4014
248.541809 85.664 -9.2778
250.342850 85.653 -9.1534
252.156937 85.640 -9.0266
253.984161 85.627 -8.8944
255.824646 85.614 -8.7515
257.678467 85.601 -8.6024
259.545685 85.590 -8.4493
261.426483 85.581 -8.2934
263.320862 85.572 -8.1363
265.229004 85.564 -7.9794
267.150970 85.558 -7.8236
269.086853 85.553 -7.6724
271.036774 85.550 -7.5299
273.000824 85.547 -7.3964
274.979095 85.544 -7.2745
276.971710 85.540 -7.1613
278.978760 85.534 -7.0562
281.000336 85.527 -6.9543
283.036591 85.517 -6.8512
285.087585 85.506 -6.7443
287.153442 85.493 -6.6302
289.234283 85.479 -6.5063
291.330200 85.463 -6.3687
293.441284 85.448 -6.2184
295.567688 85.434 -6.0539
297.709503 85.422 -5.8795
299.866821 85.412 -5.6981
302.039795 85.403 -5.5126
304.228485 85.396 -5.3255
306.433044 85.391 -5.1395
308.653595 85.388 -4.9575
310.890228 85.387 -4.7805
313.143066 85.386 -4.6110
315.412231 85.386 -4.4475
317.697845 85.386 -4.2891
320.000000 85.386 -4.1355
322.318848 85.386 -3.9861
324.654510 85.386 -3.8405
327.007080 85.386 -3.6980
329.376709 85.386 -3.5584
331.763519 85.386 -3.4212
334.167603 85.386 -3.2864
336.589142 85.386 -3.1541
339.028198 85.386 -3.0244
341.484924 85.386 -2.8973
343.959473 85.386 -2.7733
346.451935 85.386 -2.6531
348.962463 85.386 -2.5363
351.491211 85.385 -2.4231
354.038239 85.384 -2.3133
356.603760 85.383 -2.2076
359.187866 85.380 -2.1033
361.790680 85.375 -1.9990
364.412354 85.369 -1.8913
367.053040 85.361 -1.7763
369.712860 85.353 -1.6544
372.391968 85.345 -1.5247
375.090454 85.338 -1.3874
377.808533 85.330 -1.2420
380.546265 85.323 -1.0895
383.303864 85.317 -0.9294
386.081451 85.312 -0.7655
388.879150 85.309 -0.6011
391.697144 85.307 -0.4375
394.535522 85.306 -0.2772
397.394501 85.305 -0.1195
400.274170 85.305 0.0353
403.174744 85.305 0.1875
406.096313 85.305 0.3370
409.039062 85.305 0.4845
412.003113 85.305 0.6310
414.988647 85.305 0.7765
417.995850 85.305 0.9218
421.024811 85.305 1.0665
424.075714 85.305 1.2102
427.148743 85.305 1.3535
430.244049 85.305 1.4975
433.361786 85.305 1.6415
436.502106 85.305 1.7850
439.665161 85.305 1.9286
442.851166 85.305 2.0724
446.060242 85.305 2.2166
449.292572 85.305 2.3609
452.548340 85.305 2.5055
455.827698 85.305 2.6508
459.130798 85.305 2.7965
462.457855 85.305 2.9427
465.809021 85.305 3.0895
469.184448 85.305 3.2372
472.584381 85.305 3.3855
476.008911 85.305 3.5342
479.458252 85.305 3.6835
482.932617 85.305 3.8340
486.432159 85.305 3.9855
489.957031 85.305 4.1385
493.507477 85.305 4.2925
497.083618 85.305 4.4474
500.685699 85.305 4.6035
504.313873 85.305 4.7608
507.968323 85.305 4.9195
511.649292 85.305 5.0797
515.356934 85.305 5.2415
519.091370 85.305 5.4050
522.852966 85.305 5.5704
526.641724 85.305 5.7384
530.458008 85.305 5.9084
534.301941 85.305 6.0802
538.173706 85.305 6.2544
542.073547 85.305 6.4313
546.001648 85.305 6.6114
549.958191 85.305 6.7948
553.943420 85.305 6.9824
557.957520 85.305 7.1747
562.000671 85.305 7.3723
566.073181 85.306 7.5760
570.175171 85.307 7.7853
574.306885 85.309 8.0007
578.468567 85.312 8.2202
582.660400 85.317 8.4429
586.882568 85.323 8.6662
591.135376 85.330 8.8875
595.419006 85.338 9.1072
599.733643 85.346 9.3251
604.079590 85.355 9.5412
608.456970 85.365 9.7559
612.866089 85.375 9.9683
617.307190 85.386 10.1773
621.780457 85.397 10.3843
626.286133 85.407 10.5896
630.824463 85.417 10.7953
635.395691 85.426 11.0034
640.000000 85.436 11.2143
644.637695 85.446 11.4300
649.309021 85.456 11.6482
654.014160 85.468 11.8670
658.753418 85.481 12.0873
663.527039 85.493 12.3093
668.335205 85.505 12.5332
673.178284 85.518 12.7604
678.056396 85.533 12.9872
682.969849 85.549 13.2100
687.918945 85.565 13.4312
692.903870 85.580 13.6519
697.924927 85.595 13.8732
702.982422 85.611 14.0969
708.076477 85.627 14.3222
713.207520 85.643 14.5480
718.375732 85.660 14.7772
723.581360 85.676 15.0130
728.824707 85.692 15.2531
734.106079 85.711 15.4969
739.425720 85.731 15.7431
744.783936 85.751 15.9904
750.180908 85.773 16.2381
755.617065 85.796 16.4854
761.092529 85.821 16.7311
766.607727 85.846 16.9731
772.162903 85.871 17.2141
777.758301 85.896 17.4571
783.394287 85.922 17.6992
789.071045 85.951 17.9381
794.789001 85.980 18.1742
800.548340 86.008 18.4056
806.349487 86.037 18.6362
812.192627 86.065 18.8693
818.078125 86.094 19.1041
824.006226 86.124 19.3413
829.977295 86.155 19.5801
835.991699 86.186 19.8202
842.049622 86.218 20.0621
848.151428 86.251 20.3065
854.297485 86.285 20.5531
860.488098 86.320 20.8021
866.723572 86.357 21.0521
873.004211 86.395 21.3017
879.330322 86.435 21.5501
885.702332 86.476 21.7968
892.120483 86.519 22.0401
898.585144 86.565 22.2790
905.096680 86.612 22.5112
911.655396 86.660 22.7339
918.261597 86.709 22.9482
924.915710 86.758 23.1534
931.618042 86.808 23.3523
938.368896 86.858 23.5477
945.168762 86.908 23.7383
952.017822 86.960 23.9231
958.916504 87.012 24.1033
965.865234 87.063 24.2798
972.864319 87.116 24.4534
979.914062 87.170 24.6262
987.014954 87.225 24.7944
994.167236 87.281 24.9552
1001.371399 87.339 25.1075
1008.627747 87.398 25.2485
1015.936646 87.457 25.3805
1023.298584 87.514 25.5038
1030.713867 87.572 25.6206
1038.182739 87.630 25.7327
1045.705933 87.688 25.8415
1053.283447 87.744 25.9491
1060.916016 87.801 26.0565
1068.603882 87.859 26.1675
1076.347412 87.919 26.2766
1084.147095 87.981 26.3798
1092.003296 88.045 26.4767
1099.916382 88.108 26.5655
1107.886841 88.173 26.6457
1115.915039 88.238 26.7169
1124.001343 88.305 26.7768
1132.146362 88.372 26.8215
1140.350342 88.440 26.8549
1148.613770 88.505 26.8794
1156.937134 88.570 26.8959
1165.320801 88.635 26.9062
1173.765137 88.700 26.9110
1182.270752 88.763 26.9115
1190.838013 88.827 26.9080
1199.467285 88.891 26.9016
1208.159180 88.955 26.8911
1216.913940 89.018 26.8751
1225.732178 89.082 26.8551
1234.614380 89.146 26.8325
1243.560913 89.210 26.8061
1252.572266 89.274 26.7749
1261.648926 89.338 26.7401
1270.791382 89.401 26.7030
1280.000000 89.464 26.6632
1289.275391 89.528 26.6211
1298.618042 89.593 26.5762
1308.028320 89.657 26.5279
1317.506836 89.721 26.4772
1327.054077 89.786 26.4262
1336.670410 89.852 26.3712
1346.356567 89.919 26.3092
1356.112793 89.988 26.2403
1365.939697 90.055 26.1631
1375.837891 90.123 26.0794
1385.807739 90.190 25.9902
1395.849854 90.257 25.8964
1405.964844 90.323 25.7981
1416.152954 90.390 25.6984
1426.415039 90.455 25.6002
1436.751465 90.521 25.5034
1447.162720 90.587 25.4090
1457.649414 90.655 25.3154
1468.212158 90.723 25.2217
1478.851440 90.794 25.1264
1489.567871 90.866 25.0286
1500.361816 90.940 24.9254
1511.234131 91.015 24.8137
1522.185059 91.093 24.6936
1533.215454 91.171 24.5644
1544.325806 91.250 24.4246
1555.516602 91.331 24.2722
1566.788574 91.413 24.1077
1578.142090 91.494 23.9305
1589.578003 91.575 23.7428
1601.096680 91.657 23.5479
1612.698975 91.740 23.3429
1624.385254 91.824 23.1255
1636.156250 91.908 22.8970
1648.012451 91.991 22.6572
1659.954590 92.075 22.4079
1671.983398 92.159 22.1519
1684.099243 92.244 21.8871
1696.302856 92.330 21.6125
1708.594971 92.417 21.3273
1720.976196 92.504 21.0306
1733.447144 92.593 20.7224
1746.008423 92.682 20.4030
1758.660645 92.772 20.0704
1771.404663 92.864 19.7234
1784.240967 92.957 19.3595
1797.170288 93.051 18.9762
1810.193359 93.146 18.5726
1823.310791 93.241 18.1470
1836.523193 93.336 17.6998
1849.831421 93.430 17.2307
1863.236084 93.525 16.7403
1876.737793 93.618 16.2282
1890.337524 93.711 15.6964
1904.035645 93.802 15.1463
1917.833008 93.892 14.5793
1931.730469 93.981 13.9979
1945.728638 94.071 13.3996
1959.828125 94.161 12.7834
1974.029907 94.251 12.1467
1988.334473 94.341 11.4870
2002.742798 94.431 10.8038
2017.255493 94.519 10.0960
2031.873291 94.606 9.3630
2046.597168 94.693 8.6042
2061.427734 94.780 7.8175
2076.365479 94.865 7.0001
2091.411865 94.948 6.1526
2106.566895 95.029 5.2755
2121.832031 95.108 4.3668
2137.207764 95.185 3.4254
2152.694824 95.260 2.4499
2168.294189 95.331 1.4395
2184.006592 95.400 0.3919
2199.832764 95.465 -0.6949
2215.773682 95.527 -1.8233
2231.830078 95.583 -2.9953
2248.002686 95.634 -4.2138
2264.292725 95.679 -5.4829
2280.700684 95.715 -6.8012
2297.227539 95.740 -8.1726
2313.874268 95.752 -9.5862
2330.641602 95.749 -11.0381
2347.530273 95.729 -12.5106
2364.541504 95.689 -13.9959
2381.676025 95.628 -15.4604
2398.934570 95.542 -16.8801
2416.318359 95.434 -18.2182
2433.827881 95.302 -19.4357
2451.464355 95.155 -20.5158
2469.228760 94.997 -21.4245
2487.121826 94.837 -22.1751
2505.144531 94.680 -22.7603
2523.297852 94.532 -23.2092
2541.582764 94.399 -23.5371
2560.000000 94.283 -23.7791
2578.550781 94.191 -23.9636
2597.236084 94.119 -24.1262
2616.056641 94.070 -24.3073
2635.013672 94.037 -24.5220
2654.108154 94.015 -24.8018
2673.340820 93.999 -25.1384
2692.713135 93.984 -25.5376
2712.225586 93.970 -25.9878
2731.879395 93.953 -26.4818
2751.675781 93.934 -27.0115
2771.615479 93.911 -27.5677
2791.699707 93.885 -28.1454
2811.929688 93.855 -28.7386
2832.305908 93.820 -29.3402
2852.830078 93.780 -29.9412
2873.502930 93.737 -30.5404
2894.325439 93.693 -31.1331
2915.298828 93.647 -31.7213
2936.424316 93.599 -32.3073
2957.702881 93.548 -32.8865
2979.135742 93.494 -33.4542
3000.723633 93.439 -34.0126
3022.468262 93.385 -34.5618
3044.370117 93.330 -35.1035
3066.430908 93.273 -35.6409
3088.651611 93.215 -36.1697
3111.033203 93.156 -36.6855
3133.577148 93.096 -37.1916
3156.284180 93.038 -37.6899
3179.156006 92.979 -38.1807
3202.193359 92.919 -38.6653
3225.397949 92.858 -39.1427
3248.770508 92.799 -39.6120
3272.312500 92.740 -40.0739
3296.024902 92.681 -40.5291
3319.909180 92.623 -40.9779
3343.966797 92.566 -41.4209
3368.198486 92.510 -41.8589
3392.605713 92.455 -42.2928
3417.189941 92.402 -42.7230
3441.952393 92.351 -43.1488
3466.894287 92.303 -43.5751
3492.016846 92.259 -44.0040
3517.321289 92.220 -44.4439
3542.809326 92.186 -44.8995
3568.481934 92.159 -45.3837
3594.340576 92.139 -45.9028
3620.386719 92.127 -46.4811
3646.621582 92.124 -47.1355
3673.046387 92.128 -47.8951
3699.662842 92.137 -48.7870
3726.472168 92.146 -49.8338
3753.475586 92.151 -51.0664
3780.675049 92.143 -52.4872
3808.071289 92.113 -54.1263
3835.666016 92.049 -55.9301
3863.460938 91.939 -57.8899
3891.457275 91.774 -59.9004
3919.656250 91.545 -61.9023
3948.059814 91.249 -63.7480
3976.668945 90.871 -65.3084
4005.485596 90.429 -66.4685
4034.510986 89.926 -67.0653
4063.746582 89.390 -67.1131
4093.194336 88.840 -66.5421
4122.855469 88.302 -65.4446
4152.730957 87.797 -63.8448
4182.823730 87.354 -61.8790
4213.133789 87.008 -59.6402
4243.664062 86.755 -57.2832
4274.415527 86.613 -54.9720
4305.389648 86.550 -52.7753
4336.588379 86.548 -50.8214
4368.013184 86.590 -49.0946
4399.665527 86.654 -47.6367
4431.547363 86.732 -46.4015
4463.660156 86.805 -45.3701
4496.005371 86.876 -44.5020
4528.585449 86.941 -43.7549
4561.401367 87.003 -43.1148
4594.455078 87.062 -42.5548
4627.748535 87.119 -42.0712
4661.283203 87.173 -41.6516
4695.060547 87.226 -41.2956
4729.083008 87.276 -40.9986
4763.352051 87.324 -40.7600
4797.869141 87.369 -40.5809
4832.636719 87.408 -40.4515
4867.655762 87.439 -40.3664
4902.928711 87.462 -40.3142
4938.457520 87.478 -40.2847
4974.243652 87.486 -40.2691
5010.289062 87.486 -40.2595
5046.595703 87.478 -40.2421
5083.165527 87.461 -40.2047
5120.000000 87.436 -40.1344
5157.101562 87.406 -40.0167
5194.472168 87.371 -39.8450
5232.113281 87.334 -39.6077
5270.027344 87.298 -39.3057
5308.216309 87.267 -38.9318
5346.681641 87.244 -38.4992
5385.426270 87.232 -38.0125
5424.451172 87.232 -37.4906
5463.758789 87.248 -36.9477
5503.351562 87.278 -36.4036
5543.230957 87.323 -35.8798
5583.399414 87.382 -35.3863
5623.859375 87.451 -34.9397
5664.611816 87.529 -34.5418
5705.660156 87.614 -34.1996
5747.005859 87.707 -33.9143
5788.650879 87.804 -33.6898
5830.597656 87.906 -33.5257
5872.848633 88.012 -33.4207
5915.405762 88.120 -33.3820
5958.271484 88.235 -33.4124
6001.447266 88.351 -33.5242
6044.936523 88.470 -33.7315
6088.740234 88.585 -34.0323
6132.861816 88.693 -34.4323
6177.303223 88.792 -34.9213
6222.066406 88.878 -35.4989
6267.154297 88.949 -36.1406
6312.568359 88.997 -36.8350
6358.312012 89.023 -37.5425
6404.386719 89.024 -38.2350
6450.795898 89.000 -38.8670
6497.541016 88.951 -39.3986
6544.625000 88.881 -39.7845
6592.049805 88.792 -39.9721
6639.818359 88.696 -39.9428
6687.933594 88.602 -39.6504
6736.396973 88.524 -39.1253
6785.211426 88.479 -38.3605
6834.379883 88.477 -37.4232
6883.904785 88.531 -36.3472
6933.788574 88.646 -35.2267
6984.033691 88.835 -34.1335
7034.642578 89.088 -33.1703
7085.618652 89.405 -32.4444
7136.963867 89.765 -32.0153
7188.681152 90.153 -31.9753
7240.773438 90.553 -32.3331
7293.243164 90.949 -33.1394
7346.092773 91.325 -34.3598
7399.325684 91.665 -36.0069
7452.944336 91.960 -37.9903
7506.951172 92.192 -40.2613
7561.350098 92.363 -42.7061
7616.142578 92.467 -45.2271
7671.332031 92.511 -47.7253
7726.921875 92.493 -50.0872
7782.914551 92.430 -52.2584
7839.312500 92.331 -54.1419
7896.119629 92.215 -55.7552
7953.337891 92.097 -57.0599
8010.971191 91.991 -58.1279
8069.021973 91.918 -58.9898
8127.493164 91.878 -59.7332
8186.388672 91.882 -60.4335
8245.710938 91.922 -61.1600
8305.461914 91.997 -61.9990
8365.647461 92.093 -62.9744
8426.267578 92.201 -64.1457
8487.328125 92.310 -65.4914
8548.831055 92.410 -67.0193
8610.779297 92.500 -68.6998
8673.176758 92.574 -70.5107
8736.026367 92.634 -72.4373
8799.331055 92.676 -74.4608
8863.094727 92.702 -76.5706
8927.320312 92.710 -78.7516
8992.010742 92.699 -80.9989
9057.170898 92.672 -83.3092
9122.802734 92.622 -85.6635
9188.910156 92.546 -88.0533
9255.497070 92.445 -90.4441
9322.566406 92.315 -92.8049
9390.121094 92.161 -95.1159
9458.166016 91.987 -97.3469
9526.704102 91.795 -99.4989
9595.738281 91.590 -101.5589
9665.273438 91.374 -103.5387
9735.311523 91.152 -105.4337
9805.857422 90.929 -107.2801
9876.915039 90.714 -109.1048
9948.487305 90.499 -110.9321
10020.578125 90.281 -112.7971
10093.191406 90.055 -114.6946
10166.331055 89.819 -116.6357
10240.000000 89.568 -118.6055
10314.203125 89.298 -120.6035
10388.944336 89.003 -122.5986
10464.226562 88.680 -124.5676
10540.054688 88.329 -126.4858
10616.432617 87.950 -128.3281
10693.363281 87.543 -130.0720
10770.852539 87.111 -131.6964
10848.902344 86.651 -133.1745
10927.517578 86.163 -134.4858
11006.703125 85.649 -135.5897
11086.461914 85.109 -136.4495
11166.798828 84.546 -137.0316
11247.718750 83.962 -137.2875
11329.223633 83.368 -137.2242
11411.320312 82.773 -136.8243
11494.011719 82.184 -136.1137
11577.301758 81.605 -135.0925
11661.195312 81.051 -133.8197
11745.697266 80.541 -132.3278
11830.811523 80.075 -130.6961
11916.542969 79.663 -129.0056
12002.894531 79.291 -127.2856
12089.873047 78.952 -125.5930
12177.480469 78.641 -123.9244
12265.723633 78.352 -122.3057
12354.606445 78.074 -120.7047
12444.132812 77.794 -119.1186
12534.308594 77.510 -117.4841
12625.136719 77.212 -115.7523
12716.624023 76.911 -113.8754
12808.773438 76.606 -111.7917
12901.591797 76.310 -109.4947
12995.082031 76.031 -106.9467
13089.250000 75.784 -104.1804
13184.099609 75.581 -101.1949
13279.636719 75.435 -98.0555
13375.867188 75.361 -94.7913
13472.793945 75.367 -91.5105
13570.422852 75.467 -88.2983
13668.759766 75.647 -85.2534
13767.809570 75.901 -82.4845
13867.577148 76.212 -80.0481
13968.067383 76.566 -78.0316
14069.285156 76.944 -76.4497
14171.237305 77.325 -75.3613
14273.927734 77.695 -74.7202
14377.362305 78.034 -74.5256
14481.546875 78.338 -74.6983
14586.486328 78.597 -75.1859
14692.185547 78.810 -75.9063
14798.651367 78.971 -76.7834
14905.888672 79.086 -77.7463
15013.902344 79.156 -78.7099
15122.700195 79.188 -79.6409
15232.285156 79.190 -80.4813
15342.664062 79.167 -81.2209
15453.843750 79.124 -81.8300
15565.829102 79.067 -82.3098
15678.625000 79.005 -82.6444
15792.239258 78.941 -82.8562
15906.675781 78.884 -82.9547
16021.942383 78.835 -82.9632
16138.043945 78.798 -82.9002
16254.986328 78.773 -82.7897
16372.777344 78.765 -82.6536
16491.421875 78.772 -82.5167
16610.923828 78.795 -82.4043
16731.294922 78.832 -82.3372
16852.535156 78.881 -82.3416
16974.656250 78.939 -82.4262
17097.662109 79.001 -82.6110
17221.558594 79.065 -82.8880
17346.353516 79.124 -83.2588
17472.052734 79.179 -83.7150
17598.662109 79.229 -84.2495
17726.189453 79.273 -84.8602
17854.640625 79.310 -85.5437
17984.021484 79.339 -86.2976
18114.341797 79.358 -87.1189
18245.605469 79.367 -88.0068
18377.820312 79.366 -88.9638
18510.994141 79.349 -89.9780
18645.132812 79.314 -91.0507
18780.242188 79.255 -92.1441
18916.332031 79.169 -93.2353
19053.408203 79.058 -94.2793
19191.476562 78.918 -95.2303
19330.546875 78.758 -96.0668
19470.623047 78.582 -96.7510
19611.714844 78.396 -97.2874
19753.830078 78.206 -97.6607
19896.974609 78.018 -97.8940
