* Measurement data measured by REW V5.20.13
* Source: C:\Users\kurin\Desktop\Targets and Curves\Resolve\Img\Files\Empire_Ears_Odyssey_SPL.txt
* Format: Comma/Tab/Space delimited data
* Dated: Aug 14, 2023 3:28:40 PM
* REW Settings:
*  C-weighting compensation: Off
*  Target level: 75.0 dB
* Note: ; Measurement imported from C:\Users\kurin\Desktop\Targets and Curves\Resolve\Img\Files\Empire_Ears_Odyssey_SPL.txt Format: Comma/Tab/Space delimited data 623 values loaded, 5 Hz to 39,792 Hz log spaced 
* Measurement: Empire_Ears_Odyssey_SPL
* Smoothing: 1/48 octave
* Frequency Step: 1/96 octave
* Start Frequency: 5.000 Hz
*
* Freq(Hz) SPL(dB) Phase(degrees)
5.000000 98.273 -6.7960
5.036232 98.271 -6.8018
5.072727 98.269 -6.8080
5.109486 98.267 -6.8149
5.146511 98.265 -6.8230
5.183805 98.262 -6.8335
5.221369 98.259 -6.8450
5.259205 98.256 -6.8562
5.297316 98.253 -6.8680
5.335702 98.250 -6.8812
5.374367 98.246 -6.8950
5.413311 98.243 -6.9089
5.452538 98.239 -6.9230
5.492050 98.236 -6.9370
5.531847 98.232 -6.9510
5.571934 98.229 -6.9649
5.612310 98.225 -6.9790
5.652979 98.222 -6.9934
5.693943 98.218 -7.0080
5.735204 98.215 -7.0224
5.776763 98.211 -7.0370
5.818624 98.208 -7.0519
5.860788 98.204 -7.0670
5.903258 98.201 -7.0820
5.946035 98.197 -7.0970
5.989123 98.194 -7.1119
6.032523 98.190 -7.1270
6.076237 98.187 -7.1424
6.120268 98.183 -7.1580
6.164618 98.180 -7.1739
6.209289 98.176 -7.1900
6.254284 98.173 -7.2060
6.299605 98.169 -7.2220
6.345255 98.166 -7.2379
6.391235 98.162 -7.2540
6.437549 98.158 -7.2704
6.484198 98.155 -7.2870
6.531185 98.152 -7.3034
6.578513 98.149 -7.3200
6.626183 98.146 -7.3369
6.674199 98.142 -7.3540
6.722563 98.139 -7.3715
6.771278 98.135 -7.3890
6.820345 98.132 -7.4059
6.869768 98.128 -7.4230
6.919549 98.125 -7.4409
6.969691 98.121 -7.4590
7.020196 98.118 -7.4770
7.071068 98.114 -7.4950
7.122308 98.111 -7.5129
7.173919 98.107 -7.5310
7.225904 98.104 -7.5494
7.278266 98.100 -7.5680
7.331007 98.097 -7.5869
7.384131 98.093 -7.6060
7.437639 98.090 -7.6249
7.491535 98.086 -7.6440
7.545822 98.083 -7.6634
7.600502 98.079 -7.6830
7.655579 98.076 -7.7024
7.711054 98.072 -7.7220
7.766932 98.069 -7.7419
7.823214 98.065 -7.7620
7.879904 98.062 -7.7824
7.937005 98.058 -7.8030
7.994520 98.055 -7.8234
8.052452 98.051 -7.8440
8.110803 98.048 -7.8649
8.169578 98.044 -7.8860
8.228777 98.041 -7.9069
8.288406 98.037 -7.9280
8.348468 98.034 -7.9494
8.408964 98.030 -7.9710
8.469899 98.027 -7.9929
8.531276 98.023 -8.0150
8.593097 98.020 -8.0369
8.655366 98.016 -8.0590
8.718086 98.013 -8.0814
8.781260 98.009 -8.1040
8.844893 98.006 -8.1269
8.908987 98.002 -8.1500
8.973545 97.999 -8.1734
9.038571 97.995 -8.1970
9.104069 97.992 -8.2204
9.170040 97.988 -8.2440
9.236490 97.985 -8.2679
9.303422 97.981 -8.2920
9.370838 97.978 -8.3159
9.438744 97.974 -8.3400
9.507140 97.971 -8.3643
9.576033 97.967 -8.3890
9.645425 97.964 -8.4144
9.715320 97.960 -8.4400
9.785721 97.957 -8.4649
9.856632 97.953 -8.4900
9.928058 97.950 -8.5158
10.000000 97.946 -8.5420
10.072464 97.943 -8.5684
10.145453 97.939 -8.5950
10.218971 97.936 -8.6214
10.293022 97.932 -8.6480
10.367610 97.929 -8.6749
10.442738 97.925 -8.7020
10.518411 97.922 -8.7294
10.594631 97.918 -8.7570
10.671404 97.915 -8.7844
10.748734 97.911 -8.8120
10.826623 97.908 -8.8403
10.905077 97.904 -8.8690
10.984100 97.901 -8.8979
11.063695 97.897 -8.9270
11.143867 97.894 -8.9559
11.224621 97.890 -8.9850
11.305959 97.886 -9.0143
11.387886 97.883 -9.0440
11.470407 97.880 -9.0744
11.553527 97.877 -9.1050
11.637249 97.874 -9.1354
11.721577 97.870 -9.1660
11.806517 97.867 -9.1968
11.892071 97.863 -9.2280
11.978246 97.860 -9.2594
12.065045 97.856 -9.2910
12.152473 97.853 -9.3229
12.240536 97.849 -9.3550
12.329235 97.846 -9.3874
12.418578 97.842 -9.4200
12.508568 97.839 -9.4528
12.599211 97.835 -9.4860
12.690510 97.832 -9.5198
12.782471 97.828 -9.5540
12.875097 97.825 -9.5879
12.968395 97.821 -9.6220
13.062370 97.818 -9.6563
13.157025 97.814 -9.6910
13.252366 97.811 -9.7264
13.348398 97.807 -9.7620
13.445127 97.804 -9.7973
13.542556 97.800 -9.8330
13.640691 97.797 -9.8693
13.739536 97.793 -9.9060
13.839099 97.790 -9.9429
13.939383 97.786 -9.9800
14.040393 97.783 -10.0174
14.142136 97.779 -10.0550
14.244616 97.776 -10.0928
14.347837 97.772 -10.1310
14.451808 97.769 -10.1698
14.556532 97.765 -10.2090
14.662014 97.762 -10.2483
14.768262 97.758 -10.2880
14.875278 97.755 -10.3278
14.983070 97.751 -10.3680
15.091644 97.748 -10.4088
15.201005 97.744 -10.4500
15.311157 97.741 -10.4913
15.422109 97.737 -10.5330
15.533863 97.734 -10.5748
15.646428 97.730 -10.6170
15.759809 97.727 -10.6598
15.874010 97.723 -10.7030
15.989040 97.720 -10.7463
16.104904 97.716 -10.7900
16.221605 97.713 -10.8338
16.339155 97.709 -10.8779
16.457554 97.706 -10.9227
16.576813 97.702 -10.9680
16.696936 97.699 -11.0138
16.817928 97.695 -11.0600
16.939798 97.692 -11.1058
17.062551 97.688 -11.1519
17.186193 97.685 -11.1993
17.310732 97.681 -11.2470
17.436172 97.678 -11.2943
17.562521 97.674 -11.3420
17.689787 97.671 -11.3908
17.817974 97.667 -11.4399
17.947090 97.664 -11.4888
18.077143 97.660 -11.5380
18.208138 97.657 -11.5878
18.340080 97.653 -11.6379
18.472980 97.650 -11.6884
18.606844 97.646 -11.7390
18.741676 97.643 -11.7894
18.877487 97.639 -11.8399
19.014280 97.635 -11.8909
19.152065 97.632 -11.9419
19.290850 97.629 -11.9926
19.430639 97.626 -12.0430
19.571442 97.622 -12.0930
19.713264 97.619 -12.1429
19.856115 97.616 -12.1928
20.000000 97.614 -12.2430
20.144928 97.612 -12.2935
20.290907 97.610 -12.3450
20.437943 97.608 -12.3980
20.586044 97.607 -12.4530
20.735220 97.606 -12.5101
20.885475 97.605 -12.5699
21.036821 97.605 -12.6327
21.189262 97.605 -12.6989
21.342808 97.605 -12.7693
21.497467 97.605 -12.8439
21.653246 97.605 -12.9230
21.810154 97.605 -13.0069
21.968201 97.604 -13.0960
22.127390 97.603 -13.1899
22.287735 97.601 -13.2888
22.449242 97.599 -13.3909
22.611917 97.595 -13.4953
22.775772 97.590 -13.5989
22.940815 97.583 -13.6981
23.107054 97.575 -13.7929
23.274498 97.568 -13.8821
23.443153 97.560 -13.9659
23.613033 97.552 -14.0437
23.784142 97.544 -14.1169
23.956491 97.538 -14.1853
24.130091 97.533 -14.2529
24.304947 97.530 -14.3232
24.481071 97.527 -14.3979
24.658470 97.525 -14.4799
24.837156 97.523 -14.5689
25.017136 97.521 -14.6660
25.198421 97.518 -14.7689
25.381020 97.513 -14.8770
25.564941 97.507 -14.9859
25.750195 97.500 -15.0905
25.936790 97.492 -15.1919
26.124741 97.484 -15.2893
26.314051 97.476 -15.3839
26.504732 97.468 -15.4763
26.696796 97.461 -15.5669
26.890253 97.454 -15.6551
27.085112 97.448 -15.7449
27.281382 97.444 -15.8401
27.479073 97.439 -15.9399
27.678198 97.433 -16.0459
27.878765 97.426 -16.1548
28.080786 97.418 -16.2642
28.284271 97.410 -16.3739
28.489231 97.402 -16.4832
28.695675 97.393 -16.5919
28.903616 97.384 -16.6995
29.113064 97.374 -16.8049
29.324028 97.363 -16.9064
29.536524 97.352 -17.0049
29.750557 97.342 -17.0996
29.966141 97.333 -17.1929
30.183289 97.324 -17.2870
30.402010 97.316 -17.3819
30.622314 97.307 -17.4780
30.844217 97.298 -17.5759
31.067726 97.290 -17.6756
31.292856 97.283 -17.7788
31.519617 97.276 -17.8880
31.748020 97.268 -18.0009
31.978081 97.259 -18.1159
32.209808 97.249 -18.2328
32.443211 97.239 -18.3519
32.678310 97.229 -18.4708
32.915108 97.216 -18.5883
33.153625 97.203 -18.7019
33.393871 97.190 -18.8071
33.635857 97.177 -18.9088
33.879597 97.166 -19.0100
34.125103 97.155 -19.1119
34.372387 97.144 -19.2173
34.621464 97.133 -19.3248
34.872345 97.122 -19.4336
35.125042 97.111 -19.5439
35.379574 97.100 -19.6554
35.635948 97.088 -19.7689
35.894180 97.076 -19.8855
36.154285 97.064 -20.0028
36.416275 97.051 -20.1194
36.680161 97.037 -20.2338
36.945961 97.022 -20.3429
37.213688 97.008 -20.4508
37.483353 96.996 -20.5610
37.754974 96.984 -20.6728
38.028561 96.970 -20.7880
38.304131 96.956 -20.9038
38.581699 96.942 -21.0173
38.861279 96.928 -21.1308
39.142883 96.913 -21.2470
39.426529 96.898 -21.3618
39.712231 96.881 -21.4720
40.000000 96.864 -21.5788
40.289856 96.848 -21.6822
40.581814 96.833 -21.7839
40.875885 96.817 -21.8860
41.172089 96.802 -21.9868
41.470440 96.787 -22.0843
41.770950 96.772 -22.1818
42.073643 96.759 -22.2827
42.378525 96.746 -22.3859
42.685616 96.731 -22.4920
42.994934 96.716 -22.5989
43.306492 96.702 -22.7029
43.620308 96.688 -22.8088
43.936401 96.676 -22.9205
44.254780 96.664 -23.0368
44.575470 96.650 -23.1586
44.898483 96.635 -23.2838
45.223835 96.621 -23.4101
45.551544 96.606 -23.5388
45.881630 96.591 -23.6715
46.214108 96.575 -23.8058
46.548996 96.557 -23.9405
46.886307 96.538 -24.0738
47.226067 96.519 -24.2030
47.568283 96.499 -24.3298
47.912983 96.480 -24.4548
48.260181 96.460 -24.5778
48.609894 96.440 -24.6983
48.962143 96.419 -24.8178
49.316940 96.399 -24.9377
49.674313 96.379 -25.0578
50.034271 96.358 -25.1788
50.396843 96.336 -25.2998
50.762039 96.315 -25.4207
51.129883 96.293 -25.5398
51.500389 96.269 -25.6565
51.873581 96.243 -25.7668
52.249481 96.217 -25.8656
52.628101 96.191 -25.9559
53.009464 96.167 -26.0384
53.393593 96.143 -26.1149
53.780506 96.120 -26.1873
54.170223 96.097 -26.2549
54.562763 96.075 -26.3151
54.958145 96.056 -26.3759
55.356396 96.041 -26.4445
55.757530 96.027 -26.5209
56.161572 96.011 -26.6085
56.568542 95.995 -26.7038
56.978462 95.980 -26.8041
57.391350 95.965 -26.9108
57.807232 95.949 -27.0252
58.226128 95.932 -27.1448
58.648056 95.914 -27.2677
59.073048 95.894 -27.3928
59.501114 95.874 -27.5185
59.932281 95.853 -27.6438
60.366577 95.831 -27.7669
60.804020 95.808 -27.8878
61.244629 95.785 -28.0056
61.688435 95.762 -28.1208
62.135452 95.739 -28.2337
62.585712 95.715 -28.3438
63.039234 95.691 -28.4503
63.496040 95.667 -28.5548
63.956161 95.644 -28.6586
64.419617 95.622 -28.7628
64.886421 95.599 -28.8685
65.356621 95.576 -28.9768
65.830215 95.554 -29.0898
66.307251 95.532 -29.2058
66.787743 95.508 -29.3244
67.271713 95.483 -29.4438
67.759193 95.458 -29.5623
68.250206 95.431 -29.6788
68.744774 95.403 -29.7930
69.242928 95.374 -29.9008
69.744690 95.344 -29.9966
70.250084 95.314 -30.0848
70.759148 95.287 -30.1672
71.271896 95.261 -30.2469
71.788361 95.234 -30.3285
72.308571 95.208 -30.4088
72.832550 95.181 -30.4845
73.360321 95.156 -30.5609
73.891922 95.134 -30.6420
74.427376 95.112 -30.7278
74.966705 95.088 -30.8214
75.509949 95.064 -30.9178
76.057121 95.039 -31.0124
76.608261 95.013 -31.1078
77.163399 94.989 -31.2054
77.722557 94.965 -31.3048
78.285767 94.939 -31.4067
78.853058 94.912 -31.5098
79.424461 94.886 -31.6132
80.000000 94.860 -31.7168
80.579712 94.832 -31.8212
81.163628 94.803 -31.9228
81.751770 94.773 -32.0178
82.344177 94.742 -32.1078
82.940880 94.713 -32.1926
83.541901 94.684 -32.2738
84.147285 94.655 -32.3531
84.757050 94.626 -32.4309
85.371231 94.599 -32.5075
85.989868 94.572 -32.5848
86.612984 94.545 -32.6647
87.240616 94.519 -32.7478
87.872803 94.493 -32.8354
88.509560 94.467 -32.9278
89.150940 94.441 -33.0268
89.796967 94.413 -33.1288
90.447670 94.383 -33.2317
91.103088 94.352 -33.3328
91.763260 94.321 -33.4282
92.428215 94.289 -33.5188
93.097992 94.256 -33.6040
93.772614 94.223 -33.6838
94.452133 94.191 -33.7578
95.136566 94.159 -33.8279
95.825966 94.128 -33.8955
96.520363 94.097 -33.9619
97.219788 94.067 -34.0279
97.924286 94.037 -34.0949
98.633881 94.008 -34.1639
99.348625 93.979 -34.2368
100.068542 93.951 -34.3182
100.793686 93.921 -34.4018
101.524078 93.888 -34.4833
102.259766 93.854 -34.5608
103.000778 93.821 -34.6297
103.747162 93.788 -34.6939
104.498962 93.756 -34.7557
105.256203 93.724 -34.8149
106.018929 93.692 -34.8715
106.787186 93.660 -34.9269
107.561012 93.630 -34.9812
108.340446 93.601 -35.0379
109.125526 93.572 -35.1017
109.916290 93.543 -35.1699
110.712791 93.513 -35.2419
111.515060 93.482 -35.3158
112.323143 93.451 -35.3895
113.137085 93.419 -35.4628
113.956924 93.387 -35.5351
114.782700 93.354 -35.6058
115.614464 93.321 -35.6742
116.452255 93.288 -35.7409
117.296112 93.255 -35.8054
118.146095 93.222 -35.8699
119.002228 93.190 -35.9363
119.864563 93.157 -36.0038
120.733154 93.123 -36.0733
121.608040 93.088 -36.1418
122.489258 93.053 -36.2071
123.376869 93.017 -36.2689
124.270905 92.981 -36.3258
125.171425 92.945 -36.3789
126.078468 92.909 -36.4279
126.992081 92.874 -36.4749
127.912323 92.840 -36.5211
128.839233 92.806 -36.5689
129.772842 92.772 -36.6217
130.713242 92.738 -36.6769
131.660431 92.703 -36.7335
132.614502 92.667 -36.7898
133.575485 92.630 -36.8437
134.543427 92.593 -36.8959
135.518387 92.556 -36.9485
136.500412 92.518 -36.9959
137.489548 92.476 -37.0333
138.485855 92.434 -37.0609
139.489380 92.395 -37.0751
140.500168 92.357 -37.0830
141.518295 92.321 -37.0906
142.543793 92.286 -37.0980
143.576721 92.251 -37.1073
144.617142 92.217 -37.1180
145.665100 92.184 -37.1293
146.720642 92.151 -37.1440
147.783844 92.119 -37.1639
148.854752 92.088 -37.1899
149.933411 92.057 -37.2242
151.019897 92.025 -37.2639
152.114243 91.992 -37.3078
153.216522 91.957 -37.3539
154.326797 91.921 -37.3998
155.445114 91.885 -37.4459
156.571533 91.849 -37.4925
157.706116 91.811 -37.5379
158.848923 91.772 -37.5820
160.000000 91.731 -37.6209
161.159424 91.689 -37.6511
162.327255 91.646 -37.6720
163.503540 91.604 -37.6808
164.688354 91.562 -37.6810
165.881760 91.521 -37.6748
167.083801 91.481 -37.6630
168.294571 91.442 -37.6473
169.514099 91.403 -37.6280
170.742462 91.365 -37.6046
171.979736 91.329 -37.5821
173.225967 91.296 -37.5660
174.481232 91.263 -37.5550
175.745605 91.229 -37.5504
177.019119 91.195 -37.5500
178.301880 91.161 -37.5522
179.593933 91.127 -37.5570
180.895340 91.091 -37.5645
182.206177 91.055 -37.5720
183.526520 91.019 -37.5761
184.856430 90.982 -37.5790
186.195984 90.945 -37.5824
187.545227 90.908 -37.5850
188.904266 90.871 -37.5857
190.273132 90.833 -37.5850
191.651932 90.796 -37.5821
193.040726 90.759 -37.5800
194.439575 90.723 -37.5822
195.848572 90.686 -37.5860
197.267761 90.647 -37.5905
198.697250 90.607 -37.5940
200.137085 90.568 -37.5951
201.587372 90.527 -37.5920
203.048157 90.484 -37.5831
204.519531 90.440 -37.5671
206.001556 90.398 -37.5408
207.494324 90.356 -37.5081
208.997925 90.315 -37.4718
210.512405 90.274 -37.4311
212.037857 90.232 -37.3865
213.574371 90.191 -37.3371
215.122025 90.151 -37.2815
216.680893 90.112 -37.2222
218.251053 90.074 -37.1606
219.832581 90.037 -37.0992
221.425583 90.001 -37.0410
223.030121 89.966 -36.9851
224.646286 89.932 -36.9319
226.274170 89.897 -36.8811
227.913849 89.862 -36.8322
229.565399 89.827 -36.7861
231.228928 89.794 -36.7440
232.904510 89.760 -36.7051
234.592224 89.725 -36.6699
236.292191 89.689 -36.6361
238.004456 89.653 -36.6017
239.729126 89.617 -36.5661
241.466309 89.580 -36.5280
243.216080 89.542 -36.4881
244.978516 89.505 -36.4461
246.753738 89.469 -36.4041
248.541809 89.433 -36.3653
250.342850 89.396 -36.3271
252.156937 89.358 -36.2883
253.984161 89.319 -36.2481
255.824646 89.281 -36.2051
257.678467 89.242 -36.1601
259.545685 89.203 -36.1140
261.426483 89.164 -36.0661
263.320862 89.124 -36.0161
265.229004 89.084 -35.9641
267.150970 89.044 -35.9107
269.086853 89.004 -35.8552
271.036774 88.963 -35.7971
273.000824 88.922 -35.7362
274.979095 88.881 -35.6726
276.971710 88.839 -35.6042
278.978760 88.796 -35.5294
281.000336 88.753 -35.4472
283.036591 88.710 -35.3549
285.087585 88.668 -35.2563
287.153442 88.627 -35.1547
289.234283 88.587 -35.0493
291.330200 88.546 -34.9401
293.441284 88.506 -34.8273
295.567688 88.468 -34.7097
297.709503 88.430 -34.5913
299.866821 88.394 -34.4770
302.039795 88.358 -34.3633
304.228485 88.321 -34.2485
306.433044 88.284 -34.1323
308.653595 88.249 -34.0133
310.890228 88.214 -33.8943
313.143066 88.180 -33.7784
315.412231 88.146 -33.6643
317.697845 88.112 -33.5514
320.000000 88.078 -33.4413
322.318848 88.046 -33.3356
324.654510 88.013 -33.2333
327.007080 87.979 -33.1348
329.376709 87.944 -33.0373
331.763519 87.908 -32.9386
334.167603 87.872 -32.8373
336.589142 87.835 -32.7319
339.028198 87.797 -32.6213
341.484924 87.759 -32.5041
343.959473 87.720 -32.3804
346.451935 87.682 -32.2489
348.962463 87.645 -32.1124
351.491211 87.610 -31.9716
354.038239 87.576 -31.8304
356.603760 87.543 -31.6929
359.187866 87.511 -31.5584
361.790680 87.478 -31.4278
364.412354 87.445 -31.3004
367.053040 87.413 -31.1760
369.712860 87.380 -31.0534
372.391968 87.346 -30.9323
375.090454 87.310 -30.8094
377.808533 87.273 -30.6813
380.546265 87.236 -30.5474
383.303864 87.199 -30.4046
386.081451 87.163 -30.2564
388.879150 87.128 -30.1051
391.697144 87.094 -29.9525
394.535522 87.060 -29.8013
397.394501 87.027 -29.6514
400.274170 86.994 -29.5045
403.174744 86.960 -29.3575
406.096313 86.924 -29.2084
409.039062 86.888 -29.0555
412.003113 86.852 -28.8963
414.988647 86.815 -28.7305
417.995850 86.778 -28.5571
421.024811 86.742 -28.3766
424.075714 86.706 -28.1892
427.148743 86.671 -27.9956
430.244049 86.636 -27.7960
433.361786 86.603 -27.5927
436.502106 86.572 -27.3878
439.665161 86.542 -27.1826
442.851166 86.512 -26.9792
446.060242 86.483 -26.7766
449.292572 86.454 -26.5747
452.548340 86.426 -26.3736
455.827698 86.399 -26.1732
459.130798 86.372 -25.9746
462.457855 86.345 -25.7794
465.809021 86.319 -25.5866
469.184448 86.293 -25.3958
472.584381 86.267 -25.2076
476.008911 86.241 -25.0241
479.458252 86.214 -24.8406
482.932617 86.184 -24.6523
486.432159 86.154 -24.4606
489.957031 86.126 -24.2647
493.507477 86.099 -24.0666
497.083618 86.070 -23.8701
500.685699 86.041 -23.6697
504.313873 86.010 -23.4590
507.968323 85.980 -23.2437
511.649292 85.954 -23.0277
515.356934 85.929 -22.8107
519.091370 85.901 -22.5958
522.852966 85.871 -22.3767
526.641724 85.841 -22.1456
530.458008 85.813 -21.9098
534.301941 85.789 -21.6752
538.173706 85.765 -21.4388
542.073547 85.737 -21.2016
546.001648 85.708 -20.9579
549.958191 85.681 -20.6989
553.943420 85.656 -20.4339
557.957520 85.634 -20.1684
562.000671 85.614 -19.9039
566.073181 85.593 -19.6444
570.175171 85.573 -19.3878
574.306885 85.555 -19.1327
578.468567 85.537 -18.8809
582.660400 85.519 -18.6344
586.882568 85.501 -18.3918
591.135376 85.482 -18.1536
595.419006 85.462 -17.9158
599.733643 85.441 -17.6757
604.079590 85.419 -17.4299
608.456970 85.396 -17.1735
612.866089 85.373 -16.9089
617.307190 85.352 -16.6364
621.780457 85.331 -16.3569
626.286133 85.311 -16.0711
630.824463 85.291 -15.7810
635.395691 85.274 -15.4886
640.000000 85.258 -15.1950
644.637695 85.242 -14.9029
649.309021 85.227 -14.6100
654.014160 85.212 -14.3139
658.753418 85.197 -14.0170
663.527039 85.185 -13.7211
668.335205 85.173 -13.4250
673.178284 85.159 -13.1295
678.056396 85.145 -12.8300
682.969849 85.132 -12.5208
687.918945 85.119 -12.2061
692.903870 85.108 -11.8881
697.924927 85.099 -11.5671
702.982422 85.090 -11.2442
708.076477 85.082 -10.9192
713.207520 85.076 -10.5912
718.375732 85.071 -10.2642
723.581360 85.068 -9.9415
728.824707 85.066 -9.6231
734.106079 85.065 -9.3104
739.425720 85.064 -9.0031
744.783936 85.064 -8.7020
750.180908 85.064 -8.4060
755.617065 85.063 -8.1150
761.092529 85.062 -7.8270
766.607727 85.060 -7.5416
772.162903 85.056 -7.2550
777.758301 85.051 -6.9645
783.394287 85.044 -6.6671
789.071045 85.037 -6.3590
794.789001 85.029 -6.0392
800.548340 85.021 -5.7049
806.349487 85.014 -5.3563
812.192627 85.007 -4.9924
818.078125 85.001 -4.6134
824.006226 84.997 -4.2173
829.977295 84.996 -3.8095
835.991699 84.999 -3.3936
842.049622 85.005 -2.9726
848.151428 85.013 -2.5503
854.297485 85.023 -2.1266
860.488098 85.036 -1.7022
866.723572 85.051 -1.2786
873.004211 85.068 -0.8576
879.330322 85.088 -0.4385
885.702332 85.109 -0.0208
892.120483 85.132 0.3955
898.585144 85.157 0.8111
905.096680 85.184 1.2245
911.655396 85.213 1.6346
918.261597 85.245 2.0415
924.915710 85.279 2.4455
931.618042 85.315 2.8446
938.368896 85.354 3.2374
945.168762 85.395 3.6216
952.017822 85.439 3.9942
958.916504 85.485 4.3556
965.865234 85.532 4.7048
972.864319 85.581 5.0428
979.914062 85.630 5.3700
987.014954 85.681 5.6878
994.167236 85.733 5.9988
1001.371399 85.788 6.2990
1008.627747 85.845 6.5856
1015.936646 85.905 6.8569
1023.298584 85.965 7.1102
1030.713867 86.027 7.3453
1038.182739 86.090 7.5632
1045.705933 86.154 7.7582
1053.283447 86.221 7.9240
1060.916016 86.288 8.0625
1068.603882 86.351 8.1709
1076.347412 86.412 8.2567
1084.147095 86.470 8.3263
1092.003296 86.526 8.3798
1099.916382 86.579 8.4178
1107.886841 86.629 8.4459
1115.915039 86.673 8.4685
1124.001343 86.714 8.4909
1132.146362 86.752 8.5190
1140.350342 86.787 8.5548
1148.613770 86.819 8.6010
1156.937134 86.848 8.6617
1165.320801 86.875 8.7419
1173.765137 86.902 8.8415
1182.270752 86.929 8.9625
1190.838013 86.956 9.1034
1199.467285 86.984 9.2639
1208.159180 87.013 9.4423
1216.913940 87.045 9.6386
1225.732178 87.080 9.8472
1234.614380 87.119 10.0629
1243.560913 87.162 10.2842
1252.572266 87.206 10.5071
1261.648926 87.253 10.7331
1270.791382 87.302 10.9635
1280.000000 87.354 11.1951
1289.275391 87.410 11.4256
1298.618042 87.470 11.6531
1308.028320 87.532 11.8749
1317.506836 87.598 12.0911
1327.054077 87.666 12.3020
1336.670410 87.739 12.5032
1346.356567 87.815 12.6916
1356.112793 87.896 12.8644
1365.939697 87.979 13.0192
1375.837891 88.066 13.1525
1385.807739 88.156 13.2602
1395.849854 88.249 13.3407
1405.964844 88.343 13.3918
1416.152954 88.438 13.4120
1426.415039 88.534 13.3986
1436.751465 88.630 13.3532
1447.162720 88.724 13.2748
1457.649414 88.817 13.1685
1468.212158 88.906 13.0381
1478.851440 88.993 12.8866
1489.567871 89.078 12.7168
1500.361816 89.161 12.5327
1511.234131 89.239 12.3380
1522.185059 89.314 12.1369
1533.215454 89.387 11.9353
1544.325806 89.458 11.7329
1555.516602 89.528 11.5306
1566.788574 89.597 11.3298
1578.142090 89.664 11.1322
1589.578003 89.732 10.9378
1601.096680 89.799 10.7492
1612.698975 89.868 10.5608
1624.385254 89.940 10.3689
1636.156250 90.014 10.1699
1648.012451 90.087 9.9578
1659.954590 90.161 9.7358
1671.983398 90.233 9.5058
1684.099243 90.306 9.2660
1696.302856 90.380 9.0146
1708.594971 90.455 8.7532
1720.976196 90.527 8.4812
1733.447144 90.598 8.2042
1746.008423 90.668 7.9291
1758.660645 90.740 7.6511
1771.404663 90.814 7.3696
1784.240967 90.890 7.0792
1797.170288 90.967 6.7744
1810.193359 91.046 6.4553
1823.310791 91.124 6.1203
1836.523193 91.203 5.7694
1849.831421 91.282 5.4023
1863.236084 91.361 5.0188
1876.737793 91.439 4.6183
1890.337524 91.518 4.2018
1904.035645 91.596 3.7694
1917.833008 91.674 3.3228
1931.730469 91.750 2.8648
1945.728638 91.827 2.3921
1959.828125 91.905 1.9028
1974.029907 91.984 1.3952
1988.334473 92.061 0.8672
2002.742798 92.138 0.3183
2017.255493 92.215 -0.2528
2031.873291 92.291 -0.8456
2046.597168 92.365 -1.4603
2061.427734 92.437 -2.0961
2076.365479 92.508 -2.7522
2091.411865 92.577 -3.4291
2106.566895 92.644 -4.1274
2121.832031 92.710 -4.8470
2137.207764 92.773 -5.5879
2152.694824 92.834 -6.3499
2168.294189 92.891 -7.1335
2184.006592 92.946 -7.9363
2199.832764 92.996 -8.7570
2215.773682 93.043 -9.5926
2231.830078 93.086 -10.4391
2248.002686 93.126 -11.2984
2264.292725 93.163 -12.1713
2280.700684 93.197 -13.0562
2297.227539 93.226 -13.9520
2313.874268 93.251 -14.8573
2330.641602 93.273 -15.7691
2347.530273 93.291 -16.6900
2364.541504 93.306 -17.6222
2381.676025 93.318 -18.5647
2398.934570 93.325 -19.5180
2416.318359 93.328 -20.4797
2433.827881 93.325 -21.4489
2451.464355 93.317 -22.4219
2469.228760 93.304 -23.3954
2487.121826 93.285 -24.3678
2505.144531 93.261 -25.3379
2523.297852 93.232 -26.3026
2541.582764 93.196 -27.2603
2560.000000 93.155 -28.2049
2578.550781 93.108 -29.1291
2597.236084 93.057 -30.0349
2616.056641 93.003 -30.9213
2635.013672 92.946 -31.7894
2654.108154 92.885 -32.6396
2673.340820 92.820 -33.4724
2692.713135 92.754 -34.2876
2712.225586 92.685 -35.0883
2731.879395 92.614 -35.8788
2751.675781 92.538 -36.6554
2771.615479 92.459 -37.4178
2791.699707 92.374 -38.1608
2811.929688 92.286 -38.8802
2832.305908 92.192 -39.5728
2852.830078 92.095 -40.2351
2873.502930 91.993 -40.8633
2894.325439 91.888 -41.4538
2915.298828 91.779 -42.0026
2936.424316 91.667 -42.5049
2957.702881 91.554 -42.9601
2979.135742 91.441 -43.3653
3000.723633 91.327 -43.7225
3022.468262 91.215 -44.0330
3044.370117 91.104 -44.2959
3066.430908 90.996 -44.5089
3088.651611 90.890 -44.6773
3111.033203 90.792 -44.8034
3133.577148 90.698 -44.8946
3156.284180 90.611 -44.9574
3179.156006 90.530 -44.9979
3202.193359 90.457 -45.0210
3225.397949 90.391 -45.0359
3248.770508 90.334 -45.0520
3272.312500 90.283 -45.0739
3296.024902 90.237 -45.1098
3319.909180 90.194 -45.1587
3343.966797 90.155 -45.2212
3368.198486 90.120 -45.3006
3392.605713 90.089 -45.4007
3417.189941 90.059 -45.5204
3441.952393 90.029 -45.6616
3466.894287 89.999 -45.8193
3492.016846 89.969 -45.9898
3517.321289 89.937 -46.1711
3542.809326 89.904 -46.3608
3568.481934 89.870 -46.5561
3594.340576 89.835 -46.7559
3620.386719 89.798 -46.9531
3646.621582 89.757 -47.1414
3673.046387 89.713 -47.3162
3699.662842 89.670 -47.4706
3726.472168 89.626 -47.6044
3753.475586 89.583 -47.7162
3780.675049 89.540 -47.8037
3808.071289 89.499 -47.8625
3835.666016 89.461 -47.8969
3863.460938 89.429 -47.9076
3891.457275 89.403 -47.9011
3919.656250 89.383 -47.8830
3948.059814 89.369 -47.8571
3976.668945 89.363 -47.8256
4005.485596 89.366 -47.7991
4034.510986 89.378 -47.7854
4063.746582 89.400 -47.7959
4093.194336 89.430 -47.8407
4122.855469 89.470 -47.9314
4152.730957 89.518 -48.0793
4182.823730 89.574 -48.2958
4213.133789 89.635 -48.5936
4243.664062 89.700 -48.9799
4274.415527 89.765 -49.4665
4305.389648 89.828 -50.0529
4336.588379 89.885 -50.7456
4368.013184 89.934 -51.5350
4399.665527 89.970 -52.4184
4431.547363 89.992 -53.3811
4463.660156 89.997 -54.4147
4496.005371 89.982 -55.4975
4528.585449 89.945 -56.6134
4561.401367 89.886 -57.7377
4594.455078 89.804 -58.8491
4627.748535 89.698 -59.9209
4661.283203 89.567 -60.9284
4695.060547 89.413 -61.8438
4729.083008 89.236 -62.6396
4763.352051 89.040 -63.2903
4797.869141 88.825 -63.7692
4832.636719 88.595 -64.0531
4867.655762 88.354 -64.1116
4902.928711 88.109 -63.9394
4938.457520 87.868 -63.5169
4974.243652 87.637 -62.8577
5010.289062 87.424 -61.9597
5046.595703 87.237 -60.8511
5083.165527 87.083 -59.5424
5120.000000 86.971 -58.0834
5157.101562 86.911 -56.5091
5194.472168 86.903 -54.8750
5232.113281 86.949 -53.2324
5270.027344 87.048 -51.6299
5308.216309 87.201 -50.1188
5346.681641 87.401 -48.7433
5385.426270 87.646 -47.5561
5424.451172 87.926 -46.5832
5463.758789 88.232 -45.8640
5503.351562 88.560 -45.4105
5543.230957 88.904 -45.2467
5583.399414 89.255 -45.3756
5623.859375 89.605 -45.8132
5664.611816 89.947 -46.5447
5705.660156 90.275 -47.5679
5747.005859 90.584 -48.8607
5788.650879 90.870 -50.4108
5830.597656 91.127 -52.1853
5872.848633 91.349 -54.1606
5915.405762 91.536 -56.2956
5958.271484 91.685 -58.5533
6001.447266 91.797 -60.8978
6044.936523 91.870 -63.2931
6088.740234 91.907 -65.7029
6132.861816 91.905 -68.0884
6177.303223 91.868 -70.4205
6222.066406 91.801 -72.6606
6267.154297 91.708 -74.7976
6312.568359 91.591 -76.8102
6358.312012 91.455 -78.6909
6404.386719 91.300 -80.4238
6450.795898 91.134 -82.0122
6497.541016 90.962 -83.4491
6544.625000 90.786 -84.7488
6592.049805 90.611 -85.9199
6639.818359 90.438 -86.9729
6687.933594 90.268 -87.9159
6736.396973 90.105 -88.7639
6785.211426 89.952 -89.5297
6834.379883 89.808 -90.2276
6883.904785 89.672 -90.8726
6933.788574 89.547 -91.4740
6984.033691 89.432 -92.0424
7034.642578 89.327 -92.5883
7085.618652 89.233 -93.1221
7136.963867 89.148 -93.6553
7188.681152 89.075 -94.1999
7240.773438 89.009 -94.7641
7293.243164 88.951 -95.3591
7346.092773 88.898 -95.9877
7399.325684 88.851 -96.6544
7452.944336 88.808 -97.3663
7506.951172 88.770 -98.1318
7561.350098 88.732 -98.9516
7616.142578 88.693 -99.8306
7671.332031 88.652 -100.7640
7726.921875 88.607 -101.7502
7782.914551 88.557 -102.7855
7839.312500 88.501 -103.8699
7896.119629 88.436 -104.9920
7953.337891 88.361 -106.1443
8010.971191 88.274 -107.3158
8069.021973 88.178 -108.4975
8127.493164 88.071 -109.6748
8186.388672 87.949 -110.8339
8245.710938 87.817 -111.9631
8305.461914 87.676 -113.0472
8365.647461 87.527 -114.0837
8426.267578 87.372 -115.0658
8487.328125 87.212 -115.9903
8548.831055 87.048 -116.8498
8610.779297 86.884 -117.6499
8673.176758 86.723 -118.3887
8736.026367 86.567 -119.0814
8799.331055 86.417 -119.7372
8863.094727 86.275 -120.3717
8927.320312 86.141 -120.9981
8992.010742 86.015 -121.6316
9057.170898 85.897 -122.2875
9122.802734 85.786 -122.9792
9188.910156 85.680 -123.7234
9255.497070 85.578 -124.5265
9322.566406 85.475 -125.4023
9390.121094 85.369 -126.3458
9458.166016 85.255 -127.3599
9526.704102 85.132 -128.4342
9595.738281 84.996 -129.5648
9665.273438 84.846 -130.7347
9735.311523 84.678 -131.9333
9805.857422 84.490 -133.1365
9876.915039 84.281 -134.3262
9948.487305 84.050 -135.4739
10020.578125 83.796 -136.5585
10093.191406 83.518 -137.5400
10166.331055 83.214 -138.3800
10240.000000 82.891 -139.0519
10314.203125 82.553 -139.5182
10388.944336 82.207 -139.7743
10464.226562 81.855 -139.8011
10540.054688 81.507 -139.6068
10616.432617 81.168 -139.1788
10693.363281 80.850 -138.5592
10770.852539 80.566 -137.7664
10848.902344 80.317 -136.8591
10927.517578 80.111 -135.8865
11006.703125 79.945 -134.8963
11086.461914 79.821 -133.9395
11166.798828 79.734 -133.0566
11247.718750 79.682 -132.2993
11329.223633 79.655 -131.6848
11411.320312 79.645 -131.2493
11494.011719 79.644 -130.9869
11577.301758 79.646 -130.9104
11661.195312 79.644 -130.9991
11745.697266 79.631 -131.2478
11830.811523 79.603 -131.6217
11916.542969 79.554 -132.0971
12002.894531 79.482 -132.6349
12089.873047 79.387 -133.1978
12177.480469 79.270 -133.7559
12265.723633 79.130 -134.2763
12354.606445 78.970 -134.7318
12444.132812 78.790 -135.0900
12534.308594 78.596 -135.3330
12625.136719 78.391 -135.4323
12716.624023 78.180 -135.3876
12808.773438 77.969 -135.1877
12901.591797 77.761 -134.8374
12995.082031 77.561 -134.3337
13089.250000 77.373 -133.6886
13184.099609 77.202 -132.9061
13279.636719 77.054 -132.0079
13375.867188 76.932 -131.0097
13472.793945 76.838 -129.9333
13570.422852 76.776 -128.7966
13668.759766 76.748 -127.6270
13767.809570 76.758 -126.4464
13867.577148 76.807 -125.2896
13968.067383 76.897 -124.1860
14069.285156 77.029 -123.1744
14171.237305 77.203 -122.2900
14273.927734 77.415 -121.5733
14377.362305 77.665 -121.0623
14481.546875 77.947 -120.7996
14586.486328 78.260 -120.8293
14692.185547 78.592 -121.1839
14798.651367 78.937 -121.9076
14905.888672 79.283 -123.0104
15013.902344 79.621 -124.5200
15122.700195 79.940 -126.4270
15232.285156 80.233 -128.7419
15342.664062 80.489 -131.4315
15453.843750 80.697 -134.4875
15565.829102 80.852 -137.8481
15678.625000 80.944 -141.4742
15792.239258 80.971 -145.2880
15906.675781 80.927 -149.2254
16021.942383 80.812 -153.2055
16138.043945 80.623 -157.1593
16254.986328 80.360 -160.9873
16372.777344 80.016 -164.5933
16491.421875 79.603 -167.8967
16610.923828 79.130 -170.7921
16731.294922 78.606 -173.2580
16852.535156 78.043 -175.2356
16974.656250 77.454 -176.7324
17097.662109 76.847 -177.7065
17221.558594 76.253 -178.2479
17346.353516 75.700 -178.3856
17472.052734 75.200 -178.2643
17598.662109 74.774 -178.0011
17726.189453 74.414 -177.7095
17854.640625 74.123 -177.5159
17984.021484 73.886 -177.4984
18114.341797 73.702 -177.7812
18245.605469 73.536 -178.3519
18377.820312 73.359 -179.2769
18510.994141 73.156 179.5583
18645.132812 72.905 178.1942
18780.242188 72.596 176.7895
18916.332031 72.211 175.4700
19053.408203 71.759 174.3773
19191.476562 71.234 173.6854
19330.546875 70.661 173.4241
19470.623047 70.055 173.7045
19611.714844 69.439 174.4545
19753.830078 68.836 175.6731
19896.974609 68.268 177.2545
