* Measurement data measured by REW V5.20.13
* Source: C:\Users\kurin\Desktop\Targets and Curves\Resolve\Img\Files\Blessing3_R_SPL.txt
* Format: Comma/Tab/Space delimited data
* Dated: Aug 14, 2023 3:06:38 PM
* REW Settings:
*  C-weighting compensation: Off
*  Target level: 75.0 dB
* Note: ; Measurement imported from C:\Users\kurin\Desktop\Targets and Curves\Resolve\Img\Files\Blessing3_R_SPL.txt Format: Comma/Tab/Space delimited data 623 values loaded, 5 Hz to 39,792 Hz log spaced 
* Measurement: Blessing3_R_SPL
* Smoothing: 1/48 octave
* Frequency Step: 1/96 octave
* Start Frequency: 5.000 Hz
*
* Freq(Hz) SPL(dB) Phase(degrees)
5.000000 94.937 -13.3360
5.036232 94.933 -13.3398
5.072727 94.929 -13.3440
5.109486 94.924 -13.3495
5.146511 94.919 -13.3560
5.183805 94.913 -13.3635
5.221369 94.906 -13.3720
5.259205 94.899 -13.3817
5.297316 94.891 -13.3920
5.335702 94.883 -13.4023
5.374367 94.874 -13.4130
5.413311 94.866 -13.4244
5.452538 94.858 -13.4360
5.492050 94.850 -13.4470
5.531847 94.841 -13.4580
5.571934 94.833 -13.4694
5.612310 94.825 -13.4810
5.652979 94.816 -13.4929
5.693943 94.808 -13.5050
5.735204 94.800 -13.5170
5.776763 94.792 -13.5290
5.818624 94.784 -13.5409
5.860788 94.775 -13.5530
5.903258 94.766 -13.5654
5.946035 94.758 -13.5780
5.989123 94.750 -13.5905
6.032523 94.742 -13.6030
6.076237 94.733 -13.6154
6.120268 94.725 -13.6280
6.164618 94.717 -13.6409
6.209289 94.709 -13.6540
6.254284 94.701 -13.6669
6.299605 94.692 -13.6800
6.345255 94.684 -13.6934
6.391235 94.676 -13.7070
6.437549 94.668 -13.7205
6.484198 94.659 -13.7340
6.531185 94.651 -13.7474
6.578513 94.643 -13.7610
6.626183 94.634 -13.7749
6.674199 94.626 -13.7890
6.722563 94.618 -13.8029
6.771278 94.610 -13.8170
6.820345 94.602 -13.8314
6.869768 94.593 -13.8460
6.919549 94.585 -13.8604
6.969691 94.577 -13.8750
7.020196 94.569 -13.8899
7.071068 94.560 -13.9050
7.122308 94.551 -13.9200
7.173919 94.543 -13.9350
7.225904 94.535 -13.9499
7.278266 94.527 -13.9650
7.331007 94.519 -13.9804
7.384131 94.510 -13.9960
7.437639 94.502 -14.0119
7.491535 94.494 -14.0280
7.545822 94.486 -14.0440
7.600502 94.477 -14.0600
7.655579 94.469 -14.0759
7.711054 94.461 -14.0920
7.766932 94.452 -14.1084
7.823214 94.444 -14.1250
7.879904 94.436 -14.1419
7.937005 94.428 -14.1590
7.994520 94.420 -14.1759
8.052452 94.411 -14.1930
8.110803 94.403 -14.2104
8.169578 94.395 -14.2280
8.228777 94.386 -14.2455
8.288406 94.378 -14.2630
8.348468 94.370 -14.2804
8.408964 94.362 -14.2980
8.469899 94.354 -14.3164
8.531276 94.345 -14.3350
8.593097 94.337 -14.3529
8.655366 94.329 -14.3710
8.718086 94.321 -14.3899
8.781260 94.312 -14.4090
8.844893 94.303 -14.4280
8.908987 94.295 -14.4470
8.973545 94.287 -14.4659
9.038571 94.279 -14.4850
9.104069 94.271 -14.5044
9.170040 94.262 -14.5240
9.236490 94.254 -14.5439
9.303422 94.246 -14.5640
9.370838 94.238 -14.5844
9.438744 94.229 -14.6050
9.507140 94.221 -14.6255
9.576033 94.213 -14.6460
9.645425 94.205 -14.6664
9.715320 94.196 -14.6870
9.785721 94.188 -14.7084
9.856632 94.180 -14.7300
9.928058 94.172 -14.7515
10.000000 94.163 -14.7730
10.072464 94.155 -14.7944
10.145453 94.147 -14.8160
10.218971 94.139 -14.8384
10.293022 94.130 -14.8610
10.367610 94.122 -14.8834
10.442738 94.114 -14.9060
10.518411 94.105 -14.9289
10.594631 94.097 -14.9520
10.671404 94.089 -14.9754
10.748734 94.081 -14.9990
10.826623 94.073 -15.0224
10.905077 94.064 -15.0460
10.984100 94.055 -15.0699
11.063695 94.047 -15.0940
11.143867 94.039 -15.1184
11.224621 94.031 -15.1430
11.305959 94.023 -15.1679
11.387886 94.014 -15.1930
11.470407 94.006 -15.2179
11.553527 93.998 -15.2430
11.637249 93.990 -15.2689
11.721577 93.981 -15.2950
11.806517 93.973 -15.3209
11.892071 93.965 -15.3470
11.978246 93.957 -15.3734
12.065045 93.948 -15.4000
12.152473 93.940 -15.4269
12.240536 93.932 -15.4540
12.329235 93.924 -15.4814
12.418578 93.915 -15.5090
12.508568 93.907 -15.5369
12.599211 93.899 -15.5650
12.690510 93.891 -15.5934
12.782471 93.882 -15.6220
12.875097 93.874 -15.6503
12.968395 93.866 -15.6790
13.062370 93.858 -15.7083
13.157025 93.849 -15.7380
13.252366 93.840 -15.7679
13.348398 93.832 -15.7980
13.445127 93.824 -15.8278
13.542556 93.816 -15.8580
13.640691 93.808 -15.8888
13.739536 93.799 -15.9200
13.839099 93.791 -15.9514
13.939383 93.783 -15.9830
14.040393 93.775 -16.0149
14.142136 93.766 -16.0470
14.244616 93.758 -16.0794
14.347837 93.750 -16.1120
14.451808 93.742 -16.1448
14.556532 93.733 -16.1780
14.662014 93.725 -16.2118
14.768262 93.717 -16.2460
14.875278 93.709 -16.2798
14.983070 93.700 -16.3140
15.091644 93.692 -16.3488
15.201005 93.684 -16.3840
15.311157 93.676 -16.4193
15.422109 93.667 -16.4550
15.533863 93.659 -16.4908
15.646428 93.651 -16.5270
15.759809 93.643 -16.5638
15.874010 93.634 -16.6010
15.989040 93.626 -16.6383
16.104904 93.618 -16.6760
16.221605 93.610 -16.7138
16.339155 93.601 -16.7520
16.457554 93.592 -16.7908
16.576813 93.584 -16.8300
16.696936 93.576 -16.8694
16.817928 93.568 -16.9090
16.939798 93.560 -16.9488
17.062551 93.551 -16.9889
17.186193 93.543 -17.0298
17.310732 93.535 -17.0710
17.436172 93.527 -17.1123
17.562521 93.518 -17.1540
17.689787 93.510 -17.1958
17.817974 93.502 -17.2380
17.947090 93.494 -17.2808
18.077143 93.485 -17.3240
18.208138 93.477 -17.3673
18.340080 93.469 -17.4110
18.472980 93.461 -17.4549
18.606844 93.452 -17.4990
18.741676 93.444 -17.5430
18.877487 93.436 -17.5870
19.014280 93.428 -17.6306
19.152065 93.419 -17.6739
19.290850 93.411 -17.7171
19.430639 93.403 -17.7600
19.571442 93.395 -17.8019
19.713264 93.388 -17.8439
19.856115 93.381 -17.8865
20.000000 93.375 -17.9310
20.144928 93.369 -17.9786
20.290907 93.363 -18.0299
20.437943 93.358 -18.0857
20.586044 93.354 -18.1460
20.735220 93.348 -18.2117
20.885475 93.342 -18.2809
21.036821 93.335 -18.3518
21.189262 93.328 -18.4249
21.342808 93.321 -18.5007
21.497467 93.313 -18.5769
21.653246 93.304 -18.6520
21.810154 93.294 -18.7249
21.968201 93.284 -18.7928
22.127390 93.275 -18.8589
22.287735 93.267 -18.9254
22.449242 93.259 -18.9929
22.611917 93.251 -19.0629
22.775772 93.243 -19.1349
22.940815 93.235 -19.2089
23.107054 93.227 -19.2849
23.274498 93.220 -19.3626
23.443153 93.212 -19.4429
23.613033 93.204 -19.5270
23.784142 93.196 -19.6139
23.956491 93.187 -19.7039
24.130091 93.178 -19.7949
24.304947 93.168 -19.8840
24.481071 93.158 -19.9739
24.658470 93.150 -20.0661
24.837156 93.141 -20.1609
25.017136 93.131 -20.2600
25.198421 93.120 -20.3609
25.381020 93.109 -20.4605
25.564941 93.098 -20.5619
25.750195 93.087 -20.6679
25.936790 93.076 -20.7759
26.124741 93.062 -20.8855
26.314051 93.047 -20.9929
26.504732 93.031 -21.0922
26.696796 93.015 -21.1879
26.890253 93.001 -21.2824
27.085112 92.986 -21.3749
27.281382 92.970 -21.4658
27.479073 92.953 -21.5539
27.678198 92.938 -21.6364
27.878765 92.923 -21.7179
28.080786 92.909 -21.8024
28.284271 92.896 -21.8889
28.489231 92.882 -21.9781
28.695675 92.868 -22.0689
28.903616 92.854 -22.1600
29.113064 92.839 -22.2519
29.324028 92.824 -22.3445
29.536524 92.809 -22.4379
29.750557 92.794 -22.5320
29.966141 92.779 -22.6269
30.183289 92.764 -22.7229
30.402010 92.748 -22.8199
30.622314 92.732 -22.9184
30.844217 92.716 -23.0169
31.067726 92.699 -23.1137
31.292856 92.681 -23.2089
31.519617 92.664 -23.3017
31.748020 92.646 -23.3929
31.978081 92.628 -23.4825
32.209808 92.611 -23.5709
32.443211 92.594 -23.6583
32.678310 92.577 -23.7459
32.915108 92.561 -23.8342
33.153625 92.545 -23.9249
33.393871 92.530 -24.0199
33.635857 92.514 -24.1188
33.879597 92.498 -24.2227
34.125103 92.481 -24.3299
34.372387 92.463 -24.4395
34.621464 92.445 -24.5498
34.872345 92.425 -24.6584
35.125042 92.405 -24.7659
35.379574 92.385 -24.8721
35.635948 92.365 -24.9769
35.894180 92.344 -25.0799
36.154285 92.322 -25.1809
36.416275 92.300 -25.2785
36.680161 92.279 -25.3749
36.945961 92.258 -25.4715
37.213688 92.237 -25.5689
37.483353 92.216 -25.6691
37.754974 92.194 -25.7688
38.028561 92.170 -25.8658
38.304131 92.146 -25.9589
38.581699 92.122 -26.0446
38.861279 92.099 -26.1279
39.142883 92.077 -26.2125
39.426529 92.056 -26.2979
39.712231 92.034 -26.3848
40.000000 92.012 -26.4729
40.289856 91.990 -26.5616
40.581814 91.969 -26.6529
40.875885 91.948 -26.7493
41.172089 91.926 -26.8488
41.470440 91.903 -26.9516
41.770950 91.878 -27.0538
42.073643 91.852 -27.1511
42.378525 91.826 -27.2449
42.685616 91.800 -27.3346
42.994934 91.775 -27.4219
43.306492 91.749 -27.5084
43.620308 91.724 -27.5939
43.936401 91.699 -27.6782
44.254780 91.674 -27.7629
44.575470 91.649 -27.8492
44.898483 91.624 -27.9369
45.223835 91.598 -28.0262
45.551544 91.572 -28.1159
45.881630 91.546 -28.2042
46.214108 91.519 -28.2919
46.548996 91.492 -28.3789
46.886307 91.464 -28.4649
47.226067 91.436 -28.5490
47.568283 91.408 -28.6319
47.912983 91.380 -28.7139
48.260181 91.352 -28.7949
48.609894 91.323 -28.8751
48.962143 91.294 -28.9539
49.316940 91.265 -29.0306
49.674313 91.236 -29.1059
50.034271 91.207 -29.1804
50.396843 91.177 -29.2539
50.762039 91.148 -29.3256
51.129883 91.118 -29.3969
51.500389 91.089 -29.4692
51.873581 91.059 -29.5419
52.249481 91.029 -29.6148
52.628101 90.999 -29.6879
53.009464 90.969 -29.7618
53.393593 90.938 -29.8349
53.780506 90.905 -29.9063
54.170223 90.872 -29.9739
54.562763 90.838 -30.0347
54.958145 90.804 -30.0909
55.356396 90.771 -30.1436
55.757530 90.738 -30.1929
56.161572 90.705 -30.2397
56.568542 90.671 -30.2829
56.978462 90.638 -30.3212
57.391350 90.605 -30.3569
57.807232 90.574 -30.3921
58.226128 90.543 -30.4269
58.648056 90.512 -30.4631
59.073048 90.480 -30.4989
59.501114 90.448 -30.5334
59.932281 90.417 -30.5669
60.366577 90.386 -30.5993
60.804020 90.355 -30.6319
61.244629 90.325 -30.6660
61.688435 90.295 -30.7019
62.135452 90.266 -30.7405
62.585712 90.236 -30.7819
63.039234 90.206 -30.8269
63.496040 90.176 -30.8749
63.956161 90.145 -30.9265
64.419617 90.114 -30.9799
64.886421 90.081 -31.0342
65.356621 90.047 -31.0869
65.830215 90.012 -31.1347
66.307251 89.977 -31.1789
66.787743 89.942 -31.2201
67.271713 89.907 -31.2579
67.759193 89.871 -31.2919
68.250206 89.835 -31.3229
68.744774 89.799 -31.3514
69.242928 89.764 -31.3780
69.744690 89.729 -31.4035
70.250084 89.694 -31.4280
70.759148 89.658 -31.4515
71.271896 89.622 -31.4740
71.788361 89.587 -31.4955
72.308571 89.551 -31.5160
72.832550 89.515 -31.5352
73.360321 89.478 -31.5530
73.891922 89.441 -31.5690
74.427376 89.404 -31.5830
74.966705 89.367 -31.5942
75.509949 89.330 -31.6040
76.057121 89.294 -31.6137
76.608261 89.257 -31.6220
77.163399 89.219 -31.6287
77.722557 89.180 -31.6320
78.285767 89.142 -31.6290
78.853058 89.104 -31.6230
79.424461 89.068 -31.6165
80.000000 89.031 -31.6090
80.579712 88.993 -31.6011
81.163628 88.955 -31.5920
81.751770 88.918 -31.5808
82.344177 88.882 -31.5690
82.940880 88.846 -31.5582
83.541901 88.809 -31.5480
84.147285 88.772 -31.5386
84.757050 88.735 -31.5300
85.371231 88.698 -31.5223
85.989868 88.661 -31.5150
86.612984 88.623 -31.5081
87.240616 88.584 -31.5010
87.872803 88.545 -31.4932
88.509560 88.506 -31.4840
89.150940 88.466 -31.4729
89.796967 88.425 -31.4590
90.447670 88.384 -31.4414
91.103088 88.342 -31.4200
91.763260 88.300 -31.3947
92.428215 88.257 -31.3651
93.097992 88.214 -31.3306
93.772614 88.171 -31.2921
94.452133 88.129 -31.2500
95.136566 88.086 -31.2041
95.825966 88.043 -31.1543
96.520363 88.000 -31.1011
97.219788 87.957 -31.0451
97.924286 87.914 -30.9861
98.633881 87.872 -30.9242
99.348625 87.829 -30.8591
100.068542 87.786 -30.7906
100.793686 87.743 -30.7192
101.524078 87.701 -30.6456
102.259766 87.658 -30.5692
103.000778 87.615 -30.4892
103.747162 87.572 -30.4062
104.498962 87.529 -30.3205
105.256203 87.486 -30.2322
106.018929 87.444 -30.1411
106.787186 87.401 -30.0472
107.561012 87.358 -29.9501
108.340446 87.315 -29.8502
109.125526 87.272 -29.7476
109.916290 87.229 -29.6422
110.712791 87.187 -29.5338
111.515060 87.144 -29.4222
112.323143 87.101 -29.3072
113.137085 87.058 -29.1893
113.956924 87.015 -29.0688
114.782700 86.972 -28.9453
115.614464 86.930 -28.8184
116.452255 86.887 -28.6883
117.296112 86.844 -28.5553
118.146095 86.801 -28.4193
119.002228 86.759 -28.2803
119.864563 86.716 -28.1384
120.733154 86.673 -27.9936
121.608040 86.630 -27.8463
122.489258 86.587 -27.6970
123.376869 86.544 -27.5454
124.270905 86.500 -27.3920
125.171425 86.456 -27.2353
126.078468 86.411 -27.0749
126.992081 86.364 -26.9084
127.912323 86.317 -26.7344
128.839233 86.268 -26.5494
129.772842 86.218 -26.3499
130.713242 86.167 -26.1345
131.660431 86.116 -25.9007
132.614502 86.066 -25.6487
133.575485 86.017 -25.3777
134.543427 85.968 -25.0876
135.518387 85.920 -24.7775
136.500412 85.875 -24.4496
137.489548 85.834 -24.1049
138.485855 85.796 -23.7469
139.489380 85.761 -23.3793
140.500168 85.730 -23.0038
141.518295 85.703 -22.6213
142.543793 85.680 -22.2380
143.576721 85.664 -21.8576
144.617142 85.652 -21.4878
145.665100 85.644 -21.1368
146.720642 85.640 -20.8069
147.783844 85.639 -20.5034
148.854752 85.639 -20.2247
149.933411 85.639 -19.9720
151.019897 85.639 -19.7425
152.114243 85.638 -19.5362
153.216522 85.634 -19.3465
154.326797 85.627 -19.1691
155.445114 85.617 -18.9984
156.571533 85.605 -18.8273
157.706116 85.592 -18.6554
158.848923 85.577 -18.4800
160.000000 85.562 -18.3014
161.159424 85.546 -18.1189
162.327255 85.530 -17.9334
163.503540 85.515 -17.7452
164.688354 85.499 -17.5554
165.881760 85.483 -17.3655
167.083801 85.467 -17.1745
168.294571 85.452 -16.9819
169.514099 85.436 -16.7885
170.742462 85.420 -16.5948
171.979736 85.404 -16.4005
173.225967 85.389 -16.2059
174.481232 85.373 -16.0105
175.745605 85.357 -15.8139
177.019119 85.341 -15.6165
178.301880 85.326 -15.4184
179.593933 85.310 -15.2195
180.895340 85.294 -15.0195
182.206177 85.278 -14.8185
183.526520 85.263 -14.6166
184.856430 85.247 -14.4135
186.195984 85.231 -14.2086
187.545227 85.215 -14.0025
188.904266 85.200 -13.7957
190.273132 85.184 -13.5875
191.651932 85.168 -13.3771
193.040726 85.152 -13.1646
194.439575 85.136 -12.9506
195.848572 85.120 -12.7336
197.267761 85.103 -12.5124
198.697250 85.086 -12.2866
200.137085 85.069 -12.0552
201.587372 85.052 -11.8186
203.048157 85.036 -11.5771
204.519531 85.020 -11.3297
206.001556 85.004 -11.0752
207.494324 84.989 -10.8146
208.997925 84.975 -10.5486
210.512405 84.962 -10.2776
212.037857 84.949 -10.0025
213.574371 84.937 -9.7227
215.122025 84.926 -9.4373
216.680893 84.917 -9.1478
218.251053 84.909 -8.8550
219.832581 84.903 -8.5589
221.425583 84.897 -8.2597
223.030121 84.893 -7.9578
224.646286 84.890 -7.6525
226.274170 84.890 -7.3468
227.913849 84.892 -7.0429
229.565399 84.897 -6.7427
231.228928 84.904 -6.4488
232.904510 84.912 -6.1619
234.592224 84.922 -5.8824
236.292191 84.933 -5.6137
238.004456 84.947 -5.3592
239.729126 84.962 -5.1186
241.466309 84.977 -4.8939
243.216080 84.991 -4.6826
244.978516 85.004 -4.4835
246.753738 85.016 -4.2945
248.541809 85.028 -4.1138
250.342850 85.038 -3.9385
252.156937 85.046 -3.7658
253.984161 85.053 -3.5945
255.824646 85.060 -3.4220
257.678467 85.067 -3.2494
259.545685 85.074 -3.0768
261.426483 85.080 -2.9044
263.320862 85.086 -2.7328
265.229004 85.092 -2.5615
267.150970 85.098 -2.3904
269.086853 85.103 -2.2195
271.036774 85.109 -2.0493
273.000824 85.114 -1.8775
274.979095 85.117 -1.7022
276.971710 85.121 -1.5235
278.978760 85.126 -1.3401
281.000336 85.132 -1.1545
283.036591 85.139 -0.9687
285.087585 85.146 -0.7836
287.153442 85.154 -0.5999
289.234283 85.163 -0.4195
291.330200 85.173 -0.2443
293.441284 85.183 -0.0745
295.567688 85.193 0.0881
297.709503 85.202 0.2466
299.866821 85.210 0.4036
302.039795 85.218 0.5595
304.228485 85.226 0.7159
306.433044 85.234 0.8726
308.653595 85.242 1.0297
310.890228 85.249 1.1876
313.143066 85.256 1.3464
315.412231 85.264 1.5065
317.697845 85.271 1.6686
320.000000 85.279 1.8315
322.318848 85.288 1.9950
324.654510 85.297 2.1575
327.007080 85.306 2.3164
329.376709 85.316 2.4745
331.763519 85.325 2.6338
334.167603 85.334 2.7935
336.589142 85.344 2.9540
339.028198 85.355 3.1135
341.484924 85.366 3.2700
343.959473 85.378 3.4246
346.451935 85.390 3.5782
348.962463 85.402 3.7296
351.491211 85.415 3.8780
354.038239 85.428 4.0226
356.603760 85.442 4.1620
359.187866 85.456 4.2966
361.790680 85.470 4.4257
364.412354 85.483 4.5506
367.053040 85.496 4.6724
369.712860 85.508 4.7916
372.391968 85.520 4.9095
375.090454 85.532 5.0257
377.808533 85.544 5.1395
380.546265 85.555 5.2527
383.303864 85.565 5.3673
386.081451 85.576 5.4817
388.879150 85.587 5.5948
391.697144 85.599 5.7067
394.535522 85.610 5.8168
397.394501 85.620 5.9257
400.274170 85.631 6.0342
403.174744 85.642 6.1407
406.096313 85.653 6.2426
409.039062 85.664 6.3427
412.003113 85.673 6.4424
414.988647 85.681 6.5427
417.995850 85.689 6.6455
421.024811 85.697 6.7497
424.075714 85.706 6.8542
427.148743 85.714 6.9597
430.244049 85.722 7.0657
433.361786 85.729 7.1736
436.502106 85.736 7.2851
439.665161 85.743 7.3986
442.851166 85.751 7.5137
446.060242 85.759 7.6296
449.292572 85.767 7.7455
452.548340 85.775 7.8616
455.827698 85.783 7.9776
459.130798 85.791 8.0946
462.457855 85.799 8.2145
465.809021 85.807 8.3356
469.184448 85.816 8.4575
472.584381 85.825 8.5786
476.008911 85.835 8.6966
479.458252 85.845 8.8136
482.932617 85.853 8.9314
486.432159 85.862 9.0496
489.957031 85.872 9.1691
493.507477 85.882 9.2876
497.083618 85.893 9.4022
500.685699 85.903 9.5156
504.313873 85.912 9.6299
507.968323 85.921 9.7446
511.649292 85.931 9.8611
515.356934 85.941 9.9766
519.091370 85.952 10.0881
522.852966 85.962 10.1986
526.641724 85.971 10.3105
530.458008 85.980 10.4226
534.301941 85.990 10.5352
538.173706 86.000 10.6466
542.073547 86.010 10.7545
546.001648 86.019 10.8616
549.958191 86.027 10.9698
553.943420 86.035 11.0796
557.957520 86.043 11.1929
562.000671 86.051 11.3086
566.073181 86.059 11.4262
570.175171 86.067 11.5456
574.306885 86.075 11.6664
578.468567 86.083 11.7896
582.660400 86.091 11.9165
586.882568 86.099 12.0455
591.135376 86.108 12.1762
595.419006 86.118 12.3066
599.733643 86.128 12.4335
604.079590 86.138 12.5596
608.456970 86.147 12.6862
612.866089 86.156 12.8136
617.307190 86.166 12.9433
621.780457 86.177 13.0726
626.286133 86.187 13.1983
630.824463 86.197 13.3236
635.395691 86.206 13.4511
640.000000 86.215 13.5796
644.637695 86.225 13.7090
649.309021 86.235 13.8376
654.014160 86.245 13.9621
658.753418 86.255 14.0866
663.527039 86.262 14.2136
668.335205 86.269 14.3436
673.178284 86.276 14.4775
678.056396 86.283 14.6165
682.969849 86.289 14.7616
687.918945 86.294 14.9135
692.903870 86.300 15.0740
697.924927 86.307 15.2414
702.982422 86.315 15.4147
708.076477 86.323 15.5923
713.207520 86.332 15.7732
718.375732 86.342 15.9553
723.581360 86.353 16.1364
728.824707 86.365 16.3174
734.106079 86.376 16.4980
739.425720 86.387 16.6803
744.783936 86.398 16.8665
750.180908 86.409 17.0563
755.617065 86.420 17.2503
761.092529 86.432 17.4493
766.607727 86.444 17.6546
772.162903 86.456 17.8652
777.758301 86.470 18.0809
783.394287 86.485 18.3002
789.071045 86.501 18.5222
794.789001 86.517 18.7462
800.548340 86.535 18.9711
806.349487 86.553 19.1972
812.192627 86.571 19.4236
818.078125 86.590 19.6532
824.006226 86.609 19.8887
829.977295 86.629 20.1291
835.991699 86.650 20.3745
842.049622 86.673 20.6241
848.151428 86.696 20.8766
854.297485 86.721 21.1330
860.488098 86.747 21.3952
866.723572 86.776 21.6590
873.004211 86.807 21.9218
879.330322 86.840 22.1821
885.702332 86.875 22.4374
892.120483 86.911 22.6881
898.585144 86.948 22.9341
905.096680 86.987 23.1741
911.655396 87.027 23.4064
918.261597 87.068 23.6332
924.915710 87.109 23.8558
931.618042 87.150 24.0752
938.368896 87.192 24.2935
945.168762 87.235 24.5092
952.017822 87.279 24.7218
958.916504 87.325 24.9312
965.865234 87.371 25.1379
972.864319 87.419 25.3403
979.914062 87.468 25.5371
987.014954 87.518 25.7283
994.167236 87.569 25.9137
1001.371399 87.621 26.0924
1008.627747 87.675 26.2638
1015.936646 87.730 26.4273
1023.298584 87.785 26.5816
1030.713867 87.841 26.7285
1038.182739 87.896 26.8704
1045.705933 87.953 27.0054
1053.283447 88.011 27.1330
1060.916016 88.070 27.2525
1068.603882 88.129 27.3627
1076.347412 88.189 27.4646
1084.147095 88.249 27.5595
1092.003296 88.311 27.6447
1099.916382 88.373 27.7174
1107.886841 88.436 27.7788
1115.915039 88.498 27.8290
1124.001343 88.561 27.8679
1132.146362 88.624 27.8955
1140.350342 88.688 27.9110
1148.613770 88.750 27.9128
1156.937134 88.812 27.9031
1165.320801 88.872 27.8829
1173.765137 88.932 27.8541
1182.270752 88.991 27.8192
1190.838013 89.049 27.7772
1199.467285 89.106 27.7277
1208.159180 89.163 27.6712
1216.913940 89.218 27.6075
1225.732178 89.273 27.5383
1234.614380 89.326 27.4650
1243.560913 89.379 27.3883
1252.572266 89.430 27.3089
1261.648926 89.480 27.2273
1270.791382 89.530 27.1442
1280.000000 89.579 27.0593
1289.275391 89.627 26.9729
1298.618042 89.675 26.8844
1308.028320 89.722 26.7934
1317.506836 89.769 26.7004
1327.054077 89.815 26.6061
1336.670410 89.861 26.5094
1346.356567 89.906 26.4084
1356.112793 89.950 26.3054
1365.939697 89.992 26.2007
1375.837891 90.033 26.0974
1385.807739 90.073 25.9996
1395.849854 90.113 25.9054
1405.964844 90.153 25.8143
1416.152954 90.192 25.7263
1426.415039 90.230 25.6415
1436.751465 90.269 25.5593
1447.162720 90.309 25.4801
1457.649414 90.349 25.4013
1468.212158 90.389 25.3202
1478.851440 90.428 25.2383
1489.567871 90.467 25.1557
1500.361816 90.505 25.0743
1511.234131 90.543 24.9957
1522.185059 90.580 24.9203
1533.215454 90.616 24.8491
1544.325806 90.653 24.7823
1555.516602 90.690 24.7207
1566.788574 90.727 24.6642
1578.142090 90.765 24.6135
1589.578003 90.803 24.5672
1601.096680 90.841 24.5242
1612.698975 90.881 24.4842
1624.385254 90.921 24.4463
1636.156250 90.963 24.4102
1648.012451 91.005 24.3754
1659.954590 91.048 24.3411
1671.983398 91.092 24.3063
1684.099243 91.137 24.2711
1696.302856 91.182 24.2356
1708.594971 91.228 24.1992
1720.976196 91.275 24.1615
1733.447144 91.323 24.1222
1746.008423 91.371 24.0797
1758.660645 91.419 24.0372
1771.404663 91.467 23.9977
1784.240967 91.516 23.9592
1797.170288 91.567 23.9203
1810.193359 91.619 23.8812
1823.310791 91.671 23.8414
1836.523193 91.724 23.8012
1849.831421 91.778 23.7609
1863.236084 91.833 23.7192
1876.737793 91.889 23.6748
1890.337524 91.947 23.6282
1904.035645 92.005 23.5788
1917.833008 92.064 23.5282
1931.730469 92.123 23.4781
1945.728638 92.184 23.4282
1959.828125 92.246 23.3789
1974.029907 92.310 23.3302
1988.334473 92.374 23.2820
2002.742798 92.441 23.2352
2017.255493 92.509 23.1916
2031.873291 92.580 23.1482
2046.597168 92.655 23.1044
2061.427734 92.734 23.0542
2076.365479 92.817 22.9927
2091.411865 92.904 22.9164
2106.566895 92.994 22.8210
2121.832031 93.087 22.7035
2137.207764 93.182 22.5594
2152.694824 93.280 22.3887
2168.294189 93.377 22.1898
2184.006592 93.476 21.9641
2199.832764 93.574 21.7111
2215.773682 93.672 21.4352
2231.830078 93.767 21.1390
2248.002686 93.861 20.8273
2264.292725 93.954 20.5067
2280.700684 94.047 20.1745
2297.227539 94.141 19.8308
2313.874268 94.236 19.4735
2330.641602 94.331 19.1005
2347.530273 94.427 18.7117
2364.541504 94.522 18.3071
2381.676025 94.619 17.8840
2398.934570 94.716 17.4392
2416.318359 94.814 16.9741
2433.827881 94.910 16.4874
2451.464355 95.006 15.9831
2469.228760 95.099 15.4646
2487.121826 95.193 14.9323
2505.144531 95.286 14.3893
2523.297852 95.381 13.8316
2541.582764 95.477 13.2582
2560.000000 95.575 12.6637
2578.550781 95.675 12.0444
2597.236084 95.777 11.3941
2616.056641 95.880 10.7064
2635.013672 95.984 9.9772
2654.108154 96.087 9.1992
2673.340820 96.188 8.3757
2692.713135 96.284 7.5062
2712.225586 96.376 6.5954
2731.879395 96.463 5.6465
2751.675781 96.545 4.6636
2771.615479 96.620 3.6493
2791.699707 96.689 2.6106
2811.929688 96.750 1.5556
2832.305908 96.806 0.4851
2852.830078 96.857 -0.5965
2873.502930 96.904 -1.6912
2894.325439 96.946 -2.8007
2915.298828 96.982 -3.9229
2936.424316 97.011 -5.0564
2957.702881 97.035 -6.2000
2979.135742 97.054 -7.3518
3000.723633 97.068 -8.5119
3022.468262 97.075 -9.6815
3044.370117 97.075 -10.8556
3066.430908 97.068 -12.0319
3088.651611 97.054 -13.2047
3111.033203 97.031 -14.3692
3133.577148 97.001 -15.5206
3156.284180 96.964 -16.6533
3179.156006 96.920 -17.7648
3202.193359 96.871 -18.8510
3225.397949 96.816 -19.9100
3248.770508 96.756 -20.9393
3272.312500 96.690 -21.9366
3296.024902 96.621 -22.8984
3319.909180 96.549 -23.8268
3343.966797 96.475 -24.7229
3368.198486 96.398 -25.5860
3392.605713 96.319 -26.4154
3417.189941 96.238 -27.2124
3441.952393 96.158 -27.9769
3466.894287 96.077 -28.7128
3492.016846 95.997 -29.4228
3517.321289 95.917 -30.1099
3542.809326 95.838 -30.7778
3568.481934 95.759 -31.4270
3594.340576 95.681 -32.0594
3620.386719 95.602 -32.6751
3646.621582 95.523 -33.2745
3673.046387 95.444 -33.8583
3699.662842 95.366 -34.4275
3726.472168 95.287 -34.9815
3753.475586 95.208 -35.5200
3780.675049 95.129 -36.0427
3808.071289 95.050 -36.5493
3835.666016 94.971 -37.0397
3863.460938 94.893 -37.5138
3891.457275 94.814 -37.9719
3919.656250 94.736 -38.4145
3948.059814 94.658 -38.8411
3976.668945 94.581 -39.2511
4005.485596 94.505 -39.6441
4034.510986 94.430 -40.0187
4063.746582 94.356 -40.3773
4093.194336 94.285 -40.7209
4122.855469 94.216 -41.0524
4152.730957 94.149 -41.3748
4182.823730 94.084 -41.6885
4213.133789 94.022 -41.9941
4243.664062 93.962 -42.2946
4274.415527 93.906 -42.5922
4305.389648 93.851 -42.8895
4336.588379 93.799 -43.1901
4368.013184 93.748 -43.4935
4399.665527 93.699 -43.7997
4431.547363 93.652 -44.1115
4463.660156 93.608 -44.4315
4496.005371 93.565 -44.7603
4528.585449 93.522 -45.0999
4561.401367 93.479 -45.4483
4594.455078 93.437 -45.8043
4627.748535 93.395 -46.1682
4661.283203 93.353 -46.5403
4695.060547 93.310 -46.9191
4729.083008 93.266 -47.3040
4763.352051 93.221 -47.6922
4797.869141 93.175 -48.0813
4832.636719 93.128 -48.4701
4867.655762 93.080 -48.8575
4902.928711 93.031 -49.2401
4938.457520 92.981 -49.6143
4974.243652 92.930 -49.9793
5010.289062 92.880 -50.3332
5046.595703 92.831 -50.6763
5083.165527 92.783 -51.0086
5120.000000 92.736 -51.3295
5157.101562 92.692 -51.6373
5194.472168 92.651 -51.9356
5232.113281 92.614 -52.2245
5270.027344 92.583 -52.5116
5308.216309 92.559 -52.8014
5346.681641 92.541 -53.1025
5385.426270 92.531 -53.4199
5424.451172 92.529 -53.7692
5463.758789 92.538 -54.1610
5503.351562 92.555 -54.6146
5543.230957 92.581 -55.1488
5583.399414 92.613 -55.7757
5623.859375 92.647 -56.5111
5664.611816 92.681 -57.3625
5705.660156 92.712 -58.3447
5747.005859 92.735 -59.4520
5788.650879 92.744 -60.6892
5830.597656 92.737 -62.0378
5872.848633 92.709 -63.4899
5915.405762 92.657 -65.0180
5958.271484 92.578 -66.6031
6001.447266 92.470 -68.2117
6044.936523 92.331 -69.8148
6088.740234 92.162 -71.3803
6132.861816 91.962 -72.8743
6177.303223 91.735 -74.2733
6222.066406 91.482 -75.5479
6267.154297 91.206 -76.6807
6312.568359 90.909 -77.6466
6358.312012 90.595 -78.4385
6404.386719 90.269 -79.0402
6450.795898 89.936 -79.4544
6497.541016 89.598 -79.6795
6544.625000 89.258 -79.7123
6592.049805 88.918 -79.5462
6639.818359 88.584 -79.1903
6687.933594 88.261 -78.6445
6736.396973 87.954 -77.9301
6785.211426 87.665 -77.0637
6834.379883 87.397 -76.0605
6883.904785 87.150 -74.9319
6933.788574 86.929 -73.7065
6984.033691 86.742 -72.4066
7034.642578 86.585 -71.0628
7085.618652 86.457 -69.7092
7136.963867 86.357 -68.3587
7188.681152 86.283 -67.0323
7240.773438 86.232 -65.7404
7293.243164 86.204 -64.4985
7346.092773 86.195 -63.3128
7399.325684 86.203 -62.1936
7452.944336 86.227 -61.1431
7506.951172 86.266 -60.1653
7561.350098 86.319 -59.2654
7616.142578 86.384 -58.4465
7671.332031 86.462 -57.7185
7726.921875 86.552 -57.0887
7782.914551 86.653 -56.5684
7839.312500 86.763 -56.1699
7896.119629 86.877 -55.8961
7953.337891 86.994 -55.7542
8010.971191 87.109 -55.7427
8069.021973 87.223 -55.8660
8127.493164 87.329 -56.1134
8186.388672 87.424 -56.4825
8245.710938 87.507 -56.9523
8305.461914 87.573 -57.5062
8365.647461 87.625 -58.1276
8426.267578 87.661 -58.8001
8487.328125 87.682 -59.5062
8548.831055 87.685 -60.2266
8610.779297 87.673 -60.9492
8673.176758 87.649 -61.6565
8736.026367 87.614 -62.3463
8799.331055 87.569 -63.0130
8863.094727 87.513 -63.6497
8927.320312 87.448 -64.2490
8992.010742 87.375 -64.8072
9057.170898 87.296 -65.3184
9122.802734 87.212 -65.7817
9188.910156 87.125 -66.1955
9255.497070 87.034 -66.5562
9322.566406 86.939 -66.8590
9390.121094 86.844 -67.1059
9458.166016 86.751 -67.2945
9526.704102 86.661 -67.4324
9595.738281 86.577 -67.5229
9665.273438 86.499 -67.5758
9735.311523 86.430 -67.5974
9805.857422 86.369 -67.6010
9876.915039 86.319 -67.5979
9948.487305 86.278 -67.6009
10020.578125 86.247 -67.6232
10093.191406 86.225 -67.6746
10166.331055 86.211 -67.7663
10240.000000 86.204 -67.9071
10314.203125 86.202 -68.1090
10388.944336 86.204 -68.3746
10464.226562 86.207 -68.7092
10540.054688 86.210 -69.1154
10616.432617 86.213 -69.5973
10693.363281 86.212 -70.1554
10770.852539 86.206 -70.7945
10848.902344 86.192 -71.5060
10927.517578 86.167 -72.2871
11006.703125 86.130 -73.1253
11086.461914 86.079 -74.0116
11166.798828 86.013 -74.9328
11247.718750 85.932 -75.8782
11329.223633 85.834 -76.8311
11411.320312 85.717 -77.7746
11494.011719 85.584 -78.6991
11577.301758 85.436 -79.5918
11661.195312 85.274 -80.4454
11745.697266 85.097 -81.2533
11830.811523 84.904 -82.0001
11916.542969 84.695 -82.6704
12002.894531 84.472 -83.2580
12089.873047 84.242 -83.7520
12177.480469 84.000 -84.1510
12265.723633 83.748 -84.4559
12354.606445 83.485 -84.6483
12444.132812 83.210 -84.7135
12534.308594 82.928 -84.6408
12625.136719 82.642 -84.4169
12716.624023 82.354 -84.0354
12808.773438 82.062 -83.4889
12901.591797 81.773 -82.7676
12995.082031 81.486 -81.8566
13089.250000 81.209 -80.7639
13184.099609 80.949 -79.4844
13279.636719 80.709 -78.0438
13375.867188 80.496 -76.4571
13472.793945 80.313 -74.7520
13570.422852 80.164 -72.9528
13668.759766 80.050 -71.0853
13767.809570 79.971 -69.1743
13867.577148 79.930 -67.2462
13968.067383 79.927 -65.3271
14069.285156 79.962 -63.4416
14171.237305 80.032 -61.6141
14273.927734 80.138 -59.8709
14377.362305 80.281 -58.2357
14481.546875 80.457 -56.7413
14586.486328 80.664 -55.4192
14692.185547 80.897 -54.2969
14798.651367 81.150 -53.4118
14905.888672 81.415 -52.7670
15013.902344 81.682 -52.3839
15122.700195 81.946 -52.2441
15232.285156 82.199 -52.3439
15342.664062 82.441 -52.6595
15453.843750 82.665 -53.1748
15565.829102 82.872 -53.8638
15678.625000 83.057 -54.7037
15792.239258 83.220 -55.6675
15906.675781 83.361 -56.7259
16021.942383 83.480 -57.8637
16138.043945 83.581 -59.0591
16254.986328 83.662 -60.3027
16372.777344 83.723 -61.5808
16491.421875 83.767 -62.8837
16610.923828 83.793 -64.1976
16731.294922 83.805 -65.5213
16852.535156 83.804 -66.8451
16974.656250 83.791 -68.1799
17097.662109 83.770 -69.5303
17221.558594 83.737 -70.9046
17346.353516 83.692 -72.3115
17472.052734 83.633 -73.7531
17598.662109 83.560 -75.2387
17726.189453 83.467 -76.7561
17854.640625 83.349 -78.3103
17984.021484 83.203 -79.8585
18114.341797 83.023 -81.3797
18245.605469 82.807 -82.8132
18377.820312 82.553 -84.1125
18510.994141 82.263 -85.2133
18645.132812 81.936 -86.0404
18780.242188 81.587 -86.5799
18916.332031 81.229 -86.7788
19053.408203 80.872 -86.6814
19191.476562 80.529 -86.2972
19330.546875 80.209 -85.6789
19470.623047 79.921 -84.8579
19611.714844 79.674 -83.9077
19753.830078 79.482 -82.8915
19896.974609 79.334 -81.8711
