* Measurement data measured by REW V5.20.13
* Source: C:\Users\kurin\Desktop\Targets and Curves\Resolve\Img\Files\Legacy 5_SPL.txt
* Format: Comma/Tab/Space delimited data
* Dated: Aug 14, 2023 5:46:26 PM
* REW Settings:
*  C-weighting compensation: Off
*  Target level: 75.0 dB
* Note: ; Measurement imported from C:\Users\kurin\Desktop\Targets and Curves\Resolve\Img\Files\Legacy 5_SPL.txt Format: Comma/Tab/Space delimited data 623 values loaded, 5 Hz to 39,792 Hz log spaced 
* Measurement: Legacy 5_SPL
* Smoothing: 1/48 octave
* Frequency Step: 1/96 octave
* Start Frequency: 5.000 Hz
*
* Freq(Hz) SPL(dB) Phase(degrees)
5.000000 95.340 -13.4240
5.036232 95.336 -13.4288
5.072727 95.332 -13.4340
5.109486 95.327 -13.4400
5.146511 95.322 -13.4470
5.183805 95.316 -13.4555
5.221369 95.309 -13.4650
5.259205 95.302 -13.4751
5.297316 95.294 -13.4860
5.335702 95.286 -13.4978
5.374367 95.277 -13.5100
5.413311 95.269 -13.5219
5.452538 95.261 -13.5340
5.492050 95.253 -13.5464
5.531847 95.244 -13.5590
5.571934 95.236 -13.5714
5.612310 95.228 -13.5840
5.652979 95.219 -13.5969
5.693943 95.211 -13.6100
5.735204 95.203 -13.6229
5.776763 95.195 -13.6360
5.818624 95.187 -13.6494
5.860788 95.178 -13.6630
5.903258 95.170 -13.6764
5.946035 95.162 -13.6900
5.989123 95.154 -13.7040
6.032523 95.146 -13.7180
6.076237 95.138 -13.7314
6.120268 95.129 -13.7450
6.164618 95.121 -13.7594
6.209289 95.113 -13.7740
6.254284 95.104 -13.7885
6.299605 95.096 -13.8030
6.345255 95.088 -13.8174
6.391235 95.080 -13.8320
6.437549 95.072 -13.8469
6.484198 95.063 -13.8620
6.531185 95.055 -13.8770
6.578513 95.047 -13.8920
6.626183 95.038 -13.9069
6.674199 95.030 -13.9220
6.722563 95.022 -13.9379
6.771278 95.014 -13.9540
6.820345 95.006 -13.9695
6.869768 94.997 -13.9850
6.919549 94.989 -14.0009
6.969691 94.981 -14.0170
7.020196 94.973 -14.0334
7.071068 94.964 -14.0500
7.122308 94.956 -14.0664
7.173919 94.948 -14.0830
7.225904 94.940 -14.0999
7.278266 94.932 -14.1170
7.331007 94.924 -14.1339
7.384131 94.915 -14.1510
7.437639 94.907 -14.1684
7.491535 94.899 -14.1860
7.545822 94.891 -14.2034
7.600502 94.882 -14.2210
7.655579 94.874 -14.2389
7.711054 94.866 -14.2570
7.766932 94.857 -14.2749
7.823214 94.849 -14.2930
7.879904 94.841 -14.3114
7.937005 94.833 -14.3300
7.994520 94.825 -14.3489
8.052452 94.816 -14.3680
8.110803 94.808 -14.3869
8.169578 94.800 -14.4060
8.228777 94.792 -14.4254
8.288406 94.783 -14.4450
8.348468 94.775 -14.4649
8.408964 94.767 -14.4850
8.469899 94.758 -14.5050
8.531276 94.750 -14.5250
8.593097 94.742 -14.5449
8.655366 94.734 -14.5650
8.718086 94.726 -14.5859
8.781260 94.718 -14.6070
8.844893 94.710 -14.6279
8.908987 94.701 -14.6490
8.973545 94.693 -14.6704
9.038571 94.685 -14.6920
9.104069 94.676 -14.7134
9.170040 94.668 -14.7350
9.236490 94.660 -14.7569
9.303422 94.652 -14.7790
9.370838 94.644 -14.8014
9.438744 94.635 -14.8240
9.507140 94.627 -14.8469
9.576033 94.619 -14.8700
9.645425 94.611 -14.8929
9.715320 94.602 -14.9160
9.785721 94.594 -14.9399
9.856632 94.586 -14.9640
9.928058 94.577 -14.9880
10.000000 94.569 -15.0120
10.072464 94.561 -15.0359
10.145453 94.553 -15.0600
10.218971 94.545 -15.0849
10.293022 94.536 -15.1100
10.367610 94.528 -15.1349
10.442738 94.520 -15.1600
10.518411 94.512 -15.1859
10.594631 94.504 -15.2120
10.671404 94.495 -15.2379
10.748734 94.487 -15.2640
10.826623 94.479 -15.2904
10.905077 94.471 -15.3170
10.984100 94.463 -15.3439
11.063695 94.454 -15.3710
11.143867 94.446 -15.3984
11.224621 94.438 -15.4260
11.305959 94.430 -15.4539
11.387886 94.421 -15.4820
11.470407 94.413 -15.5104
11.553527 94.405 -15.5390
11.637249 94.397 -15.5679
11.721577 94.388 -15.5970
11.806517 94.380 -15.6263
11.892071 94.372 -15.6560
11.978246 94.364 -15.6859
12.065045 94.355 -15.7160
12.152473 94.347 -15.7464
12.240536 94.339 -15.7770
12.329235 94.331 -15.8079
12.418578 94.322 -15.8390
12.508568 94.314 -15.8703
12.599211 94.306 -15.9020
12.690510 94.298 -15.9344
12.782471 94.290 -15.9670
12.875097 94.282 -15.9993
12.968395 94.273 -16.0320
13.062370 94.265 -16.0652
13.157025 94.257 -16.0990
13.252366 94.249 -16.1334
13.348398 94.240 -16.1680
13.445127 94.232 -16.2023
13.542556 94.224 -16.2370
13.640691 94.216 -16.2723
13.739536 94.207 -16.3080
13.839099 94.199 -16.3438
13.939383 94.191 -16.3800
14.040393 94.183 -16.4168
14.142136 94.174 -16.4540
14.244616 94.166 -16.4913
14.347837 94.158 -16.5290
14.451808 94.149 -16.5673
14.556532 94.141 -16.6060
14.662014 94.133 -16.6447
14.768262 94.125 -16.6840
14.875278 94.117 -16.7242
14.983070 94.108 -16.7650
15.091644 94.100 -16.8058
15.201005 94.092 -16.8470
15.311157 94.084 -16.8887
15.422109 94.075 -16.9310
15.533863 94.067 -16.9737
15.646428 94.059 -17.0170
15.759809 94.051 -17.0607
15.874010 94.043 -17.1050
15.989040 94.035 -17.1497
16.104904 94.026 -17.1950
16.221605 94.018 -17.2412
16.339155 94.010 -17.2879
16.457554 94.002 -17.3347
16.576813 93.993 -17.3820
16.696936 93.985 -17.4302
16.817928 93.977 -17.4790
16.939798 93.969 -17.5281
17.062551 93.960 -17.5779
17.186193 93.952 -17.6286
17.310732 93.944 -17.6800
17.436172 93.936 -17.7321
17.562521 93.927 -17.7850
17.689787 93.919 -17.8385
17.817974 93.911 -17.8929
17.947090 93.903 -17.9485
18.077143 93.894 -18.0050
18.208138 93.886 -18.0620
18.340080 93.878 -18.1199
18.472980 93.870 -18.1793
18.606844 93.861 -18.2400
18.741676 93.853 -18.3021
18.877487 93.845 -18.3659
19.014280 93.837 -18.4318
19.152065 93.829 -18.4999
19.290850 93.821 -18.5706
19.430639 93.812 -18.6439
19.571442 93.802 -18.7206
19.713264 93.792 -18.7989
19.856115 93.782 -18.8786
20.000000 93.770 -18.9569
20.144928 93.756 -19.0318
20.290907 93.742 -19.1009
20.437943 93.727 -19.1606
20.586044 93.713 -19.2130
20.735220 93.700 -19.2582
20.885475 93.688 -19.2980
21.036821 93.676 -19.3331
21.189262 93.666 -19.3670
21.342808 93.659 -19.4014
21.497467 93.653 -19.4409
21.653246 93.649 -19.4907
21.810154 93.646 -19.5509
21.968201 93.643 -19.6246
22.127390 93.640 -19.7089
22.287735 93.635 -19.8032
22.449242 93.629 -19.9039
22.611917 93.622 -20.0078
22.775772 93.613 -20.1139
22.940815 93.604 -20.2209
23.107054 93.593 -20.3269
23.274498 93.580 -20.4296
23.443153 93.567 -20.5289
23.613033 93.555 -20.6223
23.784142 93.543 -20.7139
23.956491 93.533 -20.8063
24.130091 93.523 -20.9019
24.304947 93.514 -21.0042
24.481071 93.504 -21.1119
24.658470 93.493 -21.2243
24.837156 93.482 -21.3418
25.017136 93.470 -21.4648
25.198421 93.458 -21.5919
25.381020 93.444 -21.7226
25.564941 93.429 -21.8549
25.750195 93.413 -21.9866
25.936790 93.395 -22.1168
26.124741 93.376 -22.2444
26.314051 93.356 -22.3678
26.504732 93.335 -22.4852
26.696796 93.313 -22.5969
26.890253 93.292 -22.7024
27.085112 93.270 -22.8029
27.281382 93.248 -22.8998
27.479073 93.225 -22.9919
27.678198 93.203 -23.0779
27.878765 93.181 -23.1599
28.080786 93.161 -23.2388
28.284271 93.141 -23.3169
28.489231 93.121 -23.3967
28.695675 93.102 -23.4779
28.903616 93.082 -23.5610
29.113064 93.063 -23.6459
29.324028 93.044 -23.7327
29.536524 93.025 -23.8209
29.750557 93.005 -23.9103
29.966141 92.984 -23.9999
30.183289 92.964 -24.0882
30.402010 92.943 -24.1759
30.622314 92.922 -24.2621
30.844217 92.901 -24.3499
31.067726 92.882 -24.4415
31.292856 92.863 -24.5378
31.519617 92.842 -24.6414
31.748020 92.821 -24.7499
31.978081 92.799 -24.8620
32.209808 92.776 -24.9778
32.443211 92.751 -25.0980
32.678310 92.724 -25.2188
32.915108 92.694 -25.3388
33.153625 92.662 -25.4529
33.393871 92.627 -25.5566
33.635857 92.589 -25.6469
33.879597 92.550 -25.7207
34.125103 92.509 -25.7739
34.372387 92.466 -25.8022
34.621464 92.423 -25.8040
34.872345 92.381 -25.7752
35.125042 92.341 -25.7191
35.379574 92.305 -25.6344
35.635948 92.273 -25.5301
35.894180 92.248 -25.4105
36.154285 92.229 -25.2882
36.416275 92.218 -25.1736
36.680161 92.214 -25.0771
36.945961 92.215 -25.0123
37.213688 92.220 -24.9800
37.483353 92.225 -24.9876
37.754974 92.230 -25.0299
38.028561 92.233 -25.1070
38.304131 92.233 -25.2108
38.581699 92.229 -25.3374
38.861279 92.220 -25.4748
39.142883 92.204 -25.6105
39.426529 92.185 -25.7418
39.712231 92.165 -25.8610
40.000000 92.144 -25.9708
40.289856 92.122 -26.0712
40.581814 92.099 -26.1629
40.875885 92.076 -26.2454
41.172089 92.054 -26.3229
41.470440 92.034 -26.3982
41.770950 92.015 -26.4739
42.073643 91.996 -26.5529
42.378525 91.977 -26.6369
42.685616 91.960 -26.7286
42.994934 91.942 -26.8279
43.306492 91.922 -26.9373
43.620308 91.901 -27.0518
43.936401 91.879 -27.1663
44.254780 91.855 -27.2828
44.575470 91.831 -27.4031
44.898483 91.806 -27.5238
45.223835 91.777 -27.6436
45.551544 91.745 -27.7578
45.881630 91.713 -27.8606
46.214108 91.680 -27.9549
46.548996 91.647 -28.0422
46.886307 91.613 -28.1209
47.226067 91.578 -28.1894
47.568283 91.543 -28.2479
47.912983 91.509 -28.2950
48.260181 91.475 -28.3339
48.609894 91.442 -28.3670
48.962143 91.411 -28.3960
49.316940 91.382 -28.4229
49.674313 91.353 -28.4490
50.034271 91.325 -28.4751
50.396843 91.297 -28.5040
50.762039 91.271 -28.5380
51.129883 91.246 -28.5779
51.500389 91.220 -28.6265
51.873581 91.194 -28.6799
52.249481 91.166 -28.7358
52.628101 91.137 -28.7929
53.009464 91.107 -28.8495
53.393593 91.077 -28.9049
53.780506 91.046 -28.9585
54.170223 91.013 -29.0079
54.562763 90.979 -29.0501
54.958145 90.945 -29.0859
55.356396 90.912 -29.1151
55.757530 90.878 -29.1390
56.161572 90.844 -29.1592
56.568542 90.810 -29.1740
56.978462 90.776 -29.1814
57.391350 90.742 -29.1830
57.807232 90.710 -29.1789
58.226128 90.678 -29.1710
58.648056 90.647 -29.1615
59.073048 90.617 -29.1500
59.501114 90.588 -29.1360
59.932281 90.560 -29.1230
60.366577 90.534 -29.1143
60.804020 90.508 -29.1100
61.244629 90.482 -29.1125
61.688435 90.456 -29.1190
62.135452 90.429 -29.1275
62.585712 90.402 -29.1380
63.039234 90.375 -29.1499
63.496040 90.347 -29.1620
63.956161 90.318 -29.1733
64.419617 90.289 -29.1830
64.886421 90.260 -29.1894
65.356621 90.231 -29.1940
65.830215 90.202 -29.1973
66.307251 90.174 -29.2010
66.787743 90.147 -29.2065
67.271713 90.121 -29.2150
67.759193 90.094 -29.2286
68.250206 90.066 -29.2450
68.744774 90.037 -29.2625
69.242928 90.007 -29.2810
69.744690 89.977 -29.2998
70.250084 89.947 -29.3180
70.759148 89.916 -29.3353
71.271896 89.883 -29.3490
71.788361 89.849 -29.3560
72.308571 89.814 -29.3560
72.832550 89.780 -29.3465
73.360321 89.746 -29.3310
73.891922 89.714 -29.3115
74.427376 89.682 -29.2900
74.966705 89.651 -29.2694
75.509949 89.621 -29.2500
76.057121 89.591 -29.2335
76.608261 89.560 -29.2190
77.163399 89.529 -29.2073
77.722557 89.498 -29.1960
78.285767 89.466 -29.1845
78.853058 89.432 -29.1690
79.424461 89.397 -29.1463
80.000000 89.361 -29.1151
80.579712 89.325 -29.0724
81.163628 89.290 -29.0201
81.751770 89.256 -28.9583
82.344177 89.224 -28.8891
82.940880 89.193 -28.8136
83.541901 89.164 -28.7362
84.147285 89.138 -28.6608
84.757050 89.114 -28.5901
85.371231 89.092 -28.5274
85.989868 89.071 -28.4751
86.612984 89.052 -28.4362
87.240616 89.033 -28.4120
87.872803 89.014 -28.4063
88.509560 88.993 -28.4150
89.150940 88.970 -28.4364
89.796967 88.945 -28.4669
90.447670 88.917 -28.5042
91.103088 88.886 -28.5429
91.763260 88.852 -28.5792
92.428215 88.814 -28.6070
93.097992 88.773 -28.6187
93.772614 88.729 -28.6140
94.452133 88.686 -28.5898
95.136566 88.642 -28.5471
95.825966 88.598 -28.4855
96.520363 88.555 -28.4072
97.219788 88.514 -28.3122
97.924286 88.475 -28.2072
98.633881 88.440 -28.0983
99.348625 88.408 -27.9882
100.068542 88.376 -27.8822
100.793686 88.346 -27.7793
101.524078 88.317 -27.6801
102.259766 88.289 -27.5852
103.000778 88.262 -27.4959
103.747162 88.234 -27.4112
104.498962 88.206 -27.3310
105.256203 88.177 -27.2531
106.018929 88.148 -27.1753
106.787186 88.118 -27.0972
107.561012 88.088 -27.0181
108.340446 88.058 -26.9371
109.125526 88.027 -26.8532
109.916290 87.996 -26.7662
110.712791 87.965 -26.6751
111.515060 87.935 -26.5812
112.323143 87.905 -26.4856
113.137085 87.875 -26.3882
113.956924 87.846 -26.2891
114.782700 87.816 -26.1883
115.614464 87.787 -26.0856
116.452255 87.757 -25.9812
117.296112 87.728 -25.8750
118.146095 87.699 -25.7672
119.002228 87.671 -25.6583
119.864563 87.643 -25.5483
120.733154 87.615 -25.4377
121.608040 87.587 -25.3252
122.489258 87.558 -25.2099
123.376869 87.530 -25.0923
124.270905 87.503 -24.9719
125.171425 87.477 -24.8512
126.078468 87.451 -24.7331
126.992081 87.425 -24.6153
127.912323 87.399 -24.4966
128.839233 87.372 -24.3762
129.772842 87.346 -24.2517
130.713242 87.320 -24.1263
131.660431 87.296 -24.0031
132.614502 87.271 -23.8803
133.575485 87.245 -23.7577
134.543427 87.219 -23.6342
135.518387 87.194 -23.5089
136.500412 87.169 -23.3822
137.489548 87.144 -23.2556
138.485855 87.118 -23.1253
139.489380 87.091 -22.9872
140.500168 87.064 -22.8443
141.518295 87.041 -22.6975
142.543793 87.018 -22.5494
143.576721 86.994 -22.4036
144.617142 86.971 -22.2573
145.665100 86.948 -22.1073
146.720642 86.927 -21.9584
147.783844 86.908 -21.8151
148.854752 86.889 -21.6754
149.933411 86.867 -21.5397
151.019897 86.845 -21.4043
152.114243 86.823 -21.2648
153.216522 86.802 -21.1234
154.326797 86.781 -20.9814
155.445114 86.759 -20.8373
156.571533 86.737 -20.6893
157.706116 86.715 -20.5393
158.848923 86.695 -20.3889
160.000000 86.675 -20.2384
161.159424 86.655 -20.0890
162.327255 86.635 -19.9403
163.503540 86.615 -19.7929
164.688354 86.594 -19.6443
165.881760 86.572 -19.4926
167.083801 86.549 -19.3364
168.294571 86.527 -19.1739
169.514099 86.504 -19.0054
170.742462 86.481 -18.8316
171.979736 86.459 -18.6505
173.225967 86.437 -18.4597
174.481232 86.415 -18.2605
175.745605 86.395 -18.0530
177.019119 86.376 -17.8385
178.301880 86.358 -17.6180
179.593933 86.341 -17.3926
180.895340 86.327 -17.1629
182.206177 86.315 -16.9316
183.526520 86.305 -16.7011
184.856430 86.296 -16.4725
186.195984 86.289 -16.2470
187.545227 86.284 -16.0265
188.904266 86.281 -15.8134
190.273132 86.280 -15.6085
191.651932 86.279 -15.4137
193.040726 86.278 -15.2275
194.439575 86.278 -15.0489
195.848572 86.278 -14.8775
197.267761 86.278 -14.7125
198.697250 86.278 -14.5534
200.137085 86.278 -14.3994
201.587372 86.278 -14.2503
203.048157 86.278 -14.1057
204.519531 86.278 -13.9654
206.001556 86.278 -13.8292
207.494324 86.278 -13.6973
208.997925 86.278 -13.5694
210.512405 86.278 -13.4463
212.037857 86.278 -13.3287
213.574371 86.278 -13.2163
215.122025 86.277 -13.1088
216.680893 86.276 -13.0063
218.251053 86.275 -12.9096
219.832581 86.272 -12.8163
221.425583 86.268 -12.7248
223.030121 86.262 -12.6322
224.646286 86.255 -12.5350
226.274170 86.248 -12.4343
227.913849 86.241 -12.3300
229.565399 86.233 -12.2223
231.228928 86.225 -12.1109
232.904510 86.217 -11.9964
234.592224 86.210 -11.8783
236.292191 86.203 -11.7583
238.004456 86.196 -11.6383
239.729126 86.189 -11.5163
241.466309 86.181 -11.3910
243.216080 86.173 -11.2624
244.978516 86.165 -11.1299
246.753738 86.158 -10.9934
248.541809 86.151 -10.8522
250.342850 86.144 -10.7064
252.156937 86.138 -10.5549
253.984161 86.134 -10.4014
255.824646 86.132 -10.2495
257.678467 86.130 -10.0994
259.545685 86.129 -9.9527
261.426483 86.128 -9.8094
263.320862 86.128 -9.6703
265.229004 86.128 -9.5344
267.150970 86.128 -9.4007
269.086853 86.128 -9.2694
271.036774 86.128 -9.1402
273.000824 86.128 -9.0124
274.979095 86.128 -8.8851
276.971710 86.128 -8.7584
278.978760 86.128 -8.6318
281.000336 86.128 -8.5053
283.036591 86.128 -8.3792
285.087585 86.128 -8.2524
287.153442 86.128 -8.1242
289.234283 86.128 -7.9944
291.330200 86.128 -7.8620
293.441284 86.129 -7.7274
295.567688 86.130 -7.5902
297.709503 86.131 -7.4514
299.866821 86.134 -7.3110
302.039795 86.138 -7.1714
304.228485 86.144 -7.0347
306.433044 86.150 -6.9024
308.653595 86.157 -6.7770
310.890228 86.164 -6.6573
313.143066 86.172 -6.5429
315.412231 86.179 -6.4333
317.697845 86.186 -6.3289
320.000000 86.192 -6.2273
322.318848 86.198 -6.1266
324.654510 86.203 -6.0253
327.007080 86.208 -5.9209
329.376709 86.213 -5.8153
331.763519 86.219 -5.7095
334.167603 86.226 -5.6043
336.589142 86.233 -5.5008
339.028198 86.241 -5.3993
341.484924 86.249 -5.3009
343.959473 86.257 -5.2053
346.451935 86.265 -5.1124
348.962463 86.273 -5.0222
351.491211 86.281 -4.9347
354.038239 86.290 -4.8502
356.603760 86.299 -4.7694
359.187866 86.308 -4.6912
361.790680 86.316 -4.6150
364.412354 86.323 -4.5402
367.053040 86.331 -4.4663
369.712860 86.339 -4.3932
372.391968 86.346 -4.3213
375.090454 86.353 -4.2492
377.808533 86.360 -4.1754
380.546265 86.368 -4.1012
383.303864 86.376 -4.0274
386.081451 86.384 -3.9542
388.879150 86.392 -3.8822
391.697144 86.400 -3.8112
394.535522 86.409 -3.7404
397.394501 86.418 -3.6722
400.274170 86.428 -3.6091
403.174744 86.439 -3.5502
406.096313 86.448 -3.4964
409.039062 86.457 -3.4452
412.003113 86.465 -3.3943
414.988647 86.473 -3.3442
417.995850 86.482 -3.2946
421.024811 86.490 -3.2452
424.075714 86.497 -3.1957
427.148743 86.504 -3.1452
430.244049 86.511 -3.0922
433.361786 86.518 -3.0382
436.502106 86.526 -2.9842
439.665161 86.534 -2.9302
442.851166 86.542 -2.8759
446.060242 86.550 -2.8222
449.292572 86.559 -2.7690
452.548340 86.569 -2.7182
455.827698 86.579 -2.6718
459.130798 86.589 -2.6291
462.457855 86.599 -2.5911
465.809021 86.608 -2.5551
469.184448 86.616 -2.5190
472.584381 86.624 -2.4831
476.008911 86.632 -2.4474
479.458252 86.640 -2.4111
482.932617 86.647 -2.3742
486.432159 86.654 -2.3351
489.957031 86.661 -2.2917
493.507477 86.668 -2.2461
497.083618 86.677 -2.1998
500.685699 86.686 -2.1532
504.313873 86.695 -2.1062
507.968323 86.705 -2.0611
511.649292 86.717 -2.0191
515.356934 86.729 -1.9831
519.091370 86.742 -1.9586
522.852966 86.754 -1.9401
526.641724 86.763 -1.9242
530.458008 86.772 -1.9100
534.301941 86.781 -1.8953
538.173706 86.790 -1.8801
542.073547 86.798 -1.8642
546.001648 86.805 -1.8461
549.958191 86.812 -1.8233
553.943420 86.819 -1.7981
557.957520 86.827 -1.7720
562.000671 86.835 -1.7451
566.073181 86.843 -1.7182
570.175171 86.851 -1.6911
574.306885 86.860 -1.6628
578.468567 86.870 -1.6361
582.660400 86.880 -1.6139
586.882568 86.890 -1.5951
591.135376 86.899 -1.5797
595.419006 86.908 -1.5660
599.733643 86.917 -1.5521
604.079590 86.925 -1.5380
608.456970 86.933 -1.5235
612.866089 86.941 -1.5081
617.307190 86.948 -1.4916
621.780457 86.955 -1.4731
626.286133 86.962 -1.4511
630.824463 86.969 -1.4271
635.395691 86.977 -1.4017
640.000000 86.985 -1.3751
644.637695 86.993 -1.3479
649.309021 87.001 -1.3201
654.014160 87.010 -1.2911
658.753418 87.020 -1.2631
663.527039 87.030 -1.2385
668.335205 87.040 -1.2161
673.178284 87.050 -1.1958
678.056396 87.059 -1.1761
682.969849 87.068 -1.1551
687.918945 87.076 -1.1331
692.903870 87.085 -1.1095
697.924927 87.094 -1.0851
702.982422 87.104 -1.0609
708.076477 87.113 -1.0361
713.207520 87.122 -1.0104
718.375732 87.130 -0.9831
723.581360 87.139 -0.9532
728.824707 87.148 -0.9211
734.106079 87.157 -0.8863
739.425720 87.166 -0.8501
744.783936 87.177 -0.8139
750.180908 87.188 -0.7781
755.617065 87.198 -0.7446
761.092529 87.208 -0.7101
766.607727 87.217 -0.6720
772.162903 87.227 -0.6302
777.758301 87.237 -0.5830
783.394287 87.247 -0.5322
789.071045 87.258 -0.4791
794.789001 87.269 -0.4222
800.548340 87.280 -0.3604
806.349487 87.292 -0.2942
812.192627 87.305 -0.2234
818.078125 87.320 -0.1503
824.006226 87.336 -0.0772
829.977295 87.353 -0.0043
835.991699 87.370 0.0677
842.049622 87.389 0.1387
848.151428 87.409 0.2086
854.297485 87.429 0.2777
860.488098 87.449 0.3465
866.723572 87.470 0.4147
873.004211 87.492 0.4828
879.330322 87.515 0.5498
885.702332 87.539 0.6143
892.120483 87.563 0.6788
898.585144 87.587 0.7458
905.096680 87.612 0.8137
911.655396 87.639 0.8825
918.261597 87.668 0.9507
924.915710 87.697 1.0166
931.618042 87.727 1.0818
938.368896 87.758 1.1481
945.168762 87.791 1.2128
952.017822 87.826 1.2738
958.916504 87.863 1.3308
965.865234 87.901 1.3831
972.864319 87.940 1.4288
979.914062 87.982 1.4668
987.014954 88.025 1.4949
994.167236 88.069 1.5100
1001.371399 88.115 1.5140
1008.627747 88.160 1.5077
1015.936646 88.206 1.4911
1023.298584 88.253 1.4646
1030.713867 88.300 1.4271
1038.182739 88.347 1.3776
1045.705933 88.395 1.3173
1053.283447 88.442 1.2461
1060.916016 88.489 1.1664
1068.603882 88.535 1.0802
1076.347412 88.581 0.9874
1084.147095 88.627 0.8884
1092.003296 88.673 0.7834
1099.916382 88.718 0.6723
1107.886841 88.764 0.5565
1115.915039 88.809 0.4374
1124.001343 88.854 0.3145
1132.146362 88.899 0.1885
1140.350342 88.946 0.0575
1148.613770 88.993 -0.0794
1156.937134 89.042 -0.2244
1165.320801 89.091 -0.3800
1173.765137 89.140 -0.5462
1182.270752 89.189 -0.7240
1190.838013 89.238 -0.9122
1199.467285 89.286 -1.1104
1208.159180 89.334 -1.3172
1216.913940 89.380 -1.5310
1225.732178 89.426 -1.7522
1234.614380 89.473 -1.9802
1243.560913 89.520 -2.2161
1252.572266 89.565 -2.4613
1261.648926 89.610 -2.7140
1270.791382 89.654 -2.9725
1280.000000 89.697 -3.2380
1289.275391 89.740 -3.5108
1298.618042 89.783 -3.7908
1308.028320 89.824 -4.0798
1317.506836 89.863 -4.3717
1327.054077 89.899 -4.6606
1336.670410 89.935 -4.9489
1346.356567 89.973 -5.2361
1356.112793 90.011 -5.5249
1365.939697 90.048 -5.8185
1375.837891 90.084 -6.1148
1385.807739 90.120 -6.4117
1395.849854 90.156 -6.7118
1405.964844 90.193 -7.0171
1416.152954 90.229 -7.3268
1426.415039 90.264 -7.6423
1436.751465 90.298 -7.9598
1447.162720 90.331 -8.2756
1457.649414 90.364 -8.5907
1468.212158 90.397 -8.9049
1478.851440 90.430 -9.2178
1489.567871 90.463 -9.5285
1500.361816 90.496 -9.8388
1511.234131 90.531 -10.1497
1522.185059 90.567 -10.4636
1533.215454 90.604 -10.7836
1544.325806 90.641 -11.1086
1555.516602 90.678 -11.4381
1566.788574 90.715 -11.7726
1578.142090 90.753 -12.1121
1589.578003 90.792 -12.4565
1601.096680 90.830 -12.8052
1612.698975 90.870 -13.1595
1624.385254 90.911 -13.5193
1636.156250 90.954 -13.8883
1648.012451 90.998 -14.2704
1659.954590 91.042 -14.6655
1671.983398 91.086 -15.0749
1684.099243 91.131 -15.4992
1696.302856 91.176 -15.9397
1708.594971 91.221 -16.3959
1720.976196 91.265 -16.8682
1733.447144 91.308 -17.3549
1746.008423 91.349 -17.8545
1758.660645 91.389 -18.3659
1771.404663 91.427 -18.8873
1784.240967 91.465 -19.4188
1797.170288 91.502 -19.9600
1810.193359 91.538 -20.5108
1823.310791 91.572 -21.0712
1836.523193 91.605 -21.6397
1849.831421 91.637 -22.2149
1863.236084 91.668 -22.7974
1876.737793 91.698 -23.3871
1890.337524 91.727 -23.9854
1904.035645 91.755 -24.5931
1917.833008 91.783 -25.2105
1931.730469 91.809 -25.8380
1945.728638 91.835 -26.4762
1959.828125 91.860 -27.1257
1974.029907 91.883 -27.7882
1988.334473 91.905 -28.4664
2002.742798 91.925 -29.1572
2017.255493 91.941 -29.8589
2031.873291 91.955 -30.5692
2046.597168 91.966 -31.2851
2061.427734 91.975 -32.0068
2076.365479 91.981 -32.7335
2091.411865 91.985 -33.4649
2106.566895 91.986 -34.2009
2121.832031 91.985 -34.9399
2137.207764 91.981 -35.6806
2152.694824 91.975 -36.4231
2168.294189 91.966 -37.1670
2184.006592 91.955 -37.9126
2199.832764 91.941 -38.6608
2215.773682 91.924 -39.4089
2231.830078 91.904 -40.1556
2248.002686 91.880 -40.8979
2264.292725 91.853 -41.6326
2280.700684 91.823 -42.3599
2297.227539 91.791 -43.0802
2313.874268 91.756 -43.7901
2330.641602 91.717 -44.4869
2347.530273 91.675 -45.1681
2364.541504 91.632 -45.8296
2381.676025 91.587 -46.4741
2398.934570 91.542 -47.1026
2416.318359 91.496 -47.7163
2433.827881 91.450 -48.3168
2451.464355 91.402 -48.9036
2469.228760 91.354 -49.4760
2487.121826 91.305 -50.0366
2505.144531 91.258 -50.5883
2523.297852 91.210 -51.1296
2541.582764 91.160 -51.6604
2560.000000 91.109 -52.1787
2578.550781 91.059 -52.6816
2597.236084 91.009 -53.1718
2616.056641 90.959 -53.6508
2635.013672 90.909 -54.1190
2654.108154 90.860 -54.5768
2673.340820 90.811 -55.0251
2692.713135 90.763 -55.4647
2712.225586 90.714 -55.8960
2731.879395 90.666 -56.3205
2751.675781 90.617 -56.7351
2771.615479 90.567 -57.1384
2791.699707 90.517 -57.5273
2811.929688 90.467 -57.8988
2832.305908 90.416 -58.2514
2852.830078 90.366 -58.5821
2873.502930 90.317 -58.8927
2894.325439 90.272 -59.1828
2915.298828 90.229 -59.4568
2936.424316 90.190 -59.7185
2957.702881 90.153 -59.9689
2979.135742 90.119 -60.2095
3000.723633 90.089 -60.4430
3022.468262 90.063 -60.6717
3044.370117 90.041 -60.8989
3066.430908 90.023 -61.1291
3088.651611 90.007 -61.3619
3111.033203 89.994 -61.5985
3133.577148 89.983 -61.8388
3156.284180 89.975 -62.0833
3179.156006 89.969 -62.3318
3202.193359 89.966 -62.5853
3225.397949 89.966 -62.8418
3248.770508 89.967 -63.0998
3272.312500 89.970 -63.3588
3296.024902 89.977 -63.6168
3319.909180 89.988 -63.8768
3343.966797 90.003 -64.1397
3368.198486 90.023 -64.4097
3392.605713 90.049 -64.6892
3417.189941 90.080 -64.9846
3441.952393 90.117 -65.3017
3466.894287 90.160 -65.6444
3492.016846 90.207 -66.0170
3517.321289 90.259 -66.4240
3542.809326 90.316 -66.8707
3568.481934 90.377 -67.3596
3594.340576 90.441 -67.8947
3620.386719 90.509 -68.4771
3646.621582 90.578 -69.1078
3673.046387 90.649 -69.7916
3699.662842 90.723 -70.5319
3726.472168 90.799 -71.3341
3753.475586 90.875 -72.2040
3780.675049 90.951 -73.1436
3808.071289 91.025 -74.1568
3835.666016 91.096 -75.2446
3863.460938 91.163 -76.4098
3891.457275 91.224 -77.6509
3919.656250 91.277 -78.9690
3948.059814 91.322 -80.3594
3976.668945 91.356 -81.8199
4005.485596 91.379 -83.3434
4034.510986 91.388 -84.9262
4063.746582 91.381 -86.5562
4093.194336 91.358 -88.2237
4122.855469 91.317 -89.9167
4152.730957 91.259 -91.6235
4182.823730 91.183 -93.3319
4213.133789 91.089 -95.0320
4243.664062 90.975 -96.7071
4274.415527 90.841 -98.3425
4305.389648 90.688 -99.9214
4336.588379 90.516 -101.4262
4368.013184 90.327 -102.8455
4399.665527 90.123 -104.1666
4431.547363 89.905 -105.3764
4463.660156 89.671 -106.4612
4496.005371 89.426 -107.4096
4528.585449 89.173 -108.2062
4561.401367 88.913 -108.8493
4594.455078 88.651 -109.3336
4627.748535 88.388 -109.6558
4661.283203 88.126 -109.8113
4695.060547 87.869 -109.7995
4729.083008 87.622 -109.6143
4763.352051 87.387 -109.2670
4797.869141 87.170 -108.7628
4832.636719 86.973 -108.1136
4867.655762 86.799 -107.3257
4902.928711 86.654 -106.4207
4938.457520 86.543 -105.4107
4974.243652 86.469 -104.3312
5010.289062 86.439 -103.2085
5046.595703 86.452 -102.0826
5083.165527 86.510 -100.9876
5120.000000 86.614 -99.9687
5157.101562 86.766 -99.0670
5194.472168 86.959 -98.3291
5232.113281 87.192 -97.8043
5270.027344 87.457 -97.5267
5308.216309 87.745 -97.5409
5346.681641 88.048 -97.8646
5385.426270 88.357 -98.5330
5424.451172 88.663 -99.5383
5463.758789 88.951 -100.8954
5503.351562 89.216 -102.5711
5543.230957 89.449 -104.5535
5583.399414 89.644 -106.7925
5623.859375 89.795 -109.2542
5664.611816 89.900 -111.8779
5705.660156 89.953 -114.6095
5747.005859 89.957 -117.3936
5788.650879 89.911 -120.1711
5830.597656 89.818 -122.8952
5872.848633 89.679 -125.5110
5915.405762 89.501 -127.9847
5958.271484 89.285 -130.2690
6001.447266 89.039 -132.3498
6044.936523 88.770 -134.1966
6088.740234 88.483 -135.8115
6132.861816 88.185 -137.1821
6177.303223 87.883 -138.3228
6222.066406 87.582 -139.2355
6267.154297 87.289 -139.9459
6312.568359 87.011 -140.4713
6358.312012 86.748 -140.8395
6404.386719 86.506 -141.0768
6450.795898 86.283 -141.2046
6497.541016 86.082 -141.2467
6544.625000 85.902 -141.2213
6592.049805 85.744 -141.1497
6639.818359 85.608 -141.0456
6687.933594 85.490 -140.9269
6736.396973 85.390 -140.8016
6785.211426 85.309 -140.6809
6834.379883 85.245 -140.5725
6883.904785 85.197 -140.4859
6933.788574 85.165 -140.4272
6984.033691 85.148 -140.4028
7034.642578 85.145 -140.4218
7085.618652 85.157 -140.4919
7136.963867 85.184 -140.6232
7188.681152 85.223 -140.8250
7240.773438 85.275 -141.1064
7293.243164 85.337 -141.4758
7346.092773 85.408 -141.9434
7399.325684 85.488 -142.5221
7452.944336 85.573 -143.2122
7506.951172 85.657 -144.0199
7561.350098 85.742 -144.9400
7616.142578 85.824 -145.9702
7671.332031 85.903 -147.1079
7726.921875 85.976 -148.3521
7782.914551 86.043 -149.6958
7839.312500 86.100 -151.1340
7896.119629 86.148 -152.6607
7953.337891 86.185 -154.2712
8010.971191 86.210 -155.9569
8069.021973 86.221 -157.7128
8127.493164 86.216 -159.5233
8186.388672 86.194 -161.3773
8245.710938 86.154 -163.2570
8305.461914 86.096 -165.1460
8365.647461 86.021 -167.0291
8426.267578 85.930 -168.8880
8487.328125 85.824 -170.7155
8548.831055 85.704 -172.4987
8610.779297 85.574 -174.2350
8673.176758 85.433 -175.9168
8736.026367 85.284 -177.5453
8799.331055 85.129 -179.1194
8863.094727 84.968 179.3619
8927.320312 84.801 177.8986
8992.010742 84.629 176.4943
9057.170898 84.452 175.1520
9122.802734 84.272 173.8736
9188.910156 84.090 172.6611
9255.497070 83.907 171.5160
9322.566406 83.723 170.4414
9390.121094 83.540 169.4351
9458.166016 83.361 168.4967
9526.704102 83.186 167.6245
9595.738281 83.015 166.8178
9665.273438 82.852 166.0728
9735.311523 82.697 165.3875
9805.857422 82.553 164.7543
9876.915039 82.420 164.1676
9948.487305 82.301 163.6189
10020.578125 82.196 163.1028
10093.191406 82.108 162.6037
10166.331055 82.040 162.1102
10240.000000 81.992 161.6038
10314.203125 81.964 161.0696
10388.944336 81.958 160.4849
10464.226562 81.975 159.8304
10540.054688 82.014 159.0808
10616.432617 82.072 158.2104
10693.363281 82.149 157.2005
10770.852539 82.240 156.0294
10848.902344 82.342 154.6788
10927.517578 82.455 153.1255
11006.703125 82.571 151.3622
11086.461914 82.685 149.3718
11166.798828 82.791 147.1609
11247.718750 82.886 144.7270
11329.223633 82.966 142.0792
11411.320312 83.027 139.2196
11494.011719 83.064 136.1670
11577.301758 83.072 132.9326
11661.195312 83.049 129.5412
11745.697266 82.993 126.0140
11830.811523 82.903 122.3740
11916.542969 82.775 118.6441
12002.894531 82.609 114.8452
12089.873047 82.404 110.9965
12177.480469 82.159 107.1260
12265.723633 81.870 103.2557
12354.606445 81.537 99.4236
12444.132812 81.159 95.6600
12534.308594 80.735 92.0104
12625.136719 80.265 88.5142
12716.624023 79.749 85.2208
12808.773438 79.187 82.1847
12901.591797 78.585 79.4298
12995.082031 77.946 76.9944
13089.250000 77.278 74.8897
13184.099609 76.585 73.1413
13279.636719 75.876 71.7423
13375.867188 75.161 70.7073
13472.793945 74.450 69.9972
13570.422852 73.758 69.5848
13668.759766 73.083 69.4480
13767.809570 72.423 69.5584
13867.577148 71.785 69.9083
13968.067383 71.172 70.4855
14069.285156 70.586 71.2749
14171.237305 70.031 72.2608
14273.927734 69.507 73.4323
14377.362305 69.013 74.7786
14481.546875 68.556 76.2838
14586.486328 68.142 77.9402
14692.185547 67.776 79.7134
14798.651367 67.464 81.5856
14905.888672 67.211 83.4979
15013.902344 67.028 85.4091
15122.700195 66.911 87.2469
15232.285156 66.867 88.9486
15342.664062 66.888 90.4427
15453.843750 66.973 91.6540
15565.829102 67.107 92.5293
15678.625000 67.278 92.9953
15792.239258 67.471 93.0390
15906.675781 67.671 92.6135
16021.942383 67.863 91.7469
16138.043945 68.030 90.4303
16254.986328 68.164 88.7289
16372.777344 68.253 86.6811
16491.421875 68.295 84.3595
16610.923828 68.284 81.8282
16731.294922 68.220 79.1528
16852.535156 68.098 76.4021
16974.656250 67.923 73.6308
17097.662109 67.697 70.9034
17221.558594 67.422 68.2607
17346.353516 67.102 65.7527
17472.052734 66.740 63.4156
17598.662109 66.339 61.2954
17726.189453 65.907 59.4122
17854.640625 65.450 57.8026
17984.021484 64.977 56.4627
18114.341797 64.493 55.4107
18245.605469 64.009 54.6158
18377.820312 63.536 54.0704
18510.994141 63.082 53.7215
18645.132812 62.656 53.5316
18780.242188 62.260 53.4463
18916.332031 61.901 53.4119
19053.408203 61.575 53.3872
19191.476562 61.280 53.3162
19330.546875 61.008 53.1899
19470.623047 60.752 52.9768
19611.714844 60.505 52.6888
19753.830078 60.263 52.3224
19896.974609 60.022 51.8938
