* Measurement data measured by REW V5.20.13
* Source: C:\Users\kurin\Desktop\Targets and Curves\Resolve\Img\Files\Aukey EP-T21_SPL.txt
* Format: Comma/Tab/Space delimited data
* Dated: Aug 14, 2023 3:03:42 PM
* REW Settings:
*  C-weighting compensation: Off
*  Target level: 75.0 dB
* Note: ; Measurement imported from C:\Users\kurin\Desktop\Targets and Curves\Resolve\Img\Files\Aukey EP-T21_SPL.txt Format: Comma/Tab/Space delimited data 623 values loaded, 5 Hz to 39,792 Hz log spaced 
* Measurement: Aukey EP-T21_SPL
* Smoothing: 1/48 octave
* Frequency Step: 1/96 octave
* Start Frequency: 5.000 Hz
*
* Freq(Hz) SPL(dB) Phase(degrees)
5.000000 95.044 25.7460
5.036232 95.053 25.7331
5.072727 95.063 25.7190
5.109486 95.075 25.7023
5.146511 95.088 25.6830
5.183805 95.104 25.6604
5.221369 95.121 25.6360
5.259205 95.139 25.6116
5.297316 95.158 25.5860
5.335702 95.178 25.5584
5.374367 95.199 25.5300
5.413311 95.220 25.5021
5.452538 95.240 25.4740
5.492050 95.260 25.4456
5.531847 95.280 25.4170
5.571934 95.300 25.3886
5.612310 95.321 25.3600
5.652979 95.341 25.3311
5.693943 95.362 25.3020
5.735204 95.382 25.2726
5.776763 95.403 25.2430
5.818624 95.424 25.2131
5.860788 95.444 25.1830
5.903258 95.464 25.1526
5.946035 95.484 25.1220
5.989123 95.504 25.0916
6.032523 95.525 25.0610
6.076237 95.546 25.0296
6.120268 95.566 24.9980
6.164618 95.586 24.9666
6.209289 95.607 24.9350
6.254284 95.628 24.9031
6.299605 95.648 24.8710
6.345255 95.668 24.8386
6.391235 95.688 24.8060
6.437549 95.708 24.7731
6.484198 95.729 24.7400
6.531185 95.749 24.7066
6.578513 95.770 24.6730
6.626183 95.790 24.6391
6.674199 95.811 24.6050
6.722563 95.831 24.5706
6.771278 95.852 24.5360
6.820345 95.873 24.5011
6.869768 95.893 24.4660
6.919549 95.913 24.4306
6.969691 95.933 24.3950
7.020196 95.953 24.3591
7.071068 95.974 24.3230
7.122308 95.994 24.2867
7.173919 96.015 24.2500
7.225904 96.035 24.2126
7.278266 96.056 24.1750
7.331007 96.077 24.1376
7.384131 96.097 24.1000
7.437639 96.117 24.0616
7.491535 96.137 24.0230
7.545822 96.157 23.9846
7.600502 96.178 23.9460
7.655579 96.198 23.9067
7.711054 96.219 23.8670
7.766932 96.239 23.8271
7.823214 96.260 23.7870
7.879904 96.280 23.7466
7.937005 96.301 23.7060
7.994520 96.322 23.6652
8.052452 96.342 23.6240
8.110803 96.362 23.5822
8.169578 96.382 23.5400
8.228777 96.402 23.4976
8.288406 96.423 23.4550
8.348468 96.443 23.4121
8.408964 96.464 23.3690
8.469899 96.484 23.3257
8.531276 96.505 23.2820
8.593097 96.526 23.2377
8.655366 96.546 23.1930
8.718086 96.566 23.1482
8.781260 96.586 23.1030
8.844893 96.606 23.0572
8.908987 96.627 23.0110
8.973545 96.647 22.9646
9.038571 96.668 22.9180
9.104069 96.688 22.8712
9.170040 96.709 22.8240
9.236490 96.729 22.7762
9.303422 96.750 22.7280
9.370838 96.771 22.6797
9.438744 96.791 22.6310
9.507140 96.811 22.5818
9.576033 96.831 22.5320
9.645425 96.851 22.4816
9.715320 96.872 22.4310
9.785721 96.892 22.3807
9.856632 96.913 22.3300
9.928058 96.933 22.2783
10.000000 96.954 22.2260
10.072464 96.975 22.1737
10.145453 96.995 22.1211
10.218971 97.015 22.0677
10.293022 97.035 22.0140
10.367610 97.055 21.9603
10.442738 97.076 21.9060
10.518411 97.096 21.8507
10.594631 97.117 21.7950
10.671404 97.137 21.7397
10.748734 97.158 21.6840
10.826623 97.178 21.6273
10.905077 97.199 21.5700
10.984100 97.220 21.5122
11.063695 97.240 21.4540
11.143867 97.260 21.3957
11.224621 97.280 21.3370
11.305959 97.300 21.2778
11.387886 97.321 21.2180
11.470407 97.341 21.1573
11.553527 97.362 21.0960
11.637249 97.382 21.0347
11.721577 97.403 20.9731
11.806517 97.424 20.9108
11.892071 97.444 20.8481
11.978246 97.464 20.7848
12.065045 97.484 20.7210
12.152473 97.504 20.6563
12.240536 97.525 20.5910
12.329235 97.545 20.5258
12.418578 97.566 20.4601
12.508568 97.586 20.3934
12.599211 97.607 20.3260
12.690510 97.628 20.2583
12.782471 97.648 20.1901
12.875097 97.668 20.1213
12.968395 97.688 20.0520
13.062370 97.708 19.9823
13.157025 97.729 19.9120
13.252366 97.749 19.8409
13.348398 97.770 19.7691
13.445127 97.790 19.6964
13.542556 97.811 19.6231
13.640691 97.831 19.5493
13.739536 97.852 19.4750
13.839099 97.873 19.4004
13.939383 97.893 19.3251
14.040393 97.913 19.2489
14.142136 97.933 19.1720
14.244616 97.953 19.0944
14.347837 97.974 19.0160
14.451808 97.994 18.9369
14.556532 98.015 18.8570
14.662014 98.035 18.7764
14.768262 98.056 18.6951
14.875278 98.077 18.6130
14.983070 98.097 18.5301
15.091644 98.117 18.4464
15.201005 98.137 18.3621
15.311157 98.157 18.2770
15.422109 98.178 18.1911
15.533863 98.198 18.1040
15.646428 98.219 18.0161
15.759809 98.239 17.9274
15.874010 98.260 17.8381
15.989040 98.280 17.7481
16.104904 98.301 17.6571
16.221605 98.322 17.5646
16.339155 98.342 17.4711
16.457554 98.362 17.3770
16.576813 98.382 17.2821
16.696936 98.402 17.1861
16.817928 98.423 17.0891
16.939798 98.443 16.9907
17.062551 98.464 16.8911
17.186193 98.484 16.7902
17.310732 98.505 16.6881
17.436172 98.526 16.5853
17.562521 98.546 16.4811
17.689787 98.566 16.3749
17.817974 98.586 16.2671
17.947090 98.606 16.1584
18.077143 98.627 16.0481
18.208138 98.647 15.9357
18.340080 98.668 15.8211
18.472980 98.688 15.7043
18.606844 98.709 15.5851
18.741676 98.729 15.4636
18.877487 98.750 15.3381
19.014280 98.771 15.2067
19.152065 98.791 15.0702
19.290850 98.810 14.9279
19.430639 98.827 14.7821
19.571442 98.843 14.6334
19.713264 98.858 14.4862
19.856115 98.869 14.3426
20.000000 98.879 14.2101
20.144928 98.886 14.0994
20.290907 98.894 14.0031
20.437943 98.907 13.9196
20.586044 98.922 13.8431
20.735220 98.937 13.7656
20.885475 98.953 13.6921
21.036821 98.970 13.6300
21.189262 98.991 13.5631
21.342808 99.020 13.4772
21.497467 99.051 13.3731
21.653246 99.076 13.2415
21.810154 99.099 13.0982
21.968201 99.119 12.9584
22.127390 99.138 12.8152
22.287735 99.161 12.6656
22.449242 99.183 12.5131
22.611917 99.199 12.3569
22.775772 99.212 12.2072
22.940815 99.224 12.0777
23.107054 99.238 11.9572
23.274498 99.258 11.8399
23.443153 99.279 11.7222
23.613033 99.299 11.5982
23.784142 99.319 11.4691
23.956491 99.342 11.3347
24.130091 99.365 11.1932
24.304947 99.387 11.0416
24.481071 99.409 10.8832
24.658470 99.430 10.7209
24.837156 99.451 10.5532
25.017136 99.472 10.3791
25.198421 99.492 10.2012
25.381020 99.511 10.0223
25.564941 99.529 9.8412
25.750195 99.548 9.6571
25.936790 99.566 9.4712
26.124741 99.581 9.2832
26.314051 99.596 9.0973
26.504732 99.610 8.9196
26.696796 99.625 8.7442
26.890253 99.642 8.5665
27.085112 99.660 8.3882
27.281382 99.675 8.2099
27.479073 99.691 8.0302
27.678198 99.710 7.8508
27.878765 99.730 7.6633
28.080786 99.751 7.4580
28.284271 99.772 7.2403
28.489231 99.789 7.0113
28.695675 99.805 6.7743
28.903616 99.820 6.5320
29.113064 99.834 6.2873
29.324028 99.844 6.0415
29.536524 99.851 5.8023
29.750557 99.856 5.5809
29.966141 99.861 5.3682
30.183289 99.871 5.1616
30.402010 99.883 4.9533
30.622314 99.895 4.7340
30.844217 99.907 4.5063
31.067726 99.918 4.2708
31.292856 99.929 4.0234
31.519617 99.941 3.7571
31.748020 99.950 3.4813
31.978081 99.951 3.1986
32.209808 99.947 2.9223
32.443211 99.940 2.6663
32.678310 99.930 2.4323
32.915108 99.919 2.2274
33.153625 99.908 2.0492
33.393871 99.899 1.9014
33.635857 99.893 1.7722
33.879597 99.894 1.6560
34.125103 99.901 1.5382
34.372387 99.914 1.4027
34.621464 99.931 1.2473
34.872345 99.947 1.0613
35.125042 99.963 0.8533
35.379574 99.976 0.6266
35.635948 99.988 0.3863
35.894180 99.997 0.1383
36.154285 100.005 -0.1176
36.416275 100.012 -0.3800
36.680161 100.018 -0.6486
36.945961 100.021 -0.9221
37.213688 100.023 -1.2016
37.483353 100.024 -1.4894
37.754974 100.023 -1.7796
38.028561 100.016 -2.0674
38.304131 100.006 -2.3506
38.581699 99.996 -2.6267
38.861279 99.983 -2.8916
39.142883 99.964 -3.1433
39.426529 99.943 -3.3727
39.712231 99.920 -3.5666
40.000000 99.899 -3.7358
40.289856 99.883 -3.8843
40.581814 99.870 -4.0198
40.875885 99.859 -4.1526
41.172089 99.850 -4.2788
41.470440 99.841 -4.3966
41.770950 99.835 -4.5108
42.073643 99.833 -4.6243
42.378525 99.835 -4.7408
42.685616 99.838 -4.8637
42.994934 99.844 -4.9978
43.306492 99.855 -5.1478
43.620308 99.867 -5.3177
43.936401 99.879 -5.5137
44.254780 99.891 -5.7336
44.575470 99.902 -5.9791
44.898483 99.911 -6.2446
45.223835 99.915 -6.5278
45.551544 99.916 -6.8196
45.881630 99.912 -7.1111
46.214108 99.904 -7.3986
46.548996 99.894 -7.6753
46.886307 99.882 -7.9416
47.226067 99.869 -8.1936
47.568283 99.857 -8.4366
47.912983 99.846 -8.6720
48.260181 99.837 -8.9076
48.609894 99.830 -9.1511
48.962143 99.823 -9.4046
49.316940 99.815 -9.6762
49.674313 99.804 -9.9556
50.034271 99.787 -10.2390
50.396843 99.766 -10.5146
50.762039 99.741 -10.7686
51.129883 99.714 -11.0026
51.500389 99.688 -11.2120
51.873581 99.663 -11.4017
52.249481 99.639 -11.5734
52.628101 99.617 -11.7327
53.009464 99.599 -11.8821
53.393593 99.584 -12.0327
53.780506 99.575 -12.1963
54.170223 99.568 -12.3737
54.562763 99.559 -12.5712
54.958145 99.550 -12.7837
55.356396 99.540 -13.0098
55.757530 99.527 -13.2446
56.161572 99.511 -13.4860
56.568542 99.492 -13.7236
56.978462 99.468 -13.9443
57.391350 99.444 -14.1536
57.807232 99.424 -14.3489
58.226128 99.405 -14.5417
58.648056 99.388 -14.7445
59.073048 99.371 -14.9517
59.501114 99.351 -15.1626
59.932281 99.329 -15.3736
60.366577 99.308 -15.5795
60.804020 99.286 -15.7846
61.244629 99.264 -15.9926
61.688435 99.242 -16.2006
62.135452 99.218 -16.4101
62.585712 99.192 -16.6127
63.039234 99.162 -16.7983
63.496040 99.133 -16.9727
63.956161 99.108 -17.1344
64.419617 99.085 -17.2947
64.886421 99.065 -17.4682
65.356621 99.044 -17.6437
65.830215 99.017 -17.8138
66.307251 98.991 -17.9817
66.787743 98.971 -18.1443
67.271713 98.953 -18.3127
67.759193 98.935 -18.5004
68.250206 98.915 -18.6966
68.744774 98.891 -18.8934
69.242928 98.866 -19.0956
69.744690 98.846 -19.3052
70.250084 98.825 -19.5226
70.759148 98.798 -19.7521
71.271896 98.768 -19.9836
71.788361 98.736 -20.2084
72.308571 98.702 -20.4256
72.832550 98.665 -20.6333
73.360321 98.626 -20.8257
73.891922 98.584 -20.9933
74.427376 98.542 -21.1447
74.966705 98.507 -21.2842
75.509949 98.473 -21.4158
76.057121 98.437 -21.5448
76.608261 98.401 -21.6718
77.163399 98.370 -21.7963
77.722557 98.341 -21.9267
78.285767 98.313 -22.0758
78.853058 98.283 -22.2297
79.424461 98.246 -22.3786
80.000000 98.208 -22.5227
80.579712 98.175 -22.6568
81.163628 98.142 -22.7878
81.751770 98.107 -22.9229
82.344177 98.072 -23.0557
82.940880 98.036 -23.1794
83.541901 98.000 -23.3028
84.147285 97.969 -23.4321
84.757050 97.938 -23.5687
85.371231 97.905 -23.7191
85.989868 97.870 -23.8747
86.612984 97.831 -24.0312
87.240616 97.790 -24.1827
87.872803 97.746 -24.3212
88.509560 97.701 -24.4487
89.150940 97.657 -24.5635
89.796967 97.613 -24.6698
90.447670 97.569 -24.7727
91.103088 97.525 -24.8678
91.763260 97.479 -24.9513
92.428215 97.433 -25.0269
93.097992 97.390 -25.0969
93.772614 97.348 -25.1619
94.452133 97.303 -25.2243
95.136566 97.258 -25.2809
95.825966 97.215 -25.3282
96.520363 97.173 -25.3699
97.219788 97.131 -25.4080
97.924286 97.090 -25.4449
98.633881 97.052 -25.4824
99.348625 97.014 -25.5249
100.068542 96.978 -25.5796
100.793686 96.940 -25.6408
101.524078 96.899 -25.7062
102.259766 96.857 -25.7728
103.000778 96.815 -25.8367
103.747162 96.771 -25.8989
104.498962 96.727 -25.9610
105.256203 96.680 -26.0179
106.018929 96.630 -26.0655
106.787186 96.578 -26.1029
107.561012 96.527 -26.1282
108.340446 96.476 -26.1400
109.125526 96.422 -26.1358
109.916290 96.368 -26.1170
110.712791 96.317 -26.0834
111.515060 96.266 -26.0371
112.323143 96.215 -25.9814
113.137085 96.164 -25.9132
113.956924 96.115 -25.8265
114.782700 96.068 -25.7332
115.614464 96.029 -25.6428
116.452255 95.991 -25.5572
117.296112 95.952 -25.4849
118.146095 95.912 -25.4161
119.002228 95.870 -25.3412
119.864563 95.829 -25.2672
120.733154 95.792 -25.1984
121.608040 95.755 -25.1331
122.489258 95.714 -25.0732
123.376869 95.671 -25.0122
124.270905 95.628 -24.9437
125.171425 95.583 -24.8691
126.078468 95.538 -24.7895
126.992081 95.491 -24.6992
127.912323 95.442 -24.5938
128.839233 95.391 -24.4713
129.772842 95.341 -24.3280
130.713242 95.292 -24.1644
131.660431 95.244 -23.9784
132.614502 95.197 -23.7736
133.575485 95.154 -23.5511
134.543427 95.113 -23.3155
135.518387 95.076 -23.0707
136.500412 95.042 -22.8195
137.489548 95.011 -22.5639
138.485855 94.984 -22.3096
139.489380 94.962 -22.0624
140.500168 94.943 -21.8235
141.518295 94.924 -21.5985
142.543793 94.906 -21.3805
143.576721 94.887 -21.1643
144.617142 94.869 -20.9515
145.665100 94.854 -20.7414
146.720642 94.841 -20.5366
147.783844 94.828 -20.3413
148.854752 94.815 -20.1495
149.933411 94.801 -19.9558
151.019897 94.788 -19.7615
152.114243 94.777 -19.5645
153.216522 94.768 -19.3695
154.326797 94.761 -19.1815
155.445114 94.755 -18.9984
156.571533 94.748 -18.8195
157.706116 94.743 -18.6464
158.848923 94.741 -18.4798
160.000000 94.741 -18.3214
161.159424 94.739 -18.1741
162.327255 94.738 -18.0353
163.503540 94.738 -17.9030
164.688354 94.738 -17.7783
165.881760 94.738 -17.6619
167.083801 94.738 -17.5523
168.294571 94.738 -17.4481
169.514099 94.738 -17.3492
170.742462 94.738 -17.2553
171.979736 94.738 -17.1662
173.225967 94.738 -17.0818
174.481232 94.738 -17.0022
175.745605 94.738 -16.9275
177.019119 94.738 -16.8572
178.301880 94.738 -16.7906
179.593933 94.738 -16.7282
180.895340 94.738 -16.6698
182.206177 94.738 -16.6161
183.526520 94.738 -16.5679
184.856430 94.738 -16.5241
186.195984 94.738 -16.4841
187.545227 94.737 -16.4481
188.904266 94.736 -16.4163
190.273132 94.735 -16.3871
191.651932 94.733 -16.3587
193.040726 94.730 -16.3311
194.439575 94.728 -16.3026
195.848572 94.727 -16.2761
197.267761 94.727 -16.2538
198.697250 94.727 -16.2360
200.137085 94.727 -16.2236
201.587372 94.727 -16.2170
203.048157 94.728 -16.2159
204.519531 94.730 -16.2240
206.001556 94.733 -16.2448
207.494324 94.735 -16.2779
208.997925 94.736 -16.3239
210.512405 94.737 -16.3828
212.037857 94.737 -16.4548
213.574371 94.735 -16.5398
215.122025 94.731 -16.6394
216.680893 94.724 -16.7487
218.251053 94.713 -16.8663
219.832581 94.698 -16.9827
221.425583 94.677 -17.0887
223.030121 94.652 -17.1818
224.646286 94.627 -17.2557
226.274170 94.600 -17.3119
227.913849 94.572 -17.3493
229.565399 94.543 -17.3690
231.228928 94.516 -17.3698
232.904510 94.491 -17.3571
234.592224 94.468 -17.3330
236.292191 94.447 -17.3061
238.004456 94.431 -17.2847
239.729126 94.416 -17.2710
241.466309 94.401 -17.2721
243.216080 94.385 -17.2820
244.978516 94.367 -17.2977
246.753738 94.348 -17.3169
248.541809 94.328 -17.3368
250.342850 94.307 -17.3559
252.156937 94.284 -17.3731
253.984161 94.259 -17.3850
255.824646 94.232 -17.3881
257.678467 94.205 -17.3820
259.545685 94.178 -17.3649
261.426483 94.151 -17.3371
263.320862 94.123 -17.2965
265.229004 94.097 -17.2491
267.150970 94.075 -17.2006
269.086853 94.053 -17.1501
271.036774 94.030 -17.1003
273.000824 94.006 -17.0472
274.979095 93.984 -16.9855
276.971710 93.963 -16.9222
278.978760 93.945 -16.8619
281.000336 93.929 -16.8061
283.036591 93.912 -16.7585
285.087585 93.896 -16.7181
287.153442 93.880 -16.6844
289.234283 93.864 -16.6601
291.330200 93.849 -16.6502
293.441284 93.831 -16.6470
295.567688 93.808 -16.6453
297.709503 93.783 -16.6420
299.866821 93.759 -16.6319
302.039795 93.734 -16.6171
304.228485 93.707 -16.6008
306.433044 93.677 -16.5741
308.653595 93.643 -16.5272
310.890228 93.610 -16.4652
313.143066 93.582 -16.3864
315.412231 93.556 -16.3012
317.697845 93.532 -16.2210
320.000000 93.508 -16.1422
322.318848 93.483 -16.0654
324.654510 93.458 -15.9892
327.007080 93.434 -15.9126
329.376709 93.409 -15.8352
331.763519 93.383 -15.7580
334.167603 93.356 -15.6763
336.589142 93.328 -15.5858
339.028198 93.300 -15.4863
341.484924 93.272 -15.3761
343.959473 93.244 -15.2554
346.451935 93.218 -15.1217
348.962463 93.193 -14.9814
351.491211 93.172 -14.8386
354.038239 93.153 -14.6974
356.603760 93.136 -14.5640
359.187866 93.119 -14.4364
361.790680 93.103 -14.3130
364.412354 93.087 -14.1983
367.053040 93.074 -14.0975
369.712860 93.060 -14.0063
372.391968 93.042 -13.9254
375.090454 93.021 -13.8442
377.808533 92.998 -13.7507
380.546265 92.974 -13.6503
383.303864 92.953 -13.5438
386.081451 92.933 -13.4333
388.879150 92.911 -13.3223
391.697144 92.888 -13.2084
394.535522 92.866 -13.0891
397.394501 92.845 -12.9684
400.274170 92.824 -12.8512
403.174744 92.802 -12.7314
406.096313 92.777 -12.6050
409.039062 92.751 -12.4694
412.003113 92.726 -12.3204
414.988647 92.702 -12.1585
417.995850 92.677 -11.9825
421.024811 92.654 -11.7936
424.075714 92.634 -11.5885
427.148743 92.617 -11.3797
430.244049 92.606 -11.1765
433.361786 92.599 -10.9846
436.502106 92.594 -10.8143
439.665161 92.589 -10.6614
442.851166 92.583 -10.5272
446.060242 92.576 -10.4064
449.292572 92.567 -10.2951
452.548340 92.557 -10.1903
455.827698 92.544 -10.0884
459.130798 92.529 -9.9863
462.457855 92.513 -9.8795
465.809021 92.496 -9.7694
469.184448 92.478 -9.6555
472.584381 92.460 -9.5384
476.008911 92.441 -9.4197
479.458252 92.421 -9.2954
482.932617 92.398 -9.1622
486.432159 92.375 -9.0195
489.957031 92.353 -8.8654
493.507477 92.330 -8.7005
497.083618 92.307 -8.5241
500.685699 92.284 -8.3376
504.313873 92.264 -8.1402
507.968323 92.245 -7.9387
511.649292 92.229 -7.7406
515.356934 92.214 -7.5427
519.091370 92.196 -7.3467
522.852966 92.177 -7.1447
526.641724 92.158 -6.9283
530.458008 92.140 -6.7008
534.301941 92.124 -6.4598
538.173706 92.110 -6.2138
542.073547 92.101 -5.9691
546.001648 92.095 -5.7298
549.958191 92.089 -5.5042
553.943420 92.084 -5.2867
557.957520 92.077 -5.0738
562.000671 92.070 -4.8667
566.073181 92.066 -4.6661
570.175171 92.060 -4.4696
574.306885 92.050 -4.2793
578.468567 92.038 -4.0827
582.660400 92.023 -3.8661
586.882568 92.008 -3.6348
591.135376 91.997 -3.3864
595.419006 91.989 -3.1299
599.733643 91.983 -2.8730
604.079590 91.979 -2.6169
608.456970 91.977 -2.3654
612.866089 91.977 -2.1188
617.307190 91.977 -1.8792
621.780457 91.977 -1.6448
626.286133 91.977 -1.4146
630.824463 91.977 -1.1877
635.395691 91.977 -0.9628
640.000000 91.977 -0.7398
644.637695 91.977 -0.5183
649.309021 91.977 -0.2978
654.014160 91.976 -0.0779
658.753418 91.975 0.1423
663.527039 91.974 0.3629
668.335205 91.973 0.5862
673.178284 91.970 0.8140
678.056396 91.967 1.0472
682.969849 91.965 1.2886
687.918945 91.963 1.5351
692.903870 91.963 1.7845
697.924927 91.963 2.0371
702.982422 91.963 2.2924
708.076477 91.963 2.5511
713.207520 91.965 2.8145
718.375732 91.967 3.0801
723.581360 91.971 3.3436
728.824707 91.974 3.6100
734.106079 91.975 3.8828
739.425720 91.977 4.1620
744.783936 91.981 4.4491
750.180908 91.986 4.7429
755.617065 91.991 5.0440
761.092529 91.998 5.3489
766.607727 92.009 5.6570
772.162903 92.023 5.9609
777.758301 92.039 6.2509
783.394287 92.055 6.5330
789.071045 92.068 6.8090
794.789001 92.081 7.0830
800.548340 92.093 7.3598
806.349487 92.105 7.6400
812.192627 92.116 7.9233
818.078125 92.127 8.2179
824.006226 92.135 8.5338
829.977295 92.144 8.8648
835.991699 92.161 9.2120
842.049622 92.181 9.5637
848.151428 92.204 9.9060
854.297485 92.228 10.2457
860.488098 92.251 10.5844
866.723572 92.276 10.9247
873.004211 92.303 11.2732
879.330322 92.333 11.6208
885.702332 92.367 11.9602
892.120483 92.404 12.2928
898.585144 92.440 12.6160
905.096680 92.477 12.9338
911.655396 92.515 13.2532
918.261597 92.556 13.5639
924.915710 92.602 13.8579
931.618042 92.650 14.1350
938.368896 92.694 14.3882
945.168762 92.737 14.6301
952.017822 92.776 14.8701
958.916504 92.814 15.1121
965.865234 92.850 15.3619
972.864319 92.886 15.6220
979.914062 92.921 15.8965
987.014954 92.957 16.1869
994.167236 92.994 16.4963
1001.371399 93.034 16.8238
1008.627747 93.076 17.1737
1015.936646 93.125 17.5335
1023.298584 93.183 17.8968
1030.713867 93.249 18.2499
1038.182739 93.320 18.5766
1045.705933 93.395 18.8778
1053.283447 93.472 19.1514
1060.916016 93.553 19.3901
1068.603882 93.638 19.5820
1076.347412 93.722 19.7384
1084.147095 93.797 19.8615
1092.003296 93.869 19.9667
1099.916382 93.939 20.0718
1107.886841 94.008 20.1716
1115.915039 94.078 20.2654
1124.001343 94.147 20.3567
1132.146362 94.212 20.4507
1140.350342 94.279 20.5417
1148.613770 94.351 20.6283
1156.937134 94.426 20.7017
1165.320801 94.499 20.7496
1173.765137 94.571 20.7809
1182.270752 94.639 20.7974
1190.838013 94.705 20.8090
1199.467285 94.766 20.8248
1208.159180 94.826 20.8479
1216.913940 94.886 20.8861
1225.732178 94.948 20.9338
1234.614380 95.011 20.9888
1243.560913 95.077 21.0488
1252.572266 95.144 21.1141
1261.648926 95.216 21.1748
1270.791382 95.294 21.2240
1280.000000 95.376 21.2519
1289.275391 95.459 21.2448
1298.618042 95.542 21.2082
1308.028320 95.622 21.1405
1317.506836 95.699 21.0504
1327.054077 95.772 20.9438
1336.670410 95.842 20.8285
1346.356567 95.906 20.7119
1356.112793 95.968 20.6004
1365.939697 96.027 20.5032
1375.837891 96.086 20.4193
1385.807739 96.145 20.3537
1395.849854 96.205 20.2982
1405.964844 96.269 20.2481
1416.152954 96.335 20.1982
1426.415039 96.402 20.1423
1436.751465 96.470 20.0793
1447.162720 96.540 20.0049
1457.649414 96.610 19.9223
1468.212158 96.678 19.8301
1478.851440 96.744 19.7373
1489.567871 96.807 19.6535
1500.361816 96.870 19.5763
1511.234131 96.937 19.5085
1522.185059 97.007 19.4443
1533.215454 97.077 19.3789
1544.325806 97.150 19.3113
1555.516602 97.224 19.2406
1566.788574 97.300 19.1624
1578.142090 97.379 19.0707
1589.578003 97.458 18.9694
1601.096680 97.534 18.8584
1612.698975 97.610 18.7445
1624.385254 97.686 18.6346
1636.156250 97.763 18.5285
1648.012451 97.841 18.4291
1659.954590 97.921 18.3333
1671.983398 98.004 18.2413
1684.099243 98.091 18.1454
1696.302856 98.182 18.0386
1708.594971 98.276 17.9196
1720.976196 98.370 17.7851
1733.447144 98.467 17.6347
1746.008423 98.566 17.4665
1758.660645 98.667 17.2818
1771.404663 98.766 17.0784
1784.240967 98.865 16.8649
1797.170288 98.962 16.6512
1810.193359 99.061 16.4319
1823.310791 99.165 16.2055
1836.523193 99.272 15.9690
1849.831421 99.377 15.7154
1863.236084 99.483 15.4542
1876.737793 99.588 15.1955
1890.337524 99.697 14.9302
1904.035645 99.813 14.6524
1917.833008 99.933 14.3622
1931.730469 100.049 14.0582
1945.728638 100.169 13.7394
1959.828125 100.297 13.4099
1974.029907 100.430 13.0536
1988.334473 100.569 12.6529
2002.742798 100.709 12.2158
2017.255493 100.846 11.7436
2031.873291 100.982 11.2391
2046.597168 101.122 10.7052
2061.427734 101.262 10.1426
2076.365479 101.399 9.5486
2091.411865 101.535 8.9356
2106.566895 101.672 8.3194
2121.832031 101.811 7.6867
2137.207764 101.961 7.0319
2152.694824 102.114 6.3468
2168.294189 102.269 5.6234
2184.006592 102.427 4.8556
2199.832764 102.594 4.0388
2215.773682 102.765 3.1607
2231.830078 102.937 2.2061
2248.002686 103.108 1.1794
2264.292725 103.279 0.0789
2280.700684 103.448 -1.0918
2297.227539 103.613 -2.3295
2313.874268 103.775 -3.6345
2330.641602 103.936 -5.0038
2347.530273 104.094 -6.4437
2364.541504 104.250 -7.9582
2381.676025 104.402 -9.5516
2398.934570 104.549 -11.2286
2416.318359 104.690 -12.9909
2433.827881 104.825 -14.8397
2451.464355 104.950 -16.7807
2469.228760 105.068 -18.8226
2487.121826 105.172 -20.9586
2505.144531 105.258 -23.1905
2523.297852 105.326 -25.5013
2541.582764 105.373 -27.8811
2560.000000 105.398 -30.3102
2578.550781 105.397 -32.7681
2597.236084 105.374 -35.2465
2616.056641 105.334 -37.7352
2635.013672 105.270 -40.2195
2654.108154 105.179 -42.6908
2673.340820 105.062 -45.1205
2692.713135 104.919 -47.4793
2712.225586 104.756 -49.7615
2731.879395 104.577 -51.9547
2751.675781 104.379 -54.0506
2771.615479 104.161 -56.0421
2791.699707 103.926 -57.9130
2811.929688 103.675 -59.6434
2832.305908 103.413 -61.2359
2852.830078 103.146 -62.6818
2873.502930 102.876 -63.9946
2894.325439 102.606 -65.1832
2915.298828 102.336 -66.2534
2936.424316 102.066 -67.2160
2957.702881 101.796 -68.0636
2979.135742 101.527 -68.7881
3000.723633 101.262 -69.4016
3022.468262 101.008 -69.9093
3044.370117 100.763 -70.3233
3066.430908 100.525 -70.6544
3088.651611 100.297 -70.9120
3111.033203 100.082 -71.1013
3133.577148 99.882 -71.2454
3156.284180 99.700 -71.3656
3179.156006 99.531 -71.4725
3202.193359 99.371 -71.5828
3225.397949 99.221 -71.6994
3248.770508 99.081 -71.8311
3272.312500 98.949 -71.9763
3296.024902 98.817 -72.1387
3319.909180 98.689 -72.3112
3343.966797 98.563 -72.4873
3368.198486 98.441 -72.6691
3392.605713 98.321 -72.8565
3417.189941 98.204 -73.0501
3441.952393 98.088 -73.2516
3466.894287 97.974 -73.4581
3492.016846 97.860 -73.6678
3517.321289 97.747 -73.8790
3542.809326 97.634 -74.0890
3568.481934 97.523 -74.2990
3594.340576 97.412 -74.5114
3620.386719 97.301 -74.7200
3646.621582 97.187 -74.9194
3673.046387 97.074 -75.1101
3699.662842 96.964 -75.2900
3726.472168 96.854 -75.4612
3753.475586 96.745 -75.6263
3780.675049 96.635 -75.7823
3808.071289 96.528 -75.9246
3835.666016 96.422 -76.0613
3863.460938 96.322 -76.1990
3891.457275 96.222 -76.3383
3919.656250 96.122 -76.4848
3948.059814 96.020 -76.6303
3976.668945 95.919 -76.7678
4005.485596 95.817 -76.8994
4034.510986 95.718 -77.0258
4063.746582 95.617 -77.1445
4093.194336 95.514 -77.2552
4122.855469 95.411 -77.3506
4152.730957 95.306 -77.4196
4182.823730 95.203 -77.4718
4213.133789 95.108 -77.5113
4243.664062 95.014 -77.5439
4274.415527 94.922 -77.5786
4305.389648 94.830 -77.6089
4336.588379 94.739 -77.6297
4368.013184 94.649 -77.6449
4399.665527 94.564 -77.6563
4431.547363 94.480 -77.6650
4463.660156 94.396 -77.6743
4496.005371 94.311 -77.6790
4528.585449 94.228 -77.6740
4561.401367 94.146 -77.6621
4594.455078 94.066 -77.6435
4627.748535 93.988 -77.6201
4661.283203 93.912 -77.5933
4695.060547 93.838 -77.5641
4729.083008 93.766 -77.5363
4763.352051 93.694 -77.5042
4797.869141 93.621 -77.4639
4832.636719 93.548 -77.4133
4867.655762 93.478 -77.3457
4902.928711 93.411 -77.2704
4938.457520 93.350 -77.1942
4974.243652 93.291 -77.1174
5010.289062 93.234 -77.0433
5046.595703 93.178 -76.9694
5083.165527 93.125 -76.8919
5120.000000 93.075 -76.8174
5157.101562 93.030 -76.7504
5194.472168 92.987 -76.6923
5232.113281 92.946 -76.6465
5270.027344 92.906 -76.6102
5308.216309 92.868 -76.5801
5346.681641 92.831 -76.5601
5385.426270 92.798 -76.5527
5424.451172 92.766 -76.5579
5463.758789 92.734 -76.5779
5503.351562 92.702 -76.6088
5543.230957 92.670 -76.6476
5583.399414 92.639 -76.6947
5623.859375 92.609 -76.7506
5664.611816 92.579 -76.8127
5705.660156 92.548 -76.8771
5747.005859 92.518 -76.9476
5788.650879 92.492 -77.0250
5830.597656 92.467 -77.1145
5872.848633 92.443 -77.2215
5915.405762 92.420 -77.3463
5958.271484 92.397 -77.4920
6001.447266 92.373 -77.6551
6044.936523 92.347 -77.8342
6088.740234 92.318 -78.0260
6132.861816 92.289 -78.2272
6177.303223 92.257 -78.4369
6222.066406 92.223 -78.6548
6267.154297 92.185 -78.8769
6312.568359 92.145 -79.0979
6358.312012 92.102 -79.3209
6404.386719 92.059 -79.5481
6450.795898 92.013 -79.7768
6497.541016 91.962 -80.0083
6544.625000 91.906 -80.2319
6592.049805 91.844 -80.4405
6639.818359 91.776 -80.6251
6687.933594 91.703 -80.7804
6736.396973 91.623 -80.8886
6785.211426 91.535 -80.9315
6834.379883 91.444 -80.9043
6883.904785 91.356 -80.7940
6933.788574 91.271 -80.6072
6984.033691 91.191 -80.3464
7034.642578 91.117 -80.0109
7085.618652 91.051 -79.5961
7136.963867 90.997 -79.1156
7188.681152 90.961 -78.5742
7240.773438 90.942 -77.9930
7293.243164 90.943 -77.3910
7346.092773 90.964 -76.7791
7399.325684 91.002 -76.1663
7452.944336 91.062 -75.5769
7506.951172 91.148 -75.0293
7561.350098 91.256 -74.5493
7616.142578 91.383 -74.1657
7671.332031 91.525 -73.8871
7726.921875 91.681 -73.7264
7782.914551 91.849 -73.6998
7839.312500 92.029 -73.8270
7896.119629 92.213 -74.1111
7953.337891 92.395 -74.5664
8010.971191 92.571 -75.1774
8069.021973 92.738 -75.9366
8127.493164 92.893 -76.8329
8186.388672 93.037 -77.8613
8245.710938 93.163 -78.9967
8305.461914 93.268 -80.2204
8365.647461 93.353 -81.5091
8426.267578 93.420 -82.8371
8487.328125 93.469 -84.1918
8548.831055 93.500 -85.5573
8610.779297 93.514 -86.9169
8673.176758 93.511 -88.2498
8736.026367 93.495 -89.5520
8799.331055 93.470 -90.8116
8863.094727 93.436 -92.0317
8927.320312 93.395 -93.2117
8992.010742 93.348 -94.3511
9057.170898 93.295 -95.4486
9122.802734 93.237 -96.5055
9188.910156 93.177 -97.5213
9255.497070 93.114 -98.5008
9322.566406 93.052 -99.4486
9390.121094 92.987 -100.3652
9458.166016 92.921 -101.2532
9526.704102 92.853 -102.1105
9595.738281 92.785 -102.9359
9665.273438 92.717 -103.7309
9735.311523 92.650 -104.4959
9805.857422 92.584 -105.2331
9876.915039 92.521 -105.9442
9948.487305 92.460 -106.6304
10020.578125 92.402 -107.2912
10093.191406 92.348 -107.9326
10166.331055 92.301 -108.5575
10240.000000 92.259 -109.1747
10314.203125 92.224 -109.7928
10388.944336 92.195 -110.4160
10464.226562 92.173 -111.0493
10540.054688 92.157 -111.6991
10616.432617 92.147 -112.3702
10693.363281 92.144 -113.0717
10770.852539 92.148 -113.8129
10848.902344 92.157 -114.5996
10927.517578 92.171 -115.4399
11006.703125 92.189 -116.3370
11086.461914 92.209 -117.2938
11166.798828 92.232 -118.3181
11247.718750 92.258 -119.4171
11329.223633 92.284 -120.5957
11411.320312 92.307 -121.8622
11494.011719 92.327 -123.2135
11577.301758 92.341 -124.6498
11661.195312 92.347 -126.1693
11745.697266 92.346 -127.7742
11830.811523 92.333 -129.4527
11916.542969 92.304 -131.1974
12002.894531 92.261 -132.9969
12089.873047 92.206 -134.8394
12177.480469 92.135 -136.7192
12265.723633 92.048 -138.6317
12354.606445 91.944 -140.5615
12444.132812 91.820 -142.4932
12534.308594 91.681 -144.4216
12625.136719 91.528 -146.3370
12716.624023 91.360 -148.2370
12808.773438 91.175 -150.1226
12901.591797 90.972 -151.9736
12995.082031 90.748 -153.7750
13089.250000 90.507 -155.5115
13184.099609 90.251 -157.1654
13279.636719 89.979 -158.7292
13375.867188 89.693 -160.1909
13472.793945 89.395 -161.5456
13570.422852 89.087 -162.7846
13668.759766 88.772 -163.9077
13767.809570 88.450 -164.9143
13867.577148 88.123 -165.7972
13968.067383 87.791 -166.5486
14069.285156 87.460 -167.1698
14171.237305 87.132 -167.6555
14273.927734 86.810 -168.0194
14377.362305 86.495 -168.2737
14481.546875 86.188 -168.4185
14586.486328 85.884 -168.4548
14692.185547 85.593 -168.3916
14798.651367 85.319 -168.2279
14905.888672 85.064 -167.9945
15013.902344 84.833 -167.7193
15122.700195 84.619 -167.4118
15232.285156 84.420 -167.0902
15342.664062 84.237 -166.7561
15453.843750 84.071 -166.4122
15565.829102 83.923 -166.0728
15678.625000 83.792 -165.7499
15792.239258 83.678 -165.4535
15906.675781 83.579 -165.1942
16021.942383 83.496 -164.9820
16138.043945 83.430 -164.8229
16254.986328 83.379 -164.7402
16372.777344 83.348 -164.7521
16491.421875 83.331 -164.8809
16610.923828 83.325 -165.1556
16731.294922 83.324 -165.5751
16852.535156 83.322 -166.1492
16974.656250 83.317 -166.8741
17097.662109 83.307 -167.7542
17221.558594 83.286 -168.7754
17346.353516 83.247 -169.9360
17472.052734 83.188 -171.2030
17598.662109 83.104 -172.5526
17726.189453 82.995 -173.9548
17854.640625 82.861 -175.3769
17984.021484 82.703 -176.8021
18114.341797 82.523 -178.2069
18245.605469 82.321 -179.5793
18377.820312 82.100 179.0889
18510.994141 81.856 177.8310
18645.132812 81.584 176.6727
18780.242188 81.291 175.6461
18916.332031 80.982 174.7935
19053.408203 80.663 174.1104
19191.476562 80.340 173.6109
19330.546875 80.017 173.2803
19470.623047 79.696 173.1171
19611.714844 79.386 173.0948
19753.830078 79.094 173.2012
19896.974609 78.825 173.3926
