* Measurement data measured by REW V5.20.13
* Source: C:\Users\kurin\Desktop\Targets and Curves\Resolve\Img\Files\empire ears odin_SPL.txt
* Format: Comma/Tab/Space delimited data
* Dated: Aug 14, 2023 3:26:00 PM
* REW Settings:
*  C-weighting compensation: Off
*  Target level: 75.0 dB
* Note: ; Measurement imported from C:\Users\kurin\Desktop\Targets and Curves\Resolve\Img\Files\empire ears odin_SPL.txt Format: Comma/Tab/Space delimited data 623 values loaded, 5 Hz to 39,792 Hz log spaced 
* Measurement: empire ears odin_SPL
* Smoothing: 1/48 octave
* Frequency Step: 1/96 octave
* Start Frequency: 5.000 Hz
*
* Freq(Hz) SPL(dB) Phase(degrees)
5.000000 92.115 -24.3240
5.036232 92.107 -24.3226
5.072727 92.099 -24.3210
5.109486 92.090 -24.3191
5.146511 92.079 -24.3170
5.183805 92.066 -24.3144
5.221369 92.051 -24.3120
5.259205 92.036 -24.3104
5.297316 92.020 -24.3090
5.335702 92.003 -24.3074
5.374367 91.986 -24.3060
5.413311 91.969 -24.3049
5.452538 91.952 -24.3040
5.492050 91.935 -24.3030
5.531847 91.918 -24.3020
5.571934 91.901 -24.3010
5.612310 91.884 -24.3000
5.652979 91.867 -24.2990
5.693943 91.850 -24.2980
5.735204 91.833 -24.2970
5.776763 91.816 -24.2960
5.818624 91.799 -24.2950
5.860788 91.782 -24.2940
5.903258 91.765 -24.2930
5.946035 91.748 -24.2920
5.989123 91.731 -24.2910
6.032523 91.714 -24.2900
6.076237 91.697 -24.2890
6.120268 91.680 -24.2880
6.164618 91.663 -24.2870
6.209289 91.646 -24.2860
6.254284 91.629 -24.2850
6.299605 91.612 -24.2840
6.345255 91.595 -24.2830
6.391235 91.578 -24.2820
6.437549 91.561 -24.2810
6.484198 91.544 -24.2800
6.531185 91.527 -24.2790
6.578513 91.510 -24.2780
6.626183 91.493 -24.2770
6.674199 91.476 -24.2760
6.722563 91.459 -24.2750
6.771278 91.442 -24.2740
6.820345 91.425 -24.2730
6.869768 91.408 -24.2720
6.919549 91.391 -24.2710
6.969691 91.374 -24.2700
7.020196 91.357 -24.2691
7.071068 91.340 -24.2680
7.122308 91.323 -24.2665
7.173919 91.306 -24.2650
7.225904 91.289 -24.2639
7.278266 91.272 -24.2630
7.331007 91.255 -24.2620
7.384131 91.238 -24.2610
7.437639 91.221 -24.2600
7.491535 91.204 -24.2590
7.545822 91.187 -24.2581
7.600502 91.170 -24.2570
7.655579 91.153 -24.2555
7.711054 91.136 -24.2540
7.766932 91.119 -24.2529
7.823214 91.102 -24.2520
7.879904 91.085 -24.2511
7.937005 91.068 -24.2500
7.994520 91.052 -24.2485
8.052452 91.035 -24.2470
8.110803 91.018 -24.2460
8.169578 91.001 -24.2450
8.228777 90.984 -24.2435
8.288406 90.967 -24.2420
8.348468 90.950 -24.2410
8.408964 90.933 -24.2400
8.469899 90.916 -24.2385
8.531276 90.899 -24.2370
8.593097 90.882 -24.2360
8.655366 90.865 -24.2350
8.718086 90.848 -24.2335
8.781260 90.831 -24.2320
8.844893 90.814 -24.2310
8.908987 90.797 -24.2300
8.973545 90.780 -24.2286
9.038571 90.763 -24.2270
9.104069 90.746 -24.2255
9.170040 90.729 -24.2240
9.236490 90.712 -24.2224
9.303422 90.695 -24.2210
9.370838 90.678 -24.2200
9.438744 90.661 -24.2190
9.507140 90.644 -24.2176
9.576033 90.627 -24.2160
9.645425 90.610 -24.2145
9.715320 90.593 -24.2130
9.785721 90.576 -24.2115
9.856632 90.559 -24.2100
9.928058 90.542 -24.2086
10.000000 90.525 -24.2070
10.072464 90.508 -24.2050
10.145453 90.491 -24.2030
10.218971 90.474 -24.2014
10.293022 90.457 -24.2000
10.367610 90.440 -24.1985
10.442738 90.423 -24.1970
10.518411 90.406 -24.1956
10.594631 90.389 -24.1940
10.671404 90.372 -24.1920
10.748734 90.355 -24.1900
10.826623 90.338 -24.1885
10.905077 90.321 -24.1870
10.984100 90.304 -24.1851
11.063695 90.287 -24.1830
11.143867 90.270 -24.1810
11.224621 90.253 -24.1790
11.305959 90.236 -24.1769
11.387886 90.219 -24.1750
11.470407 90.202 -24.1735
11.553527 90.185 -24.1720
11.637249 90.168 -24.1701
11.721577 90.151 -24.1680
11.806517 90.134 -24.1661
11.892071 90.117 -24.1640
11.978246 90.100 -24.1615
12.065045 90.083 -24.1590
12.152473 90.066 -24.1569
12.240536 90.049 -24.1550
12.329235 90.032 -24.1531
12.418578 90.015 -24.1510
12.508568 89.998 -24.1486
12.599211 89.981 -24.1460
12.690510 89.964 -24.1435
12.782471 89.947 -24.1410
12.875097 89.930 -24.1385
12.968395 89.913 -24.1360
13.062370 89.896 -24.1335
13.157025 89.879 -24.1310
13.252366 89.862 -24.1285
13.348398 89.845 -24.1260
13.445127 89.828 -24.1236
13.542556 89.811 -24.1210
13.640691 89.794 -24.1181
13.739536 89.777 -24.1150
13.839099 89.760 -24.1120
13.939383 89.743 -24.1090
14.040393 89.726 -24.1060
14.142136 89.709 -24.1030
14.244616 89.692 -24.1000
14.347837 89.675 -24.0970
14.451808 89.658 -24.0941
14.556532 89.641 -24.0910
14.662014 89.624 -24.0875
14.768262 89.607 -24.0840
14.875278 89.590 -24.0810
14.983070 89.573 -24.0780
15.091644 89.556 -24.0746
15.201005 89.539 -24.0710
15.311157 89.522 -24.0675
15.422109 89.505 -24.0640
15.533863 89.488 -24.0606
15.646428 89.471 -24.0570
15.759809 89.454 -24.0531
15.874010 89.437 -24.0490
15.989040 89.420 -24.0450
16.104904 89.403 -24.0410
16.221605 89.386 -24.0371
16.339155 89.369 -24.0330
16.457554 89.352 -24.0286
16.576813 89.335 -24.0240
16.696936 89.318 -24.0191
16.817928 89.301 -24.0140
16.939798 89.284 -24.0090
17.062551 89.267 -24.0040
17.186193 89.250 -23.9991
17.310732 89.233 -23.9940
17.436172 89.216 -23.9881
17.562521 89.199 -23.9820
17.689787 89.182 -23.9761
17.817974 89.165 -23.9700
17.947090 89.148 -23.9631
18.077143 89.131 -23.9560
18.208138 89.114 -23.9491
18.340080 89.097 -23.9420
18.472980 89.080 -23.9343
18.606844 89.063 -23.9260
18.741676 89.046 -23.9172
18.877487 89.029 -23.9080
19.014280 89.012 -23.8988
19.152065 88.995 -23.8890
19.290850 88.978 -23.8779
19.430639 88.961 -23.8660
19.571442 88.944 -23.8539
19.713264 88.927 -23.8410
19.856115 88.910 -23.8268
20.000000 88.893 -23.8110
20.144928 88.876 -23.7932
20.290907 88.859 -23.7730
20.437943 88.842 -23.7500
20.586044 88.826 -23.7240
20.735220 88.810 -23.6946
20.885475 88.794 -23.6630
21.036821 88.780 -23.6297
21.189262 88.767 -23.5970
21.342808 88.756 -23.5667
21.497467 88.746 -23.5410
21.653246 88.737 -23.5226
21.810154 88.728 -23.5120
21.968201 88.720 -23.5109
22.127390 88.712 -23.5190
22.287735 88.704 -23.5365
22.449242 88.695 -23.5630
22.611917 88.685 -23.5990
22.775772 88.674 -23.6419
22.940815 88.661 -23.6914
23.107054 88.645 -23.7419
23.274498 88.627 -23.7886
23.443153 88.607 -23.8299
23.613033 88.587 -23.8633
23.784142 88.565 -23.8880
23.956491 88.542 -23.9024
24.130091 88.519 -23.9070
24.304947 88.497 -23.9011
24.481071 88.476 -23.8870
24.658470 88.455 -23.8659
24.837156 88.435 -23.8400
25.017136 88.417 -23.8112
25.198421 88.401 -23.7820
25.381020 88.385 -23.7565
25.564941 88.370 -23.7320
25.750195 88.354 -23.7070
25.936790 88.339 -23.6820
26.124741 88.324 -23.6573
26.314051 88.310 -23.6320
26.504732 88.296 -23.6055
26.696796 88.282 -23.5770
26.890253 88.269 -23.5448
27.085112 88.257 -23.5120
27.281382 88.247 -23.4805
27.479073 88.239 -23.4520
27.678198 88.231 -23.4289
27.878765 88.224 -23.4120
28.080786 88.219 -23.4019
28.284271 88.216 -23.4020
28.489231 88.213 -23.4157
28.695675 88.211 -23.4430
28.903616 88.209 -23.4856
29.113064 88.206 -23.5419
29.324028 88.201 -23.6117
29.536524 88.195 -23.6919
29.750557 88.187 -23.7795
29.966141 88.177 -23.8749
30.183289 88.167 -23.9773
30.402010 88.155 -24.0869
30.622314 88.141 -24.2044
30.844217 88.124 -24.3269
31.067726 88.105 -24.4517
31.292856 88.083 -24.5788
31.519617 88.059 -24.7089
31.748020 88.032 -24.8368
31.978081 88.000 -24.9605
32.209808 87.963 -25.0719
32.443211 87.923 -25.1637
32.678310 87.879 -25.2319
32.915108 87.832 -25.2708
33.153625 87.783 -25.2780
33.393871 87.734 -25.2487
33.635857 87.685 -25.1841
33.879597 87.638 -25.0821
34.125103 87.593 -24.9482
34.372387 87.553 -24.7847
34.621464 87.519 -24.5993
34.872345 87.491 -24.3983
35.125042 87.468 -24.1883
35.379574 87.451 -23.9756
35.635948 87.439 -23.7662
35.894180 87.433 -23.5664
36.154285 87.432 -23.3813
36.416275 87.436 -23.2185
36.680161 87.443 -23.0772
36.945961 87.451 -22.9586
37.213688 87.461 -22.8631
37.483353 87.473 -22.7915
37.754974 87.486 -22.7441
38.028561 87.498 -22.7233
38.304131 87.509 -22.7240
38.581699 87.518 -22.7420
38.861279 87.527 -22.7769
39.142883 87.535 -22.8274
39.426529 87.542 -22.8919
39.712231 87.546 -22.9694
40.000000 87.548 -23.0579
40.289856 87.549 -23.1557
40.581814 87.548 -23.2608
40.875885 87.544 -23.3712
41.172089 87.537 -23.4848
41.470440 87.529 -23.5994
41.770950 87.520 -23.7138
42.073643 87.508 -23.8269
42.378525 87.494 -23.9368
42.685616 87.479 -24.0415
42.994934 87.462 -24.1409
43.306492 87.445 -24.2337
43.620308 87.427 -24.3209
43.936401 87.409 -24.4029
44.254780 87.390 -24.4799
44.575470 87.371 -24.5525
44.898483 87.351 -24.6199
45.223835 87.331 -24.6819
45.551544 87.310 -24.7379
45.881630 87.289 -24.7863
46.214108 87.269 -24.8299
46.548996 87.251 -24.8711
46.886307 87.234 -24.9099
47.226067 87.215 -24.9473
47.568283 87.196 -24.9829
47.912983 87.180 -25.0161
48.260181 87.164 -25.0499
48.609894 87.148 -25.0880
48.962143 87.133 -25.1279
49.316940 87.117 -25.1683
49.674313 87.102 -25.2099
50.034271 87.087 -25.2526
50.396843 87.073 -25.2979
50.762039 87.059 -25.3477
51.129883 87.045 -25.4009
51.500389 87.031 -25.4559
51.873581 87.017 -25.5159
52.249481 87.005 -25.5838
52.628101 86.992 -25.6589
53.009464 86.978 -25.7427
53.393593 86.962 -25.8308
53.780506 86.945 -25.9192
54.170223 86.927 -26.0089
54.562763 86.908 -26.1000
54.958145 86.889 -26.1919
55.356396 86.869 -26.2844
55.757530 86.847 -26.3749
56.161572 86.823 -26.4606
56.568542 86.799 -26.5419
56.978462 86.775 -26.6172
57.391350 86.752 -26.6899
57.807232 86.729 -26.7639
58.226128 86.705 -26.8359
58.648056 86.679 -26.9034
59.073048 86.653 -26.9679
59.501114 86.629 -27.0291
59.932281 86.605 -27.0899
60.366577 86.581 -27.1541
60.804020 86.556 -27.2179
61.244629 86.530 -27.2786
61.688435 86.503 -27.3369
62.135452 86.477 -27.3915
62.585712 86.452 -27.4449
63.039234 86.426 -27.4997
63.496040 86.400 -27.5539
63.956161 86.373 -27.6065
64.419617 86.346 -27.6569
64.886421 86.318 -27.7045
65.356621 86.290 -27.7489
65.830215 86.262 -27.7894
66.307251 86.234 -27.8269
66.787743 86.206 -27.8619
67.271713 86.179 -27.8949
67.759193 86.152 -27.9269
68.250206 86.125 -27.9569
68.744774 86.097 -27.9841
69.242928 86.070 -28.0100
69.744690 86.044 -28.0353
70.250084 86.019 -28.0619
70.759148 85.994 -28.0928
71.271896 85.968 -28.1259
71.788361 85.941 -28.1614
72.308571 85.914 -28.1969
72.832550 85.887 -28.2298
73.360321 85.859 -28.2619
73.891922 85.832 -28.2949
74.427376 85.804 -28.3269
74.966705 85.774 -28.3574
75.509949 85.744 -28.3840
76.057121 85.714 -28.4031
76.608261 85.684 -28.4180
77.163399 85.655 -28.4308
77.722557 85.626 -28.4410
78.285767 85.597 -28.4487
78.853058 85.568 -28.4540
79.424461 85.540 -28.4556
80.000000 85.512 -28.4570
80.579712 85.486 -28.4619
81.163628 85.460 -28.4690
81.751770 85.433 -28.4785
82.344177 85.406 -28.4890
82.940880 85.379 -28.4984
83.541901 85.353 -28.5090
84.147285 85.327 -28.5230
84.757050 85.300 -28.5390
85.371231 85.272 -28.5565
85.989868 85.244 -28.5740
86.612984 85.216 -28.5895
87.240616 85.187 -28.6040
87.872803 85.158 -28.6181
88.509560 85.129 -28.6310
89.150940 85.100 -28.6419
89.796967 85.070 -28.6510
90.447670 85.040 -28.6577
91.103088 85.011 -28.6640
91.763260 84.982 -28.6721
92.428215 84.953 -28.6810
93.097992 84.922 -28.6902
93.772614 84.891 -28.7000
94.452133 84.861 -28.7111
95.136566 84.830 -28.7210
95.825966 84.797 -28.7286
96.520363 84.762 -28.7300
97.219788 84.727 -28.7197
97.924286 84.692 -28.7010
98.633881 84.658 -28.6757
99.348625 84.625 -28.6441
100.068542 84.591 -28.6062
100.793686 84.559 -28.5651
101.524078 84.530 -28.5222
102.259766 84.502 -28.4821
103.000778 84.476 -28.4506
103.747162 84.449 -28.4250
104.498962 84.421 -28.4058
105.256203 84.392 -28.3900
106.018929 84.363 -28.3755
106.787186 84.333 -28.3610
107.561012 84.301 -28.3453
108.340446 84.269 -28.3260
109.125526 84.236 -28.2994
109.916290 84.204 -28.2681
110.712791 84.173 -28.2329
111.515060 84.142 -28.1961
112.323143 84.112 -28.1603
113.137085 84.082 -28.1251
113.956924 84.052 -28.0906
114.782700 84.022 -28.0581
115.614464 83.992 -28.0293
116.452255 83.962 -28.0021
117.296112 83.931 -27.9759
118.146095 83.898 -27.9481
119.002228 83.864 -27.9160
119.864563 83.830 -27.8791
120.733154 83.796 -27.8354
121.608040 83.762 -27.7861
122.489258 83.728 -27.7316
123.376869 83.695 -27.6731
124.270905 83.662 -27.6120
125.171425 83.630 -27.5491
126.078468 83.599 -27.4851
126.992081 83.568 -27.4221
127.912323 83.539 -27.3631
128.839233 83.509 -27.3071
129.772842 83.478 -27.2547
130.713242 83.447 -27.2041
131.660431 83.416 -27.1541
132.614502 83.384 -27.1041
133.575485 83.351 -27.0540
134.543427 83.317 -27.0021
135.518387 83.282 -26.9472
136.500412 83.247 -26.8881
137.489548 83.212 -26.8227
138.485855 83.176 -26.7522
139.489380 83.140 -26.6771
140.500168 83.103 -26.5972
141.518295 83.067 -26.5119
142.543793 83.031 -26.4222
143.576721 82.996 -26.3290
144.617142 82.960 -26.2322
145.665100 82.924 -26.1327
146.720642 82.888 -26.0293
147.783844 82.852 -25.9211
148.854752 82.816 -25.8083
149.933411 82.781 -25.6906
151.019897 82.745 -25.5683
152.114243 82.710 -25.4422
153.216522 82.674 -25.3114
154.326797 82.638 -25.1760
155.445114 82.602 -25.0343
156.571533 82.566 -24.8847
157.706116 82.531 -24.7274
158.848923 82.496 -24.5617
160.000000 82.461 -24.3884
161.159424 82.428 -24.2075
162.327255 82.396 -24.0204
163.503540 82.365 -23.8292
164.688354 82.335 -23.6324
165.881760 82.306 -23.4289
167.083801 82.278 -23.2206
168.294571 82.253 -23.0086
169.514099 82.229 -22.7945
170.742462 82.206 -22.5813
171.979736 82.185 -22.3666
173.225967 82.164 -22.1480
174.481232 82.145 -21.9285
175.745605 82.130 -21.7090
177.019119 82.117 -21.4935
178.301880 82.107 -21.2858
179.593933 82.098 -21.0875
180.895340 82.091 -20.9003
182.206177 82.086 -20.7274
183.526520 82.083 -20.5725
184.856430 82.080 -20.4353
186.195984 82.077 -20.3179
187.545227 82.073 -20.2172
188.904266 82.068 -20.1327
190.273132 82.060 -20.0592
191.651932 82.049 -19.9921
193.040726 82.036 -19.9292
194.439575 82.022 -19.8665
195.848572 82.006 -19.8042
197.267761 81.989 -19.7415
198.697250 81.971 -19.6772
200.137085 81.951 -19.6092
201.587372 81.930 -19.5382
203.048157 81.909 -19.4636
204.519531 81.888 -19.3862
206.001556 81.866 -19.3070
207.494324 81.843 -19.2242
208.997925 81.819 -19.1360
210.512405 81.794 -19.0432
212.037857 81.769 -18.9467
213.574371 81.744 -18.8443
215.122025 81.718 -18.7330
216.680893 81.692 -18.6153
218.251053 81.667 -18.4918
219.832581 81.643 -18.3654
221.425583 81.619 -18.2404
223.030121 81.595 -18.1133
224.646286 81.570 -17.9818
226.274170 81.544 -17.8464
227.913849 81.520 -17.7056
229.565399 81.497 -17.5624
231.228928 81.473 -17.4205
232.904510 81.449 -17.2754
234.592224 81.423 -17.1233
236.292191 81.398 -16.9654
238.004456 81.375 -16.8013
239.729126 81.353 -16.6335
241.466309 81.330 -16.4654
243.216080 81.307 -16.2945
244.978516 81.285 -16.1184
246.753738 81.264 -15.9395
248.541809 81.244 -15.7592
250.342850 81.224 -15.5785
252.156937 81.205 -15.3994
253.984161 81.187 -15.2205
255.824646 81.168 -15.0408
257.678467 81.150 -14.8605
259.545685 81.132 -14.6795
261.426483 81.114 -14.4975
263.320862 81.096 -14.3139
265.229004 81.078 -14.1285
267.150970 81.061 -13.9403
269.086853 81.045 -13.7515
271.036774 81.030 -13.5639
273.000824 81.015 -13.3776
274.979095 81.000 -13.1939
276.971710 80.985 -13.0106
278.978760 80.969 -12.8253
281.000336 80.953 -12.6395
283.036591 80.939 -12.4540
285.087585 80.925 -12.2676
287.153442 80.909 -12.0792
289.234283 80.893 -11.8885
291.330200 80.879 -11.6942
293.441284 80.865 -11.4985
295.567688 80.851 -11.3040
297.709503 80.838 -11.1085
299.866821 80.824 -10.9101
302.039795 80.811 -10.7106
304.228485 80.799 -10.5122
306.433044 80.787 -10.3126
308.653595 80.774 -10.1104
310.890228 80.760 -9.9046
313.143066 80.748 -9.6925
315.412231 80.736 -9.4776
317.697845 80.726 -9.2619
320.000000 80.717 -9.0466
322.318848 80.708 -8.8335
324.654510 80.700 -8.6227
327.007080 80.693 -8.4150
329.376709 80.686 -8.2096
331.763519 80.679 -8.0062
334.167603 80.671 -7.8036
336.589142 80.663 -7.6007
339.028198 80.656 -7.3976
341.484924 80.649 -7.1939
343.959473 80.642 -6.9896
346.451935 80.635 -6.7839
348.962463 80.629 -6.5786
351.491211 80.624 -6.3746
354.038239 80.619 -6.1726
356.603760 80.614 -5.9743
359.187866 80.608 -5.7766
361.790680 80.601 -5.5772
364.412354 80.594 -5.3756
367.053040 80.587 -5.1707
369.712860 80.580 -4.9617
372.391968 80.573 -4.7471
375.090454 80.566 -4.5276
377.808533 80.560 -4.3026
380.546265 80.555 -4.0747
383.303864 80.552 -3.8459
386.081451 80.550 -3.6177
388.879150 80.549 -3.3924
391.697144 80.548 -3.1697
394.535522 80.547 -2.9499
397.394501 80.547 -2.7326
400.274170 80.547 -2.5178
403.174744 80.547 -2.3047
406.096313 80.547 -2.0928
409.039062 80.547 -1.8817
412.003113 80.547 -1.6707
414.988647 80.547 -1.4597
417.995850 80.547 -1.2484
421.024811 80.547 -1.0367
424.075714 80.547 -0.8244
427.148743 80.547 -0.6107
430.244049 80.547 -0.3949
433.361786 80.547 -0.1767
436.502106 80.547 0.0441
439.665161 80.547 0.2683
442.851166 80.548 0.4968
446.060242 80.549 0.7293
449.292572 80.550 0.9660
452.548340 80.553 1.2053
455.827698 80.557 1.4460
459.130798 80.563 1.6862
462.457855 80.570 1.9231
465.809021 80.577 2.1573
469.184448 80.585 2.3888
472.584381 80.593 2.6173
476.008911 80.602 2.8427
479.458252 80.611 3.0643
482.932617 80.620 3.2813
486.432159 80.630 3.4943
489.957031 80.639 3.7028
493.507477 80.648 3.9094
497.083618 80.656 4.1166
500.685699 80.664 4.3243
504.313873 80.672 4.5328
507.968323 80.680 4.7433
511.649292 80.686 4.9569
515.356934 80.693 5.1743
519.091370 80.701 5.3974
522.852966 80.709 5.6242
526.641724 80.718 5.8539
530.458008 80.729 6.0842
534.301941 80.741 6.3137
538.173706 80.753 6.5402
542.073547 80.766 6.7613
546.001648 80.780 6.9773
549.958191 80.793 7.1861
553.943420 80.806 7.3923
557.957520 80.817 7.5996
562.000671 80.828 7.8083
566.073181 80.839 8.0202
570.175171 80.849 8.2353
574.306885 80.859 8.4531
578.468567 80.869 8.6762
582.660400 80.879 8.9083
586.882568 80.889 9.1462
591.135376 80.901 9.3883
595.419006 80.914 9.6332
599.733643 80.928 9.8780
604.079590 80.942 10.1241
608.456970 80.957 10.3725
612.866089 80.972 10.6222
617.307190 80.988 10.8730
621.780457 81.005 11.1242
626.286133 81.023 11.3747
630.824463 81.041 11.6252
635.395691 81.059 11.8753
640.000000 81.078 12.1261
644.637695 81.097 12.3785
649.309021 81.117 12.6321
654.014160 81.137 12.8869
658.753418 81.157 13.1431
663.527039 81.178 13.4010
668.335205 81.199 13.6611
673.178284 81.221 13.9242
678.056396 81.243 14.1901
682.969849 81.266 14.4588
687.918945 81.289 14.7310
692.903870 81.313 15.0078
697.924927 81.338 15.2880
702.982422 81.365 15.5715
708.076477 81.393 15.8560
713.207520 81.423 16.1394
718.375732 81.454 16.4210
723.581360 81.486 16.6995
728.824707 81.519 16.9750
734.106079 81.553 17.2470
739.425720 81.587 17.5160
744.783936 81.622 17.7820
750.180908 81.657 18.0461
755.617065 81.691 18.3085
761.092529 81.726 18.5720
766.607727 81.760 18.8396
772.162903 81.794 19.1110
777.758301 81.829 19.3873
783.394287 81.866 19.6680
789.071045 81.902 19.9530
794.789001 81.940 20.2430
800.548340 81.979 20.5386
806.349487 82.019 20.8389
812.192627 82.060 21.1428
818.078125 82.103 21.4509
824.006226 82.147 21.7637
829.977295 82.192 22.0799
835.991699 82.239 22.3980
842.049622 82.289 22.7178
848.151428 82.340 23.0375
854.297485 82.392 23.3598
860.488098 82.444 23.6872
866.723572 82.499 24.0188
873.004211 82.556 24.3544
879.330322 82.616 24.6938
885.702332 82.676 25.0357
892.120483 82.739 25.3827
898.585144 82.804 25.7393
905.096680 82.873 26.0997
911.655396 82.947 26.4607
918.261597 83.026 26.8197
924.915710 83.107 27.1733
931.618042 83.193 27.5208
938.368896 83.283 27.8618
945.168762 83.377 28.1918
952.017822 83.475 28.5052
958.916504 83.577 28.8039
965.865234 83.680 29.0885
972.864319 83.787 29.3570
979.914062 83.899 29.6086
987.014954 84.015 29.8402
994.167236 84.133 30.0496
1001.371399 84.255 30.2334
1008.627747 84.382 30.3886
1015.936646 84.511 30.5116
1023.298584 84.643 30.5962
1030.713867 84.775 30.6459
1038.182739 84.906 30.6618
1045.705933 85.038 30.6441
1053.283447 85.171 30.5936
1060.916016 85.303 30.5104
1068.603882 85.434 30.3926
1076.347412 85.563 30.2476
1084.147095 85.690 30.0834
1092.003296 85.815 29.8967
1099.916382 85.941 29.6876
1107.886841 86.066 29.4540
1115.915039 86.189 29.1917
1124.001343 86.309 28.9071
1132.146362 86.426 28.6053
1140.350342 86.541 28.2863
1148.613770 86.655 27.9514
1156.937134 86.767 27.6015
1165.320801 86.875 27.2360
1173.765137 86.982 26.8597
1182.270752 87.084 26.4773
1190.838013 87.186 26.0886
1199.467285 87.287 25.6955
1208.159180 87.387 25.2956
1216.913940 87.486 24.8864
1225.732178 87.584 24.4695
1234.614380 87.680 24.0457
1243.560913 87.776 23.6156
1252.572266 87.870 23.1825
1261.648926 87.966 22.7398
1270.791382 88.063 22.2820
1280.000000 88.161 21.8089
1289.275391 88.255 21.3170
1298.618042 88.348 20.8101
1308.028320 88.439 20.2914
1317.506836 88.529 19.7593
1327.054077 88.617 19.2130
1336.670410 88.704 18.6542
1346.356567 88.787 18.0836
1356.112793 88.869 17.5042
1365.939697 88.948 16.9185
1375.837891 89.025 16.3285
1385.807739 89.099 15.7375
1395.849854 89.173 15.1434
1405.964844 89.246 14.5453
1416.152954 89.318 13.9422
1426.415039 89.388 13.3326
1436.751465 89.458 12.7174
1447.162720 89.526 12.0976
1457.649414 89.594 11.4715
1468.212158 89.660 10.8374
1478.851440 89.726 10.1955
1489.567871 89.790 9.5453
1500.361816 89.853 8.8875
1511.234131 89.914 8.2222
1522.185059 89.973 7.5500
1533.215454 90.030 6.8717
1544.325806 90.086 6.1880
1555.516602 90.140 5.5003
1566.788574 90.193 4.8079
1578.142090 90.244 4.1106
1589.578003 90.294 3.4090
1601.096680 90.342 2.7036
1612.698975 90.388 1.9940
1624.385254 90.433 1.2787
1636.156250 90.477 0.5602
1648.012451 90.517 -0.1601
1659.954590 90.555 -0.8813
1671.983398 90.592 -1.6014
1684.099243 90.629 -2.3220
1696.302856 90.664 -3.0447
1708.594971 90.697 -3.7677
1720.976196 90.728 -4.4897
1733.447144 90.758 -5.2109
1746.008423 90.787 -5.9304
1758.660645 90.815 -6.6500
1771.404663 90.842 -7.3717
1784.240967 90.868 -8.0940
1797.170288 90.892 -8.8169
1810.193359 90.914 -9.5381
1823.310791 90.935 -10.2551
1836.523193 90.955 -10.9692
1849.831421 90.975 -11.6806
1863.236084 90.994 -12.3898
1876.737793 91.011 -13.0974
1890.337524 91.028 -13.8029
1904.035645 91.045 -14.5060
1917.833008 91.061 -15.2072
1931.730469 91.077 -15.9069
1945.728638 91.092 -16.6060
1959.828125 91.108 -17.3050
1974.029907 91.123 -18.0050
1988.334473 91.138 -18.7081
2002.742798 91.152 -19.4122
2017.255493 91.165 -20.1158
2031.873291 91.177 -20.8192
2046.597168 91.190 -21.5212
2061.427734 91.204 -22.2249
2076.365479 91.217 -22.9342
2091.411865 91.230 -23.6460
2106.566895 91.241 -24.3577
2121.832031 91.252 -25.0710
2137.207764 91.265 -25.7858
2152.694824 91.278 -26.5051
2168.294189 91.291 -27.2328
2184.006592 91.303 -27.9666
2199.832764 91.314 -28.7051
2215.773682 91.325 -29.4499
2231.830078 91.337 -30.2008
2248.002686 91.350 -30.9618
2264.292725 91.362 -31.7376
2280.700684 91.374 -32.5256
2297.227539 91.384 -33.3246
2313.874268 91.392 -34.1347
2330.641602 91.400 -34.9550
2347.530273 91.406 -35.7864
2364.541504 91.410 -36.6310
2381.676025 91.412 -37.4841
2398.934570 91.410 -38.3424
2416.318359 91.406 -39.2041
2433.827881 91.400 -40.0660
2451.464355 91.392 -40.9294
2469.228760 91.383 -41.7951
2487.121826 91.373 -42.6623
2505.144531 91.360 -43.5309
2523.297852 91.345 -44.3990
2541.582764 91.328 -45.2639
2560.000000 91.311 -46.1282
2578.550781 91.294 -46.9924
2597.236084 91.277 -47.8600
2616.056641 91.258 -48.7343
2635.013672 91.239 -49.6153
2654.108154 91.219 -50.5029
2673.340820 91.199 -51.4001
2692.713135 91.178 -52.3091
2712.225586 91.155 -53.2316
2731.879395 91.130 -54.1704
2751.675781 91.103 -55.1246
2771.615479 91.073 -56.0952
2791.699707 91.039 -57.0796
2811.929688 91.001 -58.0766
2832.305908 90.958 -59.0833
2852.830078 90.910 -60.0968
2873.502930 90.856 -61.1146
2894.325439 90.797 -62.1346
2915.298828 90.731 -63.1514
2936.424316 90.658 -64.1615
2957.702881 90.578 -65.1567
2979.135742 90.491 -66.1283
3000.723633 90.397 -67.0739
3022.468262 90.300 -67.9890
3044.370117 90.196 -68.8710
3066.430908 90.087 -69.7177
3088.651611 89.974 -70.5245
3111.033203 89.856 -71.2861
3133.577148 89.737 -72.0027
3156.284180 89.615 -72.6733
3179.156006 89.491 -73.2952
3202.193359 89.365 -73.8656
3225.397949 89.238 -74.3827
3248.770508 89.111 -74.8438
3272.312500 88.985 -75.2483
3296.024902 88.860 -75.5939
3319.909180 88.739 -75.8838
3343.966797 88.622 -76.1191
3368.198486 88.512 -76.3032
3392.605713 88.406 -76.4382
3417.189941 88.308 -76.5297
3441.952393 88.219 -76.5816
3466.894287 88.139 -76.6010
3492.016846 88.069 -76.5943
3517.321289 88.008 -76.5662
3542.809326 87.956 -76.5210
3568.481934 87.914 -76.4653
3594.340576 87.885 -76.4038
3620.386719 87.867 -76.3463
3646.621582 87.859 -76.3026
3673.046387 87.862 -76.2761
3699.662842 87.875 -76.2720
3726.472168 87.897 -76.2948
3753.475586 87.929 -76.3493
3780.675049 87.970 -76.4405
3808.071289 88.020 -76.5743
3835.666016 88.079 -76.7530
3863.460938 88.144 -76.9800
3891.457275 88.217 -77.2586
3919.656250 88.298 -77.5893
3948.059814 88.387 -77.9830
3976.668945 88.484 -78.4480
4005.485596 88.588 -78.9921
4034.510986 88.699 -79.6242
4063.746582 88.813 -80.3493
4093.194336 88.932 -81.1723
4122.855469 89.053 -82.1032
4152.730957 89.177 -83.1526
4182.823730 89.299 -84.3231
4213.133789 89.416 -85.6228
4243.664062 89.526 -87.0460
4274.415527 89.627 -88.5897
4305.389648 89.718 -90.2536
4336.588379 89.797 -92.0390
4368.013184 89.861 -93.9367
4399.665527 89.905 -95.9435
4431.547363 89.928 -98.0425
4463.660156 89.928 -100.2214
4496.005371 89.904 -102.4636
4528.585449 89.854 -104.7577
4561.401367 89.774 -107.0759
4594.455078 89.664 -109.3967
4627.748535 89.522 -111.6899
4661.283203 89.348 -113.9278
4695.060547 89.144 -116.0807
4729.083008 88.909 -118.1199
4763.352051 88.646 -120.0154
4797.869141 88.355 -121.7351
4832.636719 88.042 -123.2569
4867.655762 87.709 -124.5515
4902.928711 87.363 -125.6074
4938.457520 87.006 -126.4024
4974.243652 86.648 -126.9401
5010.289062 86.296 -127.2064
5046.595703 85.960 -127.2334
5083.165527 85.648 -127.0325
5120.000000 85.367 -126.6512
5157.101562 85.125 -126.1228
5194.472168 84.925 -125.5032
5232.113281 84.773 -124.8407
5270.027344 84.665 -124.1921
5308.216309 84.606 -123.6184
5346.681641 84.583 -123.1559
5385.426270 84.592 -122.8591
5424.451172 84.623 -122.7352
5463.758789 84.667 -122.8127
5503.351562 84.718 -123.0812
5543.230957 84.767 -123.5483
5583.399414 84.809 -124.1875
5623.859375 84.836 -124.9856
5664.611816 84.848 -125.9092
5705.660156 84.839 -126.9280
5747.005859 84.811 -128.0182
5788.650879 84.765 -129.1528
5830.597656 84.700 -130.3110
5872.848633 84.615 -131.4695
5915.405762 84.511 -132.6092
5958.271484 84.390 -133.7058
6001.447266 84.255 -134.7518
6044.936523 84.109 -135.7336
6088.740234 83.952 -136.6446
6132.861816 83.785 -137.4755
6177.303223 83.611 -138.2205
6222.066406 83.432 -138.8692
6267.154297 83.252 -139.4254
6312.568359 83.072 -139.8872
6358.312012 82.896 -140.2613
6404.386719 82.725 -140.5505
6450.795898 82.562 -140.7651
6497.541016 82.408 -140.9121
6544.625000 82.264 -141.0037
6592.049805 82.132 -141.0504
6639.818359 82.013 -141.0640
6687.933594 81.906 -141.0563
6736.396973 81.812 -141.0371
6785.211426 81.731 -141.0178
6834.379883 81.661 -141.0060
6883.904785 81.603 -141.0106
6933.788574 81.555 -141.0388
6984.033691 81.518 -141.1002
7034.642578 81.489 -141.1964
7085.618652 81.466 -141.3318
7136.963867 81.449 -141.5070
7188.681152 81.439 -141.7244
7240.773438 81.433 -141.9836
7293.243164 81.431 -142.2855
7346.092773 81.432 -142.6292
7399.325684 81.437 -143.0137
7452.944336 81.444 -143.4398
7506.951172 81.454 -143.9076
7561.350098 81.466 -144.4183
7616.142578 81.480 -144.9718
7671.332031 81.496 -145.5708
7726.921875 81.514 -146.2167
7782.914551 81.534 -146.9123
7839.312500 81.553 -147.6624
7896.119629 81.571 -148.4626
7953.337891 81.586 -149.3105
8010.971191 81.599 -150.2042
8069.021973 81.610 -151.1424
8127.493164 81.617 -152.1217
8186.388672 81.619 -153.1399
8245.710938 81.617 -154.1914
8305.461914 81.610 -155.2710
8365.647461 81.598 -156.3751
8426.267578 81.582 -157.4998
8487.328125 81.560 -158.6400
8548.831055 81.533 -159.7901
8610.779297 81.502 -160.9469
8673.176758 81.468 -162.1046
8736.026367 81.431 -163.2647
8799.331055 81.393 -164.4260
8863.094727 81.354 -165.5908
8927.320312 81.315 -166.7598
8992.010742 81.276 -167.9377
9057.170898 81.239 -169.1279
9122.802734 81.202 -170.3366
9188.910156 81.168 -171.5692
9255.497070 81.135 -172.8321
9322.566406 81.103 -174.1328
9390.121094 81.070 -175.4728
9458.166016 81.036 -176.8552
9526.704102 81.000 -178.2823
9595.738281 80.963 -179.7572
9665.273438 80.923 178.7182
9735.311523 80.878 177.1402
9805.857422 80.826 175.5120
9876.915039 80.769 173.8337
9948.487305 80.703 172.1104
10020.578125 80.628 170.3445
10093.191406 80.541 168.5448
10166.331055 80.444 166.7186
10240.000000 80.335 164.8728
10314.203125 80.213 163.0131
10388.944336 80.079 161.1498
10464.226562 79.931 159.2930
10540.054688 79.771 157.4499
10616.432617 79.598 155.6280
10693.363281 79.412 153.8365
10770.852539 79.214 152.0831
10848.902344 79.004 150.3781
10927.517578 78.782 148.7314
11006.703125 78.550 147.1523
11086.461914 78.308 145.6513
11166.798828 78.058 144.2346
11247.718750 77.801 142.9122
11329.223633 77.540 141.6831
11411.320312 77.279 140.5510
11494.011719 77.017 139.5114
11577.301758 76.758 138.5623
11661.195312 76.502 137.6996
11745.697266 76.253 136.9206
11830.811523 76.011 136.2186
11916.542969 75.779 135.5884
12002.894531 75.556 135.0220
12089.873047 75.345 134.5137
12177.480469 75.148 134.0515
12265.723633 74.967 133.6262
12354.606445 74.801 133.2241
12444.132812 74.651 132.8347
12534.308594 74.520 132.4392
12625.136719 74.409 132.0215
12716.624023 74.317 131.5626
12808.773438 74.243 131.0419
12901.591797 74.185 130.4476
12995.082031 74.141 129.7640
13089.250000 74.109 128.9822
13184.099609 74.087 128.0907
13279.636719 74.074 127.0825
13375.867188 74.067 125.9479
13472.793945 74.064 124.6836
13570.422852 74.061 123.2816
13668.759766 74.056 121.7455
13767.809570 74.047 120.0758
13867.577148 74.031 118.2748
13968.067383 74.008 116.3433
14069.285156 73.974 114.2870
14171.237305 73.928 112.1089
14273.927734 73.867 109.8194
14377.362305 73.790 107.4264
14481.546875 73.695 104.9401
14586.486328 73.580 102.3690
14692.185547 73.446 99.7256
14798.651367 73.289 97.0205
14905.888672 73.109 94.2691
15013.902344 72.906 91.4852
15122.700195 72.678 88.6829
15232.285156 72.426 85.8767
15342.664062 72.149 83.0799
15453.843750 71.846 80.3055
15565.829102 71.519 77.5697
15678.625000 71.167 74.8869
15792.239258 70.790 72.2749
15906.675781 70.389 69.7524
16021.942383 69.965 67.3308
16138.043945 69.522 65.0236
16254.986328 69.058 62.8433
16372.777344 68.574 60.8036
16491.421875 68.073 58.9140
16610.923828 67.558 57.1895
16731.294922 67.033 55.6266
16852.535156 66.501 54.2284
16974.656250 65.964 52.9901
17097.662109 65.425 51.9107
17221.558594 64.886 50.9822
17346.353516 64.350 50.1985
17472.052734 63.818 49.5515
17598.662109 63.293 49.0331
17726.189453 62.775 48.6370
17854.640625 62.264 48.3573
17984.021484 61.764 48.1847
18114.341797 61.276 48.1091
18245.605469 60.799 48.1266
18377.820312 60.330 48.2317
18510.994141 59.874 48.4197
18645.132812 59.432 48.6885
18780.242188 59.006 49.0260
18916.332031 58.595 49.4232
19053.408203 58.200 49.8674
19191.476562 57.823 50.3490
19330.546875 57.465 50.8503
19470.623047 57.126 51.3553
19611.714844 56.806 51.8483
19753.830078 56.504 52.3104
19896.974609 56.219 52.7346
