* Measurement data measured by REW V5.20.13
* Source: C:\Users\kurin\Desktop\Targets and Curves\Resolve\Img\Files\Moondrop Illumination_SPL.txt
* Format: Comma/Tab/Space delimited data
* Dated: Aug 14, 2023 6:20:46 PM
* REW Settings:
*  C-weighting compensation: Off
*  Target level: 75.0 dB
* Note: ; Measurement imported from C:\Users\kurin\Desktop\Targets and Curves\Resolve\Img\Files\Moondrop Illumination_SPL.txt Format: Comma/Tab/Space delimited data 623 values loaded, 5 Hz to 39,792 Hz log spaced 
* Measurement: Moondrop Illumination_SPL
* Smoothing: 1/48 octave
* Frequency Step: 1/96 octave
* Start Frequency: 5.000 Hz
*
* Freq(Hz) SPL(dB) Phase(degrees)
5.000000 85.825 8.9450
5.036232 85.828 8.9421
5.072727 85.831 8.9390
5.109486 85.835 8.9357
5.146511 85.839 8.9320
5.183805 85.844 8.9277
5.221369 85.850 8.9230
5.259205 85.856 8.9181
5.297316 85.862 8.9130
5.335702 85.868 8.9080
5.374367 85.875 8.9030
5.413311 85.882 8.8981
5.452538 85.889 8.8930
5.492050 85.896 8.8875
5.531847 85.902 8.8820
5.571934 85.909 8.8770
5.612310 85.916 8.8720
5.652979 85.923 8.8666
5.693943 85.929 8.8610
5.735204 85.935 8.8555
5.776763 85.942 8.8500
5.818624 85.949 8.8445
5.860788 85.956 8.8390
5.903258 85.963 8.8335
5.946035 85.969 8.8280
5.989123 85.976 8.8226
6.032523 85.983 8.8170
6.076237 85.990 8.8110
6.120268 85.996 8.8050
6.164618 86.002 8.7995
6.209289 86.009 8.7940
6.254284 86.016 8.7881
6.299605 86.023 8.7820
6.345255 86.030 8.7760
6.391235 86.036 8.7700
6.437549 86.042 8.7640
6.484198 86.049 8.7580
6.531185 86.056 8.7520
6.578513 86.063 8.7460
6.626183 86.069 8.7401
6.674199 86.076 8.7340
6.722563 86.083 8.7275
6.771278 86.090 8.7210
6.820345 86.097 8.7150
6.869768 86.103 8.7090
6.919549 86.109 8.7026
6.969691 86.116 8.6960
7.020196 86.123 8.6895
7.071068 86.130 8.6830
7.122308 86.137 8.6766
7.173919 86.143 8.6700
7.225904 86.149 8.6630
7.278266 86.156 8.6560
7.331007 86.163 8.6495
7.384131 86.170 8.6430
7.437639 86.176 8.6361
7.491535 86.183 8.6290
7.545822 86.190 8.6220
7.600502 86.197 8.6150
7.655579 86.204 8.6080
7.711054 86.210 8.6010
7.766932 86.216 8.5940
7.823214 86.223 8.5870
7.879904 86.230 8.5801
7.937005 86.237 8.5730
7.994520 86.243 8.5656
8.052452 86.250 8.5580
8.110803 86.257 8.5505
8.169578 86.264 8.5430
8.228777 86.271 8.5355
8.288406 86.277 8.5280
8.348468 86.283 8.5206
8.408964 86.290 8.5130
8.469899 86.297 8.5050
8.531276 86.304 8.4970
8.593097 86.311 8.4895
8.655366 86.317 8.4820
8.718086 86.323 8.4741
8.781260 86.330 8.4660
8.844893 86.337 8.4580
8.908987 86.344 8.4500
8.973545 86.351 8.4421
9.038571 86.357 8.4340
9.104069 86.364 8.4255
9.170040 86.371 8.4170
9.236490 86.378 8.4090
9.303422 86.384 8.4010
9.370838 86.390 8.3926
9.438744 86.397 8.3840
9.507140 86.404 8.3756
9.576033 86.411 8.3670
9.645425 86.418 8.3580
9.715320 86.424 8.3490
9.785721 86.430 8.3405
9.856632 86.437 8.3320
9.928058 86.444 8.3231
10.000000 86.451 8.3140
10.072464 86.457 8.3050
10.145453 86.464 8.2960
10.218971 86.471 8.2871
10.293022 86.478 8.2780
10.367610 86.485 8.2685
10.442738 86.491 8.2590
10.518411 86.497 8.2500
10.594631 86.504 8.2410
10.671404 86.511 8.2316
10.748734 86.518 8.2220
10.826623 86.524 8.2126
10.905077 86.531 8.2030
10.984100 86.538 8.1930
11.063695 86.545 8.1830
11.143867 86.552 8.1735
11.224621 86.558 8.1640
11.305959 86.564 8.1541
11.387886 86.571 8.1440
11.470407 86.578 8.1340
11.553527 86.585 8.1240
11.637249 86.592 8.1140
11.721577 86.598 8.1040
11.806517 86.604 8.0941
11.892071 86.611 8.0840
11.978246 86.618 8.0736
12.065045 86.625 8.0630
12.152473 86.632 8.0525
12.240536 86.638 8.0420
12.329235 86.645 8.0315
12.418578 86.652 8.0210
12.508568 86.659 8.0106
12.599211 86.665 8.0000
12.690510 86.671 7.9890
12.782471 86.678 7.9780
12.875097 86.685 7.9675
12.968395 86.692 7.9570
13.062370 86.699 7.9461
13.157025 86.705 7.9350
13.252366 86.712 7.9240
13.348398 86.719 7.9130
13.445127 86.726 7.9021
13.542556 86.732 7.8910
13.640691 86.738 7.8795
13.739536 86.745 7.8680
13.839099 86.752 7.8570
13.939383 86.759 7.8460
14.040393 86.766 7.8345
14.142136 86.772 7.8230
14.244616 86.778 7.8120
14.347837 86.785 7.8010
14.451808 86.792 7.7896
14.556532 86.799 7.7780
14.662014 86.805 7.7665
14.768262 86.812 7.7550
14.875278 86.819 7.7435
14.983070 86.826 7.7320
15.091644 86.833 7.7205
15.201005 86.839 7.7090
15.311157 86.845 7.6976
15.422109 86.852 7.6860
15.533863 86.859 7.6740
15.646428 86.866 7.6620
15.759809 86.873 7.6504
15.874010 86.879 7.6390
15.989040 86.885 7.6280
16.104904 86.892 7.6170
16.221605 86.899 7.6055
16.339155 86.906 7.5940
16.457554 86.912 7.5829
16.576813 86.919 7.5720
16.696936 86.926 7.5609
16.817928 86.933 7.5500
16.939798 86.940 7.5399
17.062551 86.946 7.5300
17.186193 86.952 7.5199
17.310732 86.959 7.5100
17.436172 86.966 7.5003
17.562521 86.973 7.4910
17.689787 86.979 7.4823
17.817974 86.986 7.4740
17.947090 86.993 7.4658
18.077143 87.000 7.4580
18.208138 87.007 7.4511
18.340080 87.013 7.4450
18.472980 87.019 7.4396
18.606844 87.026 7.4350
18.741676 87.033 7.4314
18.877487 87.040 7.4290
19.014280 87.047 7.4281
19.152065 87.053 7.4290
19.290850 87.059 7.4321
19.430639 87.066 7.4380
19.571442 87.073 7.4474
19.713264 87.080 7.4610
19.856115 87.087 7.4797
20.000000 87.095 7.5040
20.144928 87.103 7.5357
20.290907 87.113 7.5720
20.437943 87.126 7.6123
20.586044 87.142 7.6520
20.735220 87.160 7.6875
20.885475 87.180 7.7140
21.036821 87.203 7.7269
21.189262 87.229 7.7220
21.342808 87.256 7.6928
21.497467 87.283 7.6421
21.653246 87.308 7.5685
21.810154 87.330 7.4781
21.968201 87.349 7.3748
22.127390 87.366 7.2631
22.287735 87.380 7.1475
22.449242 87.391 7.0331
22.611917 87.398 6.9272
22.775772 87.405 6.8271
22.940815 87.413 6.7350
23.107054 87.422 6.6441
23.274498 87.431 6.5483
23.443153 87.439 6.4481
23.613033 87.446 6.3409
23.784142 87.451 6.2311
23.956491 87.454 6.1216
24.130091 87.454 6.0151
24.304947 87.452 5.9139
24.481071 87.448 5.8221
24.658470 87.441 5.7438
24.837156 87.433 5.6821
25.017136 87.424 5.6425
25.198421 87.416 5.6210
25.381020 87.410 5.6169
25.564941 87.406 5.6260
25.750195 87.404 5.6442
25.936790 87.404 5.6700
26.124741 87.406 5.7018
26.314051 87.411 5.7360
26.504732 87.419 5.7691
26.696796 87.429 5.7980
26.890253 87.441 5.8180
27.085112 87.454 5.8300
27.281382 87.468 5.8333
27.479073 87.483 5.8280
27.678198 87.499 5.8152
27.878765 87.516 5.7920
28.080786 87.534 5.7557
28.284271 87.552 5.7071
28.489231 87.568 5.6448
28.695675 87.584 5.5721
28.903616 87.599 5.4917
29.113064 87.613 5.4031
29.324028 87.626 5.3067
29.536524 87.638 5.2031
29.750557 87.648 5.0914
29.966141 87.656 4.9771
30.183289 87.661 4.8653
30.402010 87.664 4.7571
30.622314 87.666 4.6559
30.844217 87.667 4.5611
31.067726 87.667 4.4736
31.292856 87.667 4.3921
31.519617 87.667 4.3162
31.748020 87.667 4.2451
31.978081 87.667 4.1779
32.209808 87.667 4.1141
32.443211 87.667 4.0527
32.678310 87.667 3.9941
32.915108 87.667 3.9383
33.153625 87.667 3.8851
33.393871 87.667 3.8339
33.635857 87.667 3.7851
33.879597 87.667 3.7384
34.125103 87.667 3.6941
34.372387 87.667 3.6521
34.621464 87.667 3.6131
34.872345 87.667 3.5774
35.125042 87.667 3.5450
35.379574 87.667 3.5160
35.635948 87.667 3.4910
35.894180 87.668 3.4709
36.154285 87.669 3.4550
36.416275 87.671 3.4437
36.680161 87.674 3.4350
36.945961 87.679 3.4279
37.213688 87.685 3.4200
37.483353 87.693 3.4095
37.754974 87.702 3.3940
38.028561 87.712 3.3710
38.304131 87.723 3.3390
38.581699 87.735 3.2958
38.861279 87.747 3.2421
39.142883 87.758 3.1773
39.426529 87.768 3.1041
39.712231 87.777 3.0243
40.000000 87.784 2.9401
40.289856 87.790 2.8536
40.581814 87.794 2.7671
40.875885 87.796 2.6836
41.172089 87.798 2.6031
41.470440 87.799 2.5269
41.770950 87.800 2.4551
42.073643 87.800 2.3884
42.378525 87.800 2.3261
42.685616 87.800 2.2677
42.994934 87.800 2.2131
43.306492 87.800 2.1617
43.620308 87.800 2.1141
43.936401 87.800 2.0703
44.254780 87.800 2.0311
44.575470 87.800 1.9969
44.898483 87.800 1.9680
45.223835 87.801 1.9452
45.551544 87.804 1.9270
45.881630 87.808 1.9136
46.214108 87.813 1.9010
46.548996 87.821 1.8868
46.886307 87.832 1.8660
47.226067 87.845 1.8326
47.568283 87.858 1.7871
47.912983 87.871 1.7280
48.260181 87.883 1.6561
48.609894 87.895 1.5708
48.962143 87.907 1.4742
49.316940 87.917 1.3663
49.674313 87.924 1.2532
50.034271 87.928 1.1403
50.396843 87.931 1.0292
50.762039 87.932 0.9235
51.129883 87.933 0.8222
51.500389 87.933 0.7256
51.873581 87.933 0.6332
52.249481 87.933 0.5447
52.628101 87.933 0.4591
53.009464 87.933 0.3753
53.393593 87.933 0.2931
53.780506 87.933 0.2126
54.170223 87.933 0.1331
54.562763 87.933 0.0538
54.958145 87.933 -0.0249
55.356396 87.933 -0.1026
55.757530 87.933 -0.1799
56.161572 87.933 -0.2573
56.568542 87.933 -0.3349
56.978462 87.933 -0.4127
57.391350 87.933 -0.4909
57.807232 87.933 -0.5690
58.226128 87.933 -0.6479
58.648056 87.933 -0.7279
59.073048 87.933 -0.8089
59.501114 87.933 -0.8906
59.932281 87.933 -0.9738
60.366577 87.933 -1.0588
60.804020 87.933 -1.1468
61.244629 87.933 -1.2397
61.688435 87.933 -1.3368
62.135452 87.932 -1.4382
62.585712 87.930 -1.5438
63.039234 87.927 -1.6552
63.496040 87.923 -1.7678
63.956161 87.915 -1.8796
64.419617 87.905 -1.9848
64.886421 87.893 -2.0764
65.356621 87.880 -2.1559
65.830215 87.867 -2.2224
66.307251 87.854 -2.2759
66.787743 87.841 -2.3155
67.271713 87.829 -2.3430
67.759193 87.819 -2.3576
68.250206 87.811 -2.3660
68.744774 87.806 -2.3738
69.242928 87.803 -2.3830
69.744690 87.801 -2.3977
70.250084 87.800 -2.4170
70.759148 87.800 -2.4411
71.271896 87.800 -2.4699
71.788361 87.800 -2.5042
72.308571 87.800 -2.5419
72.832550 87.800 -2.5813
73.360321 87.800 -2.6229
73.891922 87.800 -2.6670
74.427376 87.800 -2.7129
74.966705 87.800 -2.7597
75.509949 87.800 -2.8079
76.057121 87.800 -2.8577
76.608261 87.800 -2.9089
77.163399 87.800 -2.9613
77.722557 87.800 -3.0149
78.285767 87.800 -3.0698
78.853058 87.800 -3.1259
79.424461 87.800 -3.1833
80.000000 87.800 -3.2419
80.579712 87.800 -3.3017
81.163628 87.800 -3.3629
81.751770 87.800 -3.4257
82.344177 87.800 -3.4899
82.940880 87.800 -3.5551
83.541901 87.800 -3.6219
84.147285 87.800 -3.6909
84.757050 87.800 -3.7619
85.371231 87.800 -3.8346
85.989868 87.800 -3.9098
86.612984 87.800 -3.9879
87.240616 87.800 -4.0698
87.872803 87.800 -4.1569
88.509560 87.800 -4.2488
89.150940 87.799 -4.3454
89.796967 87.797 -4.4468
90.447670 87.795 -4.5547
91.103088 87.791 -4.6648
91.763260 87.784 -4.7746
92.428215 87.774 -4.8798
93.097992 87.763 -4.9748
93.772614 87.752 -5.0608
94.452133 87.740 -5.1379
95.136566 87.728 -5.2049
95.825966 87.715 -5.2601
96.520363 87.703 -5.3049
97.219788 87.693 -5.3376
97.924286 87.685 -5.3649
98.633881 87.679 -5.3928
99.348625 87.675 -5.4219
100.068542 87.671 -5.4552
100.793686 87.669 -5.4929
101.524078 87.668 -5.5363
102.259766 87.668 -5.5859
103.000778 87.667 -5.6426
103.747162 87.667 -5.7069
104.498962 87.667 -5.7794
105.256203 87.667 -5.8598
106.018929 87.666 -5.9486
106.787186 87.664 -6.0448
107.561012 87.661 -6.1492
108.340446 87.656 -6.2578
109.125526 87.648 -6.3686
109.916290 87.638 -6.4758
110.712791 87.626 -6.5723
111.515060 87.613 -6.6598
112.323143 87.600 -6.7375
113.137085 87.587 -6.8059
113.956924 87.574 -6.8639
114.782700 87.562 -6.9149
115.614464 87.552 -6.9598
116.452255 87.544 -7.0049
117.296112 87.539 -7.0558
118.146095 87.534 -7.1149
119.002228 87.529 -7.1881
119.864563 87.523 -7.2708
120.733154 87.515 -7.3616
121.608040 87.506 -7.4558
122.489258 87.494 -7.5485
123.376869 87.480 -7.6388
124.270905 87.466 -7.7239
125.171425 87.451 -7.8039
126.078468 87.434 -7.8787
126.992081 87.416 -7.9459
127.912323 87.397 -8.0018
128.839233 87.377 -8.0489
129.772842 87.359 -8.0875
130.713242 87.341 -8.1199
131.660431 87.323 -8.1503
132.614502 87.305 -8.1739
133.575485 87.284 -8.1887
134.543427 87.263 -8.1910
135.518387 87.242 -8.1749
136.500412 87.222 -8.1451
137.489548 87.205 -8.1039
138.485855 87.190 -8.0531
139.489380 87.175 -7.9957
140.500168 87.162 -7.9302
141.518295 87.152 -7.8538
142.543793 87.144 -7.7732
143.576721 87.141 -7.6936
144.617142 87.140 -7.6162
145.665100 87.141 -7.5430
146.720642 87.144 -7.4772
147.783844 87.152 -7.4204
148.854752 87.162 -7.3781
149.933411 87.174 -7.3571
151.019897 87.187 -7.3550
152.114243 87.200 -7.3717
153.216522 87.213 -7.4069
154.326797 87.226 -7.4607
155.445114 87.238 -7.5318
156.571533 87.248 -7.6208
157.706116 87.256 -7.7218
158.848923 87.261 -7.8292
160.000000 87.264 -7.9417
161.159424 87.266 -8.0557
162.327255 87.267 -8.1727
163.503540 87.266 -8.2936
164.688354 87.264 -8.4177
165.881760 87.261 -8.5455
167.083801 87.256 -8.6747
168.294571 87.248 -8.8049
169.514099 87.238 -8.9307
170.742462 87.226 -9.0457
171.979736 87.213 -9.1517
173.225967 87.200 -9.2483
174.481232 87.187 -9.3368
175.745605 87.174 -9.4181
177.019119 87.161 -9.4938
178.301880 87.149 -9.5639
179.593933 87.139 -9.6338
180.895340 87.131 -9.7096
182.206177 87.123 -9.7898
183.526520 87.112 -9.8768
184.856430 87.100 -9.9658
186.195984 87.088 -10.0526
187.545227 87.075 -10.1378
188.904266 87.061 -10.2207
190.273132 87.046 -10.3008
191.651932 87.031 -10.3777
193.040726 87.015 -10.4498
194.439575 86.998 -10.5150
195.848572 86.981 -10.5738
197.267761 86.965 -10.6249
198.697250 86.950 -10.6719
200.137085 86.935 -10.7184
201.587372 86.921 -10.7639
203.048157 86.907 -10.8090
204.519531 86.893 -10.8539
206.001556 86.880 -10.8981
207.494324 86.867 -10.9439
208.997925 86.854 -10.9940
210.512405 86.841 -11.0459
212.037857 86.827 -11.0978
213.574371 86.813 -11.1499
215.122025 86.799 -11.2016
216.680893 86.785 -11.2529
218.251053 86.769 -11.3044
219.832581 86.753 -11.3529
221.425583 86.736 -11.3947
223.030121 86.719 -11.4319
224.646286 86.703 -11.4645
226.274170 86.688 -11.4949
227.913849 86.673 -11.5255
229.565399 86.659 -11.5559
231.228928 86.645 -11.5865
232.904510 86.631 -11.6179
234.592224 86.618 -11.6506
236.292191 86.604 -11.6849
238.004456 86.590 -11.7218
239.729126 86.576 -11.7599
241.466309 86.562 -11.7977
243.216080 86.547 -11.8359
244.978516 86.533 -11.8746
246.753738 86.519 -11.9139
248.541809 86.504 -11.9548
250.342850 86.488 -11.9949
252.156937 86.472 -12.0310
253.984161 86.456 -12.0659
255.824646 86.441 -12.1013
257.678467 86.426 -12.1379
259.545685 86.410 -12.1770
261.426483 86.394 -12.2179
263.320862 86.378 -12.2609
265.229004 86.361 -12.3039
267.150970 86.342 -12.3452
269.086853 86.322 -12.3829
271.036774 86.302 -12.4131
273.000824 86.283 -12.4399
274.979095 86.264 -12.4671
276.971710 86.245 -12.4919
278.978760 86.224 -12.5142
281.000336 86.202 -12.5300
283.036591 86.180 -12.5331
285.087585 86.158 -12.5300
287.153442 86.140 -12.5248
289.234283 86.123 -12.5190
291.330200 86.105 -12.5165
293.441284 86.087 -12.5140
295.567688 86.069 -12.5090
297.709503 86.051 -12.5030
299.866821 86.034 -12.4962
302.039795 86.017 -12.4900
304.228485 86.001 -12.4860
306.433044 85.985 -12.4840
308.653595 85.969 -12.4854
310.890228 85.952 -12.4870
313.143066 85.934 -12.4860
315.412231 85.916 -12.4830
317.697845 85.899 -12.4766
320.000000 85.883 -12.4700
322.318848 85.867 -12.4659
324.654510 85.851 -12.4640
327.007080 85.835 -12.4657
329.376709 85.818 -12.4680
331.763519 85.800 -12.4682
334.167603 85.782 -12.4670
336.589142 85.765 -12.4631
339.028198 85.749 -12.4600
341.484924 85.732 -12.4617
343.959473 85.715 -12.4660
346.451935 85.697 -12.4730
348.962463 85.679 -12.4800
351.491211 85.659 -12.4837
354.038239 85.639 -12.4860
356.603760 85.620 -12.4874
359.187866 85.601 -12.4890
361.790680 85.581 -12.4935
364.412354 85.559 -12.4960
367.053040 85.535 -12.4923
369.712860 85.510 -12.4830
372.391968 85.487 -12.4666
375.090454 85.464 -12.4451
377.808533 85.440 -12.4213
380.546265 85.415 -12.3921
383.303864 85.390 -12.3541
386.081451 85.365 -12.3101
388.879150 85.342 -12.2621
391.697144 85.320 -12.2102
394.535522 85.296 -12.1565
397.394501 85.272 -12.0972
400.274170 85.248 -12.0267
403.174744 85.226 -11.9512
406.096313 85.207 -11.8747
409.039062 85.189 -11.7992
412.003113 85.171 -11.7293
414.988647 85.152 -11.6612
417.995850 85.134 -11.5924
421.024811 85.116 -11.5242
424.075714 85.099 -11.4566
427.148743 85.082 -11.3912
430.244049 85.065 -11.3306
433.361786 85.048 -11.2722
436.502106 85.029 -11.2149
439.665161 85.010 -11.1562
442.851166 84.990 -11.0921
446.060242 84.971 -11.0252
449.292572 84.953 -10.9555
452.548340 84.935 -10.8862
455.827698 84.917 -10.8217
459.130798 84.899 -10.7582
462.457855 84.879 -10.6941
465.809021 84.859 -10.6272
469.184448 84.838 -10.5535
472.584381 84.817 -10.4772
476.008911 84.798 -10.4018
479.458252 84.779 -10.3252
482.932617 84.757 -10.2487
486.432159 84.734 -10.1663
489.957031 84.710 -10.0701
493.507477 84.687 -9.9673
497.083618 84.667 -9.8633
500.685699 84.647 -9.7554
504.313873 84.624 -9.6441
507.968323 84.600 -9.5244
511.649292 84.578 -9.3888
515.356934 84.557 -9.2455
519.091370 84.540 -9.0997
522.852966 84.524 -8.9525
526.641724 84.508 -8.8069
530.458008 84.492 -8.6625
534.301941 84.479 -8.5190
538.173706 84.466 -8.3785
542.073547 84.453 -8.2443
546.001648 84.440 -8.1115
549.958191 84.425 -7.9761
553.943420 84.411 -7.8384
557.957520 84.398 -7.6974
562.000671 84.386 -7.5535
566.073181 84.373 -7.4065
570.175171 84.361 -7.2575
574.306885 84.351 -7.1053
578.468567 84.343 -6.9565
582.660400 84.338 -6.8171
586.882568 84.333 -6.6884
591.135376 84.329 -6.5754
595.419006 84.323 -6.4733
599.733643 84.315 -6.3808
604.079590 84.305 -6.2923
608.456970 84.292 -6.2019
612.866089 84.278 -6.1093
617.307190 84.264 -6.0126
621.780457 84.248 -5.9103
626.286133 84.230 -5.8016
630.824463 84.211 -5.6834
635.395691 84.191 -5.5510
640.000000 84.172 -5.4085
644.637695 84.155 -5.2579
649.309021 84.138 -5.1015
654.014160 84.121 -4.9432
658.753418 84.104 -4.7806
663.527039 84.087 -4.6134
668.335205 84.070 -4.4396
673.178284 84.052 -4.2568
678.056396 84.035 -4.0657
682.969849 84.019 -3.8658
687.918945 84.004 -3.6587
692.903870 83.989 -3.4456
697.924927 83.976 -3.2278
702.982422 83.964 -3.0061
708.076477 83.954 -2.7828
713.207520 83.945 -2.5593
718.375732 83.937 -2.3388
723.581360 83.931 -2.1263
728.824707 83.925 -1.9177
734.106079 83.916 -1.7128
739.425720 83.905 -1.5048
744.783936 83.893 -1.2870
750.180908 83.880 -1.0588
755.617065 83.867 -0.8180
761.092529 83.854 -0.5630
766.607727 83.841 -0.2914
772.162903 83.829 -0.0041
777.758301 83.819 0.3013
783.394287 83.811 0.6189
789.071045 83.808 0.9445
794.789001 83.809 1.2748
800.548340 83.811 1.6060
806.349487 83.816 1.9348
812.192627 83.825 2.2578
818.078125 83.836 2.5729
824.006226 83.849 2.8758
829.977295 83.862 3.1700
835.991699 83.874 3.4568
842.049622 83.887 3.7380
848.151428 83.900 4.0144
854.297485 83.913 4.2900
860.488098 83.924 4.5682
866.723572 83.935 4.8519
873.004211 83.946 5.1462
879.330322 83.958 5.4479
885.702332 83.973 5.7558
892.120483 83.990 6.0689
898.585144 84.007 6.3867
905.096680 84.027 6.7058
911.655396 84.050 7.0235
918.261597 84.076 7.3378
924.915710 84.102 7.6445
931.618042 84.129 7.9479
938.368896 84.157 8.2522
945.168762 84.187 8.5539
952.017822 84.219 8.8505
958.916504 84.253 9.1429
965.865234 84.286 9.4311
972.864319 84.321 9.7150
979.914062 84.359 9.9953
987.014954 84.399 10.2690
994.167236 84.439 10.5317
1001.371399 84.479 10.7881
1008.627747 84.519 11.0420
1015.936646 84.560 11.2910
1023.298584 84.604 11.5334
1030.713867 84.649 11.7702
1038.182739 84.692 12.0003
1045.705933 84.735 12.2290
1053.283447 84.778 12.4638
1060.916016 84.824 12.6980
1068.603882 84.873 12.9275
1076.347412 84.925 13.1511
1084.147095 84.977 13.3663
1092.003296 85.030 13.5733
1099.916382 85.085 13.7733
1107.886841 85.143 13.9612
1115.915039 85.202 14.1320
1124.001343 85.262 14.2875
1132.146362 85.321 14.4263
1140.350342 85.379 14.5525
1148.613770 85.436 14.6692
1156.937134 85.493 14.7786
1165.320801 85.548 14.8832
1173.765137 85.603 14.9855
1182.270752 85.657 15.0895
1190.838013 85.713 15.1926
1199.467285 85.770 15.2945
1208.159180 85.828 15.3926
1216.913940 85.887 15.4847
1225.732178 85.947 15.5687
1234.614380 86.008 15.6420
1243.560913 86.071 15.7038
1252.572266 86.133 15.7518
1261.648926 86.195 15.7879
1270.791382 86.256 15.8122
1280.000000 86.316 15.8280
1289.275391 86.374 15.8372
1298.618042 86.432 15.8430
1308.028320 86.488 15.8488
1317.506836 86.543 15.8560
1327.054077 86.598 15.8672
1336.670410 86.653 15.8809
1346.356567 86.709 15.8973
1356.112793 86.766 15.9139
1365.939697 86.824 15.9294
1375.837891 86.884 15.9410
1385.807739 86.945 15.9454
1395.849854 87.007 15.9420
1405.964844 87.069 15.9286
1416.152954 87.131 15.9061
1426.415039 87.192 15.8736
1436.751465 87.253 15.8352
1447.162720 87.312 15.7939
1457.649414 87.370 15.7522
1468.212158 87.427 15.7127
1478.851440 87.485 15.6771
1489.567871 87.541 15.6488
1500.361816 87.599 15.6251
1511.234131 87.659 15.6055
1522.185059 87.721 15.5861
1533.215454 87.784 15.5628
1544.325806 87.848 15.5361
1555.516602 87.913 15.5048
1566.788574 87.979 15.4702
1578.142090 88.045 15.4340
1589.578003 88.112 15.3942
1601.096680 88.181 15.3483
1612.698975 88.252 15.2982
1624.385254 88.321 15.2452
1636.156250 88.392 15.1893
1648.012451 88.465 15.1327
1659.954590 88.540 15.0702
1671.983398 88.617 14.9979
1684.099243 88.696 14.9144
1696.302856 88.775 14.8162
1708.594971 88.856 14.7055
1720.976196 88.936 14.5823
1733.447144 89.016 14.4496
1746.008423 89.094 14.3093
1758.660645 89.173 14.1646
1771.404663 89.252 14.0200
1784.240967 89.332 13.8726
1797.170288 89.413 13.7201
1810.193359 89.495 13.5646
1823.310791 89.576 13.4091
1836.523193 89.660 13.2496
1849.831421 89.748 13.0849
1863.236084 89.838 12.9108
1876.737793 89.928 12.7214
1890.337524 90.020 12.5209
1904.035645 90.111 12.3131
1917.833008 90.205 12.0939
1931.730469 90.302 11.8602
1945.728638 90.401 11.6121
1959.828125 90.498 11.3470
1974.029907 90.596 11.0692
1988.334473 90.694 10.7835
2002.742798 90.794 10.4862
2017.255493 90.896 10.1763
2031.873291 91.000 9.8513
2046.597168 91.105 9.5087
2061.427734 91.212 9.1486
2076.365479 91.319 8.7706
2091.411865 91.427 8.3747
2106.566895 91.536 7.9624
2121.832031 91.647 7.5298
2137.207764 91.759 7.0738
2152.694824 91.873 6.5930
2168.294189 91.987 6.0847
2184.006592 92.100 5.5505
2199.832764 92.214 4.9914
2215.773682 92.327 4.4064
2231.830078 92.440 3.7943
2248.002686 92.553 3.1567
2264.292725 92.663 2.4938
2280.700684 92.772 1.8090
2297.227539 92.879 1.1075
2313.874268 92.987 0.3840
2330.641602 93.096 -0.3653
2347.530273 93.205 -1.1406
2364.541504 93.310 -1.9434
2381.676025 93.415 -2.7732
2398.934570 93.519 -3.6282
2416.318359 93.622 -4.5130
2433.827881 93.723 -5.4333
2451.464355 93.821 -6.3840
2469.228760 93.913 -7.3628
2487.121826 94.002 -8.3666
2505.144531 94.088 -9.3920
2523.297852 94.172 -10.4382
2541.582764 94.250 -11.5047
2560.000000 94.324 -12.5882
2578.550781 94.393 -13.6842
2597.236084 94.460 -14.7958
2616.056641 94.524 -15.9250
2635.013672 94.586 -17.0701
2654.108154 94.642 -18.2305
2673.340820 94.694 -19.4058
2692.713135 94.743 -20.5949
2712.225586 94.789 -21.8003
2731.879395 94.830 -23.0260
2751.675781 94.867 -24.2672
2771.615479 94.897 -25.5208
2791.699707 94.921 -26.7854
2811.929688 94.941 -28.0601
2832.305908 94.955 -29.3410
2852.830078 94.960 -30.6266
2873.502930 94.957 -31.9074
2894.325439 94.947 -33.1732
2915.298828 94.932 -34.4243
2936.424316 94.912 -35.6587
2957.702881 94.887 -36.8737
2979.135742 94.857 -38.0660
3000.723633 94.822 -39.2359
3022.468262 94.786 -40.3813
3044.370117 94.747 -41.5058
3066.430908 94.706 -42.6142
3088.651611 94.662 -43.7022
3111.033203 94.615 -44.7658
3133.577148 94.565 -45.8081
3156.284180 94.516 -46.8310
3179.156006 94.465 -47.8333
3202.193359 94.411 -48.8150
3225.397949 94.355 -49.7745
3248.770508 94.301 -50.7081
3272.312500 94.246 -51.6219
3296.024902 94.193 -52.5216
3319.909180 94.139 -53.4059
3343.966797 94.085 -54.2764
3368.198486 94.030 -55.1310
3392.605713 93.976 -55.9667
3417.189941 93.922 -56.7882
3441.952393 93.872 -57.5991
3466.894287 93.822 -58.4004
3492.016846 93.772 -59.1959
3517.321289 93.722 -59.9814
3542.809326 93.673 -60.7525
3568.481934 93.625 -61.5135
3594.340576 93.581 -62.2660
3620.386719 93.538 -63.0144
3646.621582 93.498 -63.7647
3673.046387 93.458 -64.5134
3699.662842 93.419 -65.2574
3726.472168 93.381 -66.0015
3753.475586 93.349 -66.7485
3780.675049 93.318 -67.5016
3808.071289 93.288 -68.2653
3835.666016 93.258 -69.0383
3863.460938 93.231 -69.8192
3891.457275 93.205 -70.6122
3919.656250 93.181 -71.4221
3948.059814 93.156 -72.2452
3976.668945 93.130 -73.0786
4005.485596 93.104 -73.9238
4034.510986 93.081 -74.7808
4063.746582 93.058 -75.6518
4093.194336 93.034 -76.5408
4122.855469 93.009 -77.4436
4152.730957 92.984 -78.3542
4182.823730 92.959 -79.2806
4213.133789 92.938 -80.2284
4243.664062 92.916 -81.1983
4274.415527 92.891 -82.1932
4305.389648 92.865 -83.2110
4336.588379 92.839 -84.2488
4368.013184 92.811 -85.3119
4399.665527 92.783 -86.4057
4431.547363 92.751 -87.5275
4463.660156 92.715 -88.6779
4496.005371 92.674 -89.8511
4528.585449 92.629 -91.0418
4561.401367 92.578 -92.2482
4594.455078 92.523 -93.4683
4627.748535 92.461 -94.6970
4661.283203 92.393 -95.9292
4695.060547 92.320 -97.1630
4729.083008 92.244 -98.3938
4763.352051 92.163 -99.6241
4797.869141 92.079 -100.8552
4832.636719 91.990 -102.0868
4867.655762 91.899 -103.3186
4902.928711 91.803 -104.5529
4938.457520 91.705 -105.7918
4974.243652 91.602 -107.0371
5010.289062 91.497 -108.2930
5046.595703 91.386 -109.5547
5083.165527 91.265 -110.8220
5120.000000 91.138 -112.0849
5157.101562 91.002 -113.3326
5194.472168 90.861 -114.5660
5232.113281 90.714 -115.7827
5270.027344 90.562 -116.9810
5308.216309 90.401 -118.1607
5346.681641 90.233 -119.3144
5385.426270 90.058 -120.4340
5424.451172 89.879 -121.5218
5463.758789 89.697 -122.5787
5503.351562 89.509 -123.6011
5543.230957 89.314 -124.5885
5583.399414 89.112 -125.5315
5623.859375 88.905 -126.4209
5664.611816 88.693 -127.2561
5705.660156 88.479 -128.0329
5747.005859 88.262 -128.7524
5788.650879 88.043 -129.4129
5830.597656 87.824 -130.0170
5872.848633 87.606 -130.5652
5915.405762 87.390 -131.0626
5958.271484 87.176 -131.5134
6001.447266 86.964 -131.9210
6044.936523 86.755 -132.2920
6088.740234 86.546 -132.6215
6132.861816 86.337 -132.9077
6177.303223 86.128 -133.1469
6222.066406 85.921 -133.3347
6267.154297 85.717 -133.4715
6312.568359 85.515 -133.5573
6358.312012 85.316 -133.5890
6404.386719 85.119 -133.5623
6450.795898 84.927 -133.4796
6497.541016 84.742 -133.3389
6544.625000 84.566 -133.1481
6592.049805 84.398 -132.9133
6639.818359 84.240 -132.6385
6687.933594 84.090 -132.3288
6736.396973 83.951 -131.9868
6785.211426 83.823 -131.6132
6834.379883 83.707 -131.2191
6883.904785 83.605 -130.8134
6933.788574 83.515 -130.4031
6984.033691 83.438 -129.9959
7034.642578 83.374 -129.5990
7085.618652 83.324 -129.2172
7136.963867 83.288 -128.8657
7188.681152 83.266 -128.5582
7240.773438 83.256 -128.3031
7293.243164 83.257 -128.1120
7346.092773 83.266 -127.9884
7399.325684 83.282 -127.9396
7452.944336 83.303 -127.9657
7506.951172 83.327 -128.0723
7561.350098 83.351 -128.2499
7616.142578 83.372 -128.4955
7671.332031 83.390 -128.7953
7726.921875 83.404 -129.1374
7782.914551 83.415 -129.5140
7839.312500 83.424 -129.9135
7896.119629 83.432 -130.3367
7953.337891 83.441 -130.7800
8010.971191 83.451 -131.2455
8069.021973 83.461 -131.7310
8127.493164 83.474 -132.2452
8186.388672 83.493 -132.7928
8245.710938 83.515 -133.3828
8305.461914 83.538 -134.0267
8365.647461 83.562 -134.7222
8426.267578 83.584 -135.4721
8487.328125 83.604 -136.2717
8548.831055 83.621 -137.1177
8610.779297 83.636 -138.0082
8673.176758 83.647 -138.9409
8736.026367 83.656 -139.9136
8799.331055 83.661 -140.9226
8863.094727 83.664 -141.9704
8927.320312 83.665 -143.0560
8992.010742 83.664 -144.1869
9057.170898 83.660 -145.3705
9122.802734 83.652 -146.6063
9188.910156 83.638 -147.8976
9255.497070 83.617 -149.2396
9322.566406 83.588 -150.6330
9390.121094 83.549 -152.0653
9458.166016 83.496 -153.5283
9526.704102 83.430 -155.0101
9595.738281 83.354 -156.4990
9665.273438 83.266 -157.9872
9735.311523 83.166 -159.4661
9805.857422 83.055 -160.9262
9876.915039 82.933 -162.3563
9948.487305 82.802 -163.7516
10020.578125 82.664 -165.1025
10093.191406 82.520 -166.4120
10166.331055 82.372 -167.6788
10240.000000 82.222 -168.9056
10314.203125 82.068 -170.0933
10388.944336 81.914 -171.2456
10464.226562 81.760 -172.3643
10540.054688 81.607 -173.4566
10616.432617 81.454 -174.5286
10693.363281 81.303 -175.5857
10770.852539 81.155 -176.6360
10848.902344 81.007 -177.6784
10927.517578 80.857 -178.7142
11006.703125 80.708 -179.7444
11086.461914 80.560 179.2308
11166.798828 80.413 178.2077
11247.718750 80.265 177.1838
11329.223633 80.119 176.1543
11411.320312 79.975 175.1157
11494.011719 79.832 174.0608
11577.301758 79.689 172.9807
11661.195312 79.544 171.8772
11745.697266 79.396 170.7462
11830.811523 79.244 169.5963
11916.542969 79.086 168.4333
12002.894531 78.922 167.2615
12089.873047 78.753 166.0846
12177.480469 78.578 164.9097
12265.723633 78.394 163.7434
12354.606445 78.205 162.5912
12444.132812 78.011 161.4627
12534.308594 77.814 160.3510
12625.136719 77.616 159.2515
12716.624023 77.415 158.1657
12808.773438 77.209 157.0942
12901.591797 77.001 156.0359
12995.082031 76.792 154.9926
13089.250000 76.581 153.9572
13184.099609 76.370 152.9236
13279.636719 76.157 151.8913
13375.867188 75.941 150.8593
13472.793945 75.722 149.8239
13570.422852 75.503 148.7829
13668.759766 75.281 147.7303
13767.809570 75.056 146.6584
13867.577148 74.824 145.5694
13968.067383 74.587 144.4601
14069.285156 74.340 143.3384
14171.237305 74.083 142.2078
14273.927734 73.814 141.0779
14377.362305 73.534 139.9531
14481.546875 73.238 138.8526
14586.486328 72.923 137.7888
14692.185547 72.591 136.7866
14798.651367 72.240 135.8693
14905.888672 71.872 135.0554
15013.902344 71.488 134.3645
15122.700195 71.089 133.8167
15232.285156 70.675 133.4320
15342.664062 70.250 133.2296
15453.843750 69.815 133.2332
15565.829102 69.378 133.4492
15678.625000 68.943 133.8942
15792.239258 68.516 134.5608
15906.675781 68.102 135.4529
16021.942383 67.707 136.5535
16138.043945 67.337 137.8569
16254.986328 67.000 139.3320
16372.777344 66.703 140.9631
16491.421875 66.453 142.6982
16610.923828 66.257 144.4982
16731.294922 66.116 146.3076
16852.535156 66.031 148.0747
16974.656250 66.001 149.7473
17097.662109 66.025 151.2715
17221.558594 66.094 152.5986
17346.353516 66.208 153.6691
17472.052734 66.351 154.4611
17598.662109 66.512 154.9315
17726.189453 66.682 155.0851
17854.640625 66.851 154.9039
17984.021484 67.010 154.4136
18114.341797 67.150 153.6179
18245.605469 67.263 152.5646
18377.820312 67.343 151.2834
18510.994141 67.388 149.8328
18645.132812 67.391 148.2651
18780.242188 67.356 146.6299
18916.332031 67.285 144.9843
19053.408203 67.180 143.3581
19191.476562 67.044 141.7959
19330.546875 66.884 140.3098
19470.623047 66.703 138.9278
19611.714844 66.506 137.6460
19753.830078 66.299 136.4750
19896.974609 66.086 135.3993
