* Measurement data measured by REW V5.20.13
* Source: C:\Users\kurin\Desktop\Targets and Curves\Resolve\Img\Files\Soundcore Liberty Air 2_SPL.txt
* Format: Comma/Tab/Space delimited data
* Dated: Aug 14, 2023 6:40:50 PM
* REW Settings:
*  C-weighting compensation: Off
*  Target level: 75.0 dB
* Note: ; Measurement imported from C:\Users\kurin\Desktop\Targets and Curves\Resolve\Img\Files\Soundcore Liberty Air 2_SPL.txt Format: Comma/Tab/Space delimited data 623 values loaded, 5 Hz to 39,792 Hz log spaced 
* Measurement: Soundcore Liberty Air 2_SPL
* Smoothing: 1/48 octave
* Frequency Step: 1/96 octave
* Start Frequency: 5.000 Hz
*
* Freq(Hz) SPL(dB) Phase(degrees)
5.000000 106.780 -11.6770
5.036232 106.777 -11.6832
5.072727 106.774 -11.6900
5.109486 106.770 -11.6979
5.146511 106.766 -11.7070
5.183805 106.761 -11.7179
5.221369 106.755 -11.7300
5.259205 106.749 -11.7430
5.297316 106.743 -11.7570
5.335702 106.736 -11.7722
5.374367 106.729 -11.7880
5.413311 106.723 -11.8035
5.452538 106.716 -11.8190
5.492050 106.709 -11.8344
5.531847 106.702 -11.8500
5.571934 106.696 -11.8659
5.612310 106.689 -11.8820
5.652979 106.682 -11.8984
5.693943 106.675 -11.9150
5.735204 106.668 -11.9315
5.776763 106.662 -11.9480
5.818624 106.656 -11.9644
5.860788 106.649 -11.9810
5.903258 106.642 -11.9979
5.946035 106.635 -12.0150
5.989123 106.629 -12.0324
6.032523 106.622 -12.0500
6.076237 106.615 -12.0674
6.120268 106.608 -12.0850
6.164618 106.602 -12.1029
6.209289 106.595 -12.1210
6.254284 106.588 -12.1390
6.299605 106.581 -12.1570
6.345255 106.574 -12.1749
6.391235 106.568 -12.1930
6.437549 106.562 -12.2119
6.484198 106.555 -12.2310
6.531185 106.548 -12.2494
6.578513 106.541 -12.2680
6.626183 106.535 -12.2874
6.674199 106.528 -12.3070
6.722563 106.521 -12.3265
6.771278 106.514 -12.3460
6.820345 106.507 -12.3654
6.869768 106.501 -12.3850
6.919549 106.494 -12.4049
6.969691 106.487 -12.4250
7.020196 106.480 -12.4454
7.071068 106.474 -12.4660
7.122308 106.468 -12.4864
7.173919 106.461 -12.5070
7.225904 106.454 -12.5279
7.278266 106.447 -12.5490
7.331007 106.440 -12.5699
7.384131 106.434 -12.5910
7.437639 106.427 -12.6129
7.491535 106.420 -12.6350
7.545822 106.413 -12.6564
7.600502 106.407 -12.6780
7.655579 106.400 -12.7004
7.711054 106.393 -12.7230
7.766932 106.386 -12.7454
7.823214 106.380 -12.7680
7.879904 106.374 -12.7909
7.937005 106.367 -12.8140
7.994520 106.360 -12.8369
8.052452 106.353 -12.8600
8.110803 106.346 -12.8834
8.169578 106.340 -12.9070
8.228777 106.333 -12.9309
8.288406 106.326 -12.9550
8.348468 106.320 -12.9789
8.408964 106.313 -13.0030
8.469899 106.306 -13.0279
8.531276 106.299 -13.0530
8.593097 106.292 -13.0780
8.655366 106.286 -13.1030
8.718086 106.280 -13.1279
8.781260 106.273 -13.1530
8.844893 106.266 -13.1789
8.908987 106.259 -13.2050
8.973545 106.253 -13.2309
9.038571 106.246 -13.2570
9.104069 106.239 -13.2834
9.170040 106.232 -13.3100
9.236490 106.226 -13.3369
9.303422 106.219 -13.3640
9.370838 106.212 -13.3909
9.438744 106.205 -13.4180
9.507140 106.198 -13.4459
9.576033 106.192 -13.4740
9.645425 106.186 -13.5019
9.715320 106.179 -13.5300
9.785721 106.172 -13.5584
9.856632 106.165 -13.5870
9.928058 106.159 -13.6159
10.000000 106.152 -13.6450
10.072464 106.145 -13.6744
10.145453 106.138 -13.7040
10.218971 106.132 -13.7334
10.293022 106.125 -13.7630
10.367610 106.118 -13.7934
10.442738 106.111 -13.8240
10.518411 106.104 -13.8544
10.594631 106.098 -13.8850
10.671404 106.092 -13.9159
10.748734 106.085 -13.9470
10.826623 106.078 -13.9784
10.905077 106.071 -14.0100
10.984100 106.065 -14.0418
11.063695 106.058 -14.0740
11.143867 106.051 -14.1069
11.224621 106.044 -14.1400
11.305959 106.037 -14.1729
11.387886 106.031 -14.2060
11.470407 106.025 -14.2394
11.553527 106.018 -14.2730
11.637249 106.011 -14.3069
11.721577 106.004 -14.3410
11.806517 105.998 -14.3753
11.892071 105.991 -14.4100
11.978246 105.984 -14.4449
12.065045 105.977 -14.4800
12.152473 105.970 -14.5154
12.240536 105.964 -14.5510
12.329235 105.957 -14.5869
12.418578 105.950 -14.6230
12.508568 105.943 -14.6593
12.599211 105.937 -14.6960
12.690510 105.931 -14.7328
12.782471 105.924 -14.7700
12.875097 105.917 -14.8073
12.968395 105.910 -14.8450
13.062370 105.904 -14.8834
13.157025 105.897 -14.9220
13.252366 105.890 -14.9604
13.348398 105.883 -14.9990
13.445127 105.877 -15.0383
13.542556 105.870 -15.0780
13.640691 105.863 -15.1173
13.739536 105.856 -15.1570
13.839099 105.849 -15.1973
13.939383 105.843 -15.2380
14.040393 105.837 -15.2788
14.142136 105.830 -15.3200
14.244616 105.823 -15.3613
14.347837 105.816 -15.4030
14.451808 105.810 -15.4454
14.556532 105.803 -15.4880
14.662014 105.796 -15.5303
14.768262 105.789 -15.5730
14.875278 105.783 -15.6163
14.983070 105.776 -15.6600
15.091644 105.769 -15.7038
15.201005 105.762 -15.7480
15.311157 105.755 -15.7923
15.422109 105.749 -15.8370
15.533863 105.743 -15.8823
15.646428 105.736 -15.9280
15.759809 105.729 -15.9739
15.874010 105.722 -16.0200
15.989040 105.716 -16.0658
16.104904 105.709 -16.1120
16.221605 105.702 -16.1588
16.339155 105.695 -16.2059
16.457554 105.689 -16.2533
16.576813 105.682 -16.3010
16.696936 105.675 -16.3493
16.817928 105.668 -16.3980
16.939798 105.661 -16.4464
17.062551 105.655 -16.4949
17.186193 105.649 -16.5438
17.310732 105.642 -16.5930
17.436172 105.635 -16.6424
17.562521 105.628 -16.6920
17.689787 105.622 -16.7414
17.817974 105.615 -16.7909
17.947090 105.608 -16.8409
18.077143 105.601 -16.8910
18.208138 105.595 -16.9410
18.340080 105.588 -16.9909
18.472980 105.581 -17.0406
18.606844 105.574 -17.0900
18.741676 105.567 -17.1393
18.877487 105.561 -17.1880
19.014280 105.555 -17.2355
19.152065 105.548 -17.2819
19.290850 105.541 -17.3270
19.430639 105.535 -17.3710
19.571442 105.530 -17.4140
19.713264 105.525 -17.4569
19.856115 105.521 -17.5008
20.000000 105.517 -17.5460
20.144928 105.514 -17.5930
20.290907 105.511 -17.6430
20.437943 105.510 -17.6965
20.586044 105.509 -17.7550
20.735220 105.508 -17.8198
20.885475 105.508 -17.8919
21.036821 105.508 -17.9728
21.189262 105.507 -18.0619
21.342808 105.506 -18.1595
21.497467 105.504 -18.2649
21.653246 105.501 -18.3788
21.810154 105.496 -18.4968
21.968201 105.487 -18.6166
22.127390 105.476 -18.7319
22.287735 105.463 -18.8354
22.449242 105.449 -18.9279
22.611917 105.435 -19.0074
22.775772 105.421 -19.0749
22.940815 105.407 -19.1304
23.107054 105.394 -19.1749
23.274498 105.383 -19.2069
23.443153 105.374 -19.2340
23.613033 105.369 -19.2626
23.784142 105.366 -19.2950
23.956491 105.364 -19.3359
24.130091 105.362 -19.3839
24.304947 105.362 -19.4394
24.481071 105.362 -19.5019
24.658470 105.362 -19.5718
24.837156 105.362 -19.6479
25.017136 105.362 -19.7290
25.198421 105.362 -19.8149
25.381020 105.362 -19.9051
25.564941 105.362 -19.9999
25.750195 105.362 -20.0996
25.936790 105.362 -20.2039
26.124741 105.362 -20.3122
26.314051 105.362 -20.4258
26.504732 105.362 -20.5455
26.696796 105.362 -20.6718
26.890253 105.362 -20.8053
27.085112 105.362 -20.9468
27.281382 105.361 -21.0976
27.479073 105.359 -21.2568
27.678198 105.356 -21.4251
27.878765 105.351 -21.5988
28.080786 105.342 -21.7760
28.284271 105.331 -21.9508
28.489231 105.317 -22.1160
28.695675 105.302 -22.2728
28.903616 105.287 -22.4200
29.113064 105.271 -22.5568
29.324028 105.254 -22.6818
29.536524 105.237 -22.7959
29.750557 105.222 -22.8970
29.966141 105.208 -22.9919
30.183289 105.197 -23.0866
30.402010 105.187 -23.1819
30.622314 105.178 -23.2808
30.844217 105.169 -23.3829
31.067726 105.161 -23.4892
31.292856 105.153 -23.5988
31.519617 105.145 -23.7117
31.748020 105.137 -23.8269
31.978081 105.129 -23.9435
32.209808 105.121 -24.0618
32.443211 105.113 -24.1818
32.678310 105.106 -24.3038
32.915108 105.099 -24.4282
33.153625 105.092 -24.5558
33.393871 105.086 -24.6881
33.635857 105.080 -24.8248
33.879597 105.073 -24.9665
34.125103 105.066 -25.1128
34.372387 105.059 -25.2638
34.621464 105.052 -25.4188
34.872345 105.044 -25.5771
35.125042 105.035 -25.7378
35.379574 105.025 -25.8999
35.635948 105.015 -26.0628
35.894180 105.005 -26.2255
36.154285 104.994 -26.3888
36.416275 104.984 -26.5525
36.680161 104.973 -26.7177
36.945961 104.962 -26.8853
37.213688 104.951 -27.0557
37.483353 104.940 -27.2306
37.754974 104.928 -27.4077
38.028561 104.915 -27.5857
38.304131 104.901 -27.7638
38.581699 104.886 -27.9408
38.861279 104.871 -28.1167
39.142883 104.856 -28.2909
39.426529 104.841 -28.4638
39.712231 104.826 -28.6351
40.000000 104.810 -28.8057
40.289856 104.795 -28.9766
40.581814 104.779 -29.1478
40.875885 104.763 -29.3196
41.172089 104.748 -29.4927
41.470440 104.733 -29.6683
41.770950 104.718 -29.8457
42.073643 104.702 -30.0245
42.378525 104.685 -30.2047
42.685616 104.669 -30.3862
42.994934 104.652 -30.5687
43.306492 104.635 -30.7520
43.620308 104.618 -30.9367
43.936401 104.601 -31.1233
44.254780 104.583 -31.3117
44.575470 104.565 -31.5028
44.898483 104.546 -31.6947
45.223835 104.526 -31.8862
45.551544 104.506 -32.0767
45.881630 104.486 -32.2649
46.214108 104.465 -32.4517
46.548996 104.444 -32.6376
46.886307 104.423 -32.8227
47.226067 104.402 -33.0070
47.568283 104.381 -33.1917
47.912983 104.360 -33.3779
48.260181 104.340 -33.5657
48.609894 104.320 -33.7555
48.962143 104.299 -33.9477
49.316940 104.278 -34.1429
49.674313 104.257 -34.3407
50.034271 104.235 -34.5409
50.396843 104.212 -34.7427
50.762039 104.189 -34.9454
51.129883 104.166 -35.1486
51.500389 104.142 -35.3521
51.873581 104.117 -35.5556
52.249481 104.092 -35.7590
52.628101 104.067 -35.9627
53.009464 104.042 -36.1670
53.393593 104.016 -36.3717
53.780506 103.990 -36.5769
54.170223 103.963 -36.7817
54.562763 103.935 -36.9851
54.958145 103.907 -37.1877
55.356396 103.880 -37.3890
55.757530 103.852 -37.5907
56.161572 103.824 -37.7946
56.568542 103.796 -37.9997
56.978462 103.767 -38.2051
57.391350 103.738 -38.4116
57.807232 103.709 -38.6192
58.226128 103.679 -38.8286
58.648056 103.649 -39.0418
59.073048 103.618 -39.2556
59.501114 103.586 -39.4679
59.932281 103.553 -39.6786
60.366577 103.520 -39.8866
60.804020 103.486 -40.0926
61.244629 103.452 -40.2969
61.688435 103.417 -40.4997
62.135452 103.382 -40.7010
62.585712 103.347 -40.9017
63.039234 103.312 -41.1022
63.496040 103.277 -41.3027
63.956161 103.241 -41.5032
64.419617 103.205 -41.7036
64.886421 103.168 -41.9041
65.356621 103.131 -42.1037
65.830215 103.093 -42.3014
66.307251 103.055 -42.4976
66.787743 103.016 -42.6926
67.271713 102.976 -42.8856
67.759193 102.937 -43.0763
68.250206 102.897 -43.2647
68.744774 102.857 -43.4507
69.242928 102.816 -43.6347
69.744690 102.775 -43.8166
70.250084 102.734 -43.9967
70.759148 102.693 -44.1750
71.271896 102.652 -44.3517
71.788361 102.611 -44.5267
72.308571 102.570 -44.7007
72.832550 102.529 -44.8743
73.360321 102.487 -45.0477
73.891922 102.446 -45.2209
74.427376 102.405 -45.3947
74.966705 102.364 -45.5695
75.509949 102.322 -45.7457
76.057121 102.280 -45.9239
76.608261 102.238 -46.1036
77.163399 102.195 -46.2852
77.722557 102.151 -46.4676
78.285767 102.107 -46.6499
78.853058 102.062 -46.8316
79.424461 102.016 -47.0125
80.000000 101.968 -47.1907
80.579712 101.920 -47.3641
81.163628 101.871 -47.5327
81.751770 101.822 -47.6950
82.344177 101.772 -47.8527
82.940880 101.723 -48.0069
83.541901 101.674 -48.1577
84.147285 101.625 -48.3050
84.757050 101.577 -48.4507
85.371231 101.529 -48.5964
85.989868 101.481 -48.7427
86.612984 101.433 -48.8913
87.240616 101.384 -49.0407
87.872803 101.335 -49.1899
88.509560 101.286 -49.3387
89.150940 101.236 -49.4868
89.796967 101.185 -49.6337
90.447670 101.134 -49.7788
91.103088 101.083 -49.9227
91.763260 101.032 -50.0657
92.428215 100.980 -50.2077
93.097992 100.928 -50.3487
93.772614 100.875 -50.4887
94.452133 100.822 -50.6285
95.136566 100.768 -50.7667
95.825966 100.713 -50.9027
96.520363 100.657 -51.0347
97.219788 100.601 -51.1605
97.924286 100.544 -51.2808
98.633881 100.487 -51.3950
99.348625 100.429 -51.5038
100.068542 100.372 -51.6067
100.793686 100.316 -51.7058
101.524078 100.260 -51.8022
102.259766 100.205 -51.8978
103.000778 100.151 -51.9950
103.747162 100.096 -52.0928
104.498962 100.041 -52.1906
105.256203 99.985 -52.2888
106.018929 99.930 -52.3882
106.787186 99.875 -52.4878
107.561012 99.818 -52.5868
108.340446 99.761 -52.6848
109.125526 99.704 -52.7810
109.916290 99.647 -52.8758
110.712791 99.590 -52.9695
111.515060 99.532 -53.0628
112.323143 99.474 -53.1569
113.137085 99.415 -53.2508
113.956924 99.356 -53.3445
114.782700 99.295 -53.4368
115.614464 99.234 -53.5271
116.452255 99.172 -53.6138
117.296112 99.109 -53.6957
118.146095 99.045 -53.7718
119.002228 98.980 -53.8412
119.864563 98.915 -53.9038
120.733154 98.850 -53.9591
121.608040 98.785 -54.0079
122.489258 98.721 -54.0504
123.376869 98.656 -54.0879
124.270905 98.592 -54.1212
125.171425 98.528 -54.1519
126.078468 98.465 -54.1821
126.992081 98.403 -54.2119
127.912323 98.340 -54.2424
128.839233 98.277 -54.2729
129.772842 98.214 -54.3036
130.713242 98.150 -54.3329
131.660431 98.085 -54.3597
132.614502 98.019 -54.3829
133.575485 97.953 -54.4016
134.543427 97.886 -54.4150
135.518387 97.819 -54.4218
136.500412 97.752 -54.4220
137.489548 97.685 -54.4146
138.485855 97.617 -54.4010
139.489380 97.550 -54.3822
140.500168 97.484 -54.3591
141.518295 97.418 -54.3334
142.543793 97.352 -54.3041
143.576721 97.287 -54.2698
144.617142 97.222 -54.2331
145.665100 97.158 -54.1960
146.720642 97.095 -54.1591
147.783844 97.032 -54.1243
148.854752 96.969 -54.0901
149.933411 96.905 -54.0551
151.019897 96.840 -54.0201
152.114243 96.777 -53.9857
153.216522 96.713 -53.9511
154.326797 96.648 -53.9166
155.445114 96.582 -53.8801
156.571533 96.516 -53.8397
157.706116 96.448 -53.7951
158.848923 96.380 -53.7452
160.000000 96.311 -53.6901
161.159424 96.243 -53.6298
162.327255 96.174 -53.5642
163.503540 96.106 -53.4927
164.688354 96.037 -53.4162
165.881760 95.968 -53.3354
167.083801 95.899 -53.2502
168.294571 95.831 -53.1609
169.514099 95.762 -53.0672
170.742462 95.693 -52.9689
171.979736 95.624 -52.8663
173.225967 95.556 -52.7598
174.481232 95.487 -52.6493
175.745605 95.418 -52.5344
177.019119 95.349 -52.4153
178.301880 95.281 -52.2919
179.593933 95.212 -52.1643
180.895340 95.143 -52.0325
182.206177 95.074 -51.8963
183.526520 95.006 -51.7560
184.856430 94.937 -51.6113
186.195984 94.868 -51.4622
187.545227 94.799 -51.3084
188.904266 94.731 -51.1498
190.273132 94.662 -50.9864
191.651932 94.593 -50.8184
193.040726 94.524 -50.6455
194.439575 94.456 -50.4676
195.848572 94.387 -50.2845
197.267761 94.318 -50.0959
198.697250 94.249 -49.9015
200.137085 94.181 -49.7012
201.587372 94.112 -49.4945
203.048157 94.043 -49.2812
204.519531 93.974 -49.0607
206.001556 93.906 -48.8325
207.494324 93.838 -48.5966
208.997925 93.770 -48.3524
210.512405 93.703 -48.1006
212.037857 93.637 -47.8414
213.574371 93.571 -47.5756
215.122025 93.507 -47.3042
216.680893 93.443 -47.0278
218.251053 93.380 -46.7469
219.832581 93.318 -46.4628
221.425583 93.257 -46.1769
223.030121 93.197 -45.8887
224.646286 93.137 -45.5985
226.274170 93.078 -45.3058
227.913849 93.019 -45.0104
229.565399 92.960 -44.7118
231.228928 92.902 -44.4091
232.904510 92.843 -44.1019
234.592224 92.785 -43.7895
236.292191 92.727 -43.4718
238.004456 92.669 -43.1487
239.729126 92.612 -42.8199
241.466309 92.555 -42.4855
243.216080 92.499 -42.1449
244.978516 92.443 -41.7976
246.753738 92.388 -41.4430
248.541809 92.333 -41.0811
250.342850 92.278 -40.7111
252.156937 92.225 -40.3318
253.984161 92.172 -39.9441
255.824646 92.121 -39.5484
257.678467 92.071 -39.1450
259.545685 92.022 -38.7343
261.426483 91.975 -38.3171
263.320862 91.930 -37.8945
265.229004 91.887 -37.4662
267.150970 91.844 -37.0327
269.086853 91.802 -36.5923
271.036774 91.763 -36.1416
273.000824 91.726 -35.6854
274.979095 91.693 -35.2270
276.971710 91.662 -34.7674
278.978760 91.634 -34.3080
281.000336 91.608 -33.8512
283.036591 91.586 -33.3987
285.087585 91.567 -32.9543
287.153442 91.551 -32.5227
289.234283 91.537 -32.1041
291.330200 91.524 -31.7015
293.441284 91.511 -31.3120
295.567688 91.499 -30.9341
297.709503 91.488 -30.5670
299.866821 91.476 -30.2098
302.039795 91.464 -29.8610
304.228485 91.452 -29.5188
306.433044 91.440 -29.1829
308.653595 91.429 -28.8528
310.890228 91.417 -28.5279
313.143066 91.405 -28.2077
315.412231 91.393 -27.8919
317.697845 91.381 -27.5800
320.000000 91.369 -27.2719
322.318848 91.357 -26.9673
324.654510 91.345 -26.6660
327.007080 91.334 -26.3676
329.376709 91.322 -26.0719
331.763519 91.310 -25.7786
334.167603 91.298 -25.4879
336.589142 91.286 -25.2002
339.028198 91.274 -24.9148
341.484924 91.263 -24.6309
343.959473 91.251 -24.3488
346.451935 91.239 -24.0685
348.962463 91.227 -23.7898
351.491211 91.215 -23.5125
354.038239 91.203 -23.2368
356.603760 91.191 -22.9628
359.187866 91.179 -22.6898
361.790680 91.168 -22.4174
364.412354 91.156 -22.1458
367.053040 91.144 -21.8754
369.712860 91.132 -21.6058
372.391968 91.120 -21.3371
375.090454 91.108 -21.0688
377.808533 91.097 -20.8007
380.546265 91.085 -20.5328
383.303864 91.073 -20.2649
386.081451 91.061 -19.9968
388.879150 91.049 -19.7284
391.697144 91.037 -19.4598
394.535522 91.026 -19.1912
397.394501 91.014 -18.9218
400.274170 91.002 -18.6511
403.174744 90.990 -18.3789
406.096313 90.978 -18.1045
409.039062 90.966 -17.8279
412.003113 90.954 -17.5489
414.988647 90.943 -17.2669
417.995850 90.932 -16.9812
421.024811 90.921 -16.6919
424.075714 90.911 -16.3987
427.148743 90.902 -16.1029
430.244049 90.894 -15.8056
433.361786 90.888 -15.5080
436.502106 90.883 -15.2110
439.665161 90.878 -14.9159
442.851166 90.875 -14.6239
446.060242 90.872 -14.3359
449.292572 90.871 -14.0533
452.548340 90.870 -13.7759
455.827698 90.870 -13.5039
459.130798 90.870 -13.2369
462.457855 90.870 -12.9742
465.809021 90.870 -12.7158
469.184448 90.870 -12.4615
472.584381 90.870 -12.2108
476.008911 90.870 -11.9630
479.458252 90.870 -11.7178
482.932617 90.870 -11.4746
486.432159 90.870 -11.2338
489.957031 90.870 -10.9957
493.507477 90.870 -10.7597
497.083618 90.870 -10.5253
500.685699 90.870 -10.2928
504.313873 90.870 -10.0624
507.968323 90.870 -9.8337
511.649292 90.870 -9.6065
515.356934 90.870 -9.3807
519.091370 90.870 -9.1564
522.852966 90.870 -8.9337
526.641724 90.870 -8.7130
530.458008 90.870 -8.4937
534.301941 90.870 -8.2750
538.173706 90.870 -8.0577
542.073547 90.870 -7.8425
546.001648 90.870 -7.6287
549.958191 90.870 -7.4155
553.943420 90.870 -7.2037
557.957520 90.870 -6.9940
562.000671 90.870 -6.7857
566.073181 90.870 -6.5779
570.175171 90.870 -6.3717
574.306885 90.870 -6.1678
578.468567 90.870 -5.9657
582.660400 90.870 -5.7647
586.882568 90.870 -5.5657
591.135376 90.870 -5.3694
595.419006 90.870 -5.1757
599.733643 90.870 -4.9842
604.079590 90.870 -4.7966
608.456970 90.870 -4.6144
612.866089 90.870 -4.4376
617.307190 90.869 -4.2669
621.780457 90.866 -4.1015
626.286133 90.863 -3.9421
630.824463 90.858 -3.7845
635.395691 90.850 -3.6271
640.000000 90.839 -3.4636
644.637695 90.826 -3.2867
649.309021 90.811 -3.0977
654.014160 90.797 -2.8950
658.753418 90.783 -2.6797
663.527039 90.769 -2.4520
668.335205 90.756 -2.2138
673.178284 90.745 -1.9650
678.056396 90.735 -1.7128
682.969849 90.729 -1.4648
687.918945 90.723 -1.2208
692.903870 90.717 -0.9854
697.924927 90.709 -0.7528
702.982422 90.700 -0.5202
708.076477 90.689 -0.2839
713.207520 90.677 -0.0400
718.375732 90.663 0.2141
723.581360 90.649 0.4824
728.824707 90.635 0.7640
734.106079 90.622 1.0600
739.425720 90.610 1.3679
744.783936 90.601 1.6866
750.180908 90.593 2.0118
755.617065 90.588 2.3394
761.092529 90.584 2.6678
766.607727 90.581 2.9938
772.162903 90.580 3.3178
777.758301 90.580 3.6389
783.394287 90.580 3.9579
789.071045 90.580 4.2751
794.789001 90.580 4.5919
800.548340 90.580 4.9096
806.349487 90.580 5.2289
812.192627 90.580 5.5503
818.078125 90.580 5.8748
824.006226 90.580 6.2029
829.977295 90.580 6.5358
835.991699 90.580 6.8747
842.049622 90.580 7.2207
848.151428 90.580 7.5752
854.297485 90.581 7.9386
860.488098 90.583 8.3124
866.723572 90.586 8.6956
873.004211 90.590 9.0888
879.330322 90.597 9.4886
885.702332 90.607 9.8924
892.120483 90.620 10.2976
898.585144 90.635 10.6998
905.096680 90.651 11.1005
911.655396 90.668 11.5005
918.261597 90.687 11.8975
924.915710 90.709 12.2903
931.618042 90.733 12.6766
938.368896 90.757 13.0518
945.168762 90.782 13.4216
952.017822 90.806 13.7915
958.916504 90.831 14.1586
965.865234 90.859 14.5221
972.864319 90.888 14.8817
979.914062 90.915 15.2357
987.014954 90.943 15.5877
994.167236 90.972 15.9416
1001.371399 91.002 16.2947
1008.627747 91.033 16.6454
1015.936646 91.066 16.9945
1023.298584 91.098 17.3436
1030.713867 91.132 17.6899
1038.182739 91.169 18.0319
1045.705933 91.208 18.3676
1053.283447 91.246 18.6940
1060.916016 91.286 19.0127
1068.603882 91.326 19.3246
1076.347412 91.368 19.6288
1084.147095 91.410 19.9239
1092.003296 91.452 20.2110
1099.916382 91.493 20.4901
1107.886841 91.535 20.7629
1115.915039 91.576 21.0304
1124.001343 91.618 21.2940
1132.146362 91.658 21.5561
1140.350342 91.699 21.8150
1148.613770 91.741 22.0695
1156.937134 91.783 22.3209
1165.320801 91.823 22.5699
1173.765137 91.864 22.8169
1182.270752 91.906 23.0634
1190.838013 91.949 23.3070
1199.467285 91.991 23.5454
1208.159180 92.033 23.7801
1216.913940 92.075 24.0121
1225.732178 92.117 24.2412
1234.614380 92.159 24.4665
1243.560913 92.200 24.6902
1252.572266 92.240 24.9132
1261.648926 92.280 25.1381
1270.791382 92.318 25.3670
1280.000000 92.356 25.6021
1289.275391 92.393 25.8459
1298.618042 92.431 26.0999
1308.028320 92.468 26.3657
1317.506836 92.507 26.6448
1327.054077 92.546 26.9410
1336.670410 92.589 27.2488
1346.356567 92.636 27.5657
1356.112793 92.688 27.8858
1365.939697 92.743 28.2033
1375.837891 92.802 28.5147
1385.807739 92.865 28.8170
1395.849854 92.932 29.1039
1405.964844 93.004 29.3685
1416.152954 93.078 29.6092
1426.415039 93.152 29.8202
1436.751465 93.226 30.0063
1447.162720 93.299 30.1692
1457.649414 93.372 30.3125
1468.212158 93.442 30.4394
1478.851440 93.511 30.5526
1489.567871 93.578 30.6551
1500.361816 93.645 30.7487
1511.234131 93.709 30.8355
1522.185059 93.772 30.9176
1533.215454 93.834 30.9984
1544.325806 93.895 31.0767
1555.516602 93.956 31.1524
1566.788574 94.017 31.2257
1578.142090 94.076 31.2961
1589.578003 94.135 31.3647
1601.096680 94.193 31.4331
1612.698975 94.252 31.4997
1624.385254 94.311 31.5629
1636.156250 94.369 31.6247
1648.012451 94.425 31.6862
1659.954590 94.481 31.7498
1671.983398 94.536 31.8200
1684.099243 94.593 31.8917
1696.302856 94.652 31.9613
1708.594971 94.712 32.0277
1720.976196 94.770 32.0872
1733.447144 94.829 32.1438
1746.008423 94.887 32.2012
1758.660645 94.945 32.2558
1771.404663 95.005 32.3046
1784.240967 95.065 32.3488
1797.170288 95.122 32.3865
1810.193359 95.179 32.4238
1823.310791 95.234 32.4676
1836.523193 95.289 32.5148
1849.831421 95.346 32.5651
1863.236084 95.404 32.6178
1876.737793 95.460 32.6715
1890.337524 95.516 32.7277
1904.035645 95.573 32.7881
1917.833008 95.631 32.8507
1931.730469 95.689 32.9135
1945.728638 95.747 32.9797
1959.828125 95.804 33.0520
1974.029907 95.862 33.1307
1988.334473 95.922 33.2176
2002.742798 95.984 33.3106
2017.255493 96.047 33.4089
2031.873291 96.113 33.5096
2046.597168 96.181 33.6112
2061.427734 96.253 33.7096
2076.365479 96.327 33.8006
2091.411865 96.404 33.8827
2106.566895 96.482 33.9516
2121.832031 96.561 34.0108
2137.207764 96.640 34.0628
2152.694824 96.721 34.1058
2168.294189 96.803 34.1388
2184.006592 96.886 34.1619
2199.832764 96.969 34.1740
2215.773682 97.052 34.1790
2231.830078 97.134 34.1806
2248.002686 97.217 34.1790
2264.292725 97.300 34.1768
2280.700684 97.386 34.1710
2297.227539 97.473 34.1593
2313.874268 97.563 34.1421
2330.641602 97.652 34.1194
2347.530273 97.743 34.0901
2364.541504 97.836 34.0542
2381.676025 97.931 34.0092
2398.934570 98.026 33.9529
2416.318359 98.124 33.8853
2433.827881 98.223 33.8058
2451.464355 98.324 33.7144
2469.228760 98.424 33.6098
2487.121826 98.525 33.4955
2505.144531 98.626 33.3758
2523.297852 98.729 33.2466
2541.582764 98.836 33.1062
2560.000000 98.945 32.9517
2578.550781 99.054 32.7783
2597.236084 99.163 32.5899
2616.056641 99.274 32.3910
2635.013672 99.387 32.1750
2654.108154 99.504 31.9359
2673.340820 99.621 31.6752
2692.713135 99.737 31.3913
2712.225586 99.852 31.0875
2731.879395 99.971 30.7685
2751.675781 100.090 30.4276
2771.615479 100.212 30.0590
2791.699707 100.333 29.6638
2811.929688 100.454 29.2422
2832.305908 100.574 28.7922
2852.830078 100.697 28.3120
2873.502930 100.818 27.8013
2894.325439 100.937 27.2579
2915.298828 101.053 26.6857
2936.424316 101.168 26.0883
2957.702881 101.282 25.4638
2979.135742 101.393 24.8107
3000.723633 101.502 24.1310
3022.468262 101.607 23.4262
3044.370117 101.709 22.6974
3066.430908 101.808 21.9459
3088.651611 101.905 21.1715
3111.033203 101.996 20.3730
3133.577148 102.083 19.5549
3156.284180 102.164 18.7209
3179.156006 102.241 17.8731
3202.193359 102.313 17.0119
3225.397949 102.379 16.1461
3248.770508 102.436 15.2833
3272.312500 102.488 14.4278
3296.024902 102.537 13.5863
3319.909180 102.582 12.7598
3343.966797 102.623 11.9506
3368.198486 102.661 11.1617
3392.605713 102.697 10.3984
3417.189941 102.733 9.6554
3441.952393 102.771 8.9301
3466.894287 102.810 8.2202
3492.016846 102.849 7.5240
3517.321289 102.891 6.8372
3542.809326 102.937 6.1580
3568.481934 102.987 5.4762
3594.340576 103.041 4.7826
3620.386719 103.100 4.0714
3646.621582 103.161 3.3349
3673.046387 103.224 2.5697
3699.662842 103.289 1.7716
3726.472168 103.355 0.9360
3753.475586 103.422 0.0564
3780.675049 103.488 -0.8658
3808.071289 103.549 -1.8327
3835.666016 103.607 -2.8401
3863.460938 103.660 -3.8852
3891.457275 103.708 -4.9658
3919.656250 103.751 -6.0804
3948.059814 103.787 -7.2246
3976.668945 103.815 -8.3956
4005.485596 103.836 -9.5871
4034.510986 103.849 -10.7935
4063.746582 103.853 -12.0102
4093.194336 103.849 -13.2330
4122.855469 103.837 -14.4560
4152.730957 103.815 -15.6741
4182.823730 103.785 -16.8803
4213.133789 103.747 -18.0673
4243.664062 103.700 -19.2315
4274.415527 103.647 -20.3670
4305.389648 103.587 -21.4727
4336.588379 103.523 -22.5448
4368.013184 103.454 -23.5851
4399.665527 103.382 -24.5948
4431.547363 103.305 -25.5723
4463.660156 103.224 -26.5171
4496.005371 103.139 -27.4275
4528.585449 103.052 -28.3006
4561.401367 102.963 -29.1391
4594.455078 102.873 -29.9456
4627.748535 102.781 -30.7173
4661.283203 102.686 -31.4516
4695.060547 102.589 -32.1497
4729.083008 102.494 -32.8113
4763.352051 102.399 -33.4391
4797.869141 102.304 -34.0360
4832.636719 102.209 -34.6012
4867.655762 102.116 -35.1343
4902.928711 102.023 -35.6376
4938.457520 101.933 -36.1143
4974.243652 101.843 -36.5619
5010.289062 101.754 -36.9786
5046.595703 101.666 -37.3651
5083.165527 101.583 -37.7194
5120.000000 101.503 -38.0484
5157.101562 101.429 -38.3567
5194.472168 101.358 -38.6496
5232.113281 101.293 -38.9332
5270.027344 101.232 -39.2096
5308.216309 101.175 -39.4820
5346.681641 101.122 -39.7527
5385.426270 101.074 -40.0240
5424.451172 101.029 -40.2986
5463.758789 100.987 -40.5815
5503.351562 100.947 -40.8676
5543.230957 100.908 -41.1528
5583.399414 100.871 -41.4396
5623.859375 100.841 -41.7266
5664.611816 100.814 -42.0215
5705.660156 100.791 -42.3305
5747.005859 100.772 -42.6563
5788.650879 100.757 -43.0017
5830.597656 100.745 -43.3720
5872.848633 100.737 -43.7724
5915.405762 100.731 -44.2067
5958.271484 100.727 -44.6801
6001.447266 100.723 -45.1932
6044.936523 100.719 -45.7489
6088.740234 100.714 -46.3459
6132.861816 100.706 -46.9852
6177.303223 100.694 -47.6635
6222.066406 100.678 -48.3772
6267.154297 100.658 -49.1281
6312.568359 100.634 -49.9181
6358.312012 100.604 -50.7438
6404.386719 100.565 -51.6047
6450.795898 100.516 -52.4944
6497.541016 100.459 -53.4069
6544.625000 100.390 -54.3393
6592.049805 100.311 -55.2923
6639.818359 100.218 -56.2491
6687.933594 100.105 -57.2024
6736.396973 99.974 -58.1234
6785.211426 99.823 -58.9911
6834.379883 99.652 -59.7742
6883.904785 99.460 -60.4458
6933.788574 99.249 -60.9717
6984.033691 99.021 -61.3152
7034.642578 98.781 -61.4568
7085.618652 98.536 -61.3642
7136.963867 98.293 -61.0392
7188.681152 98.059 -60.4637
7240.773438 97.846 -59.6655
7293.243164 97.664 -58.6484
7346.092773 97.521 -57.4673
7399.325684 97.428 -56.1562
7452.944336 97.387 -54.7820
7506.951172 97.405 -53.4040
7561.350098 97.476 -52.0796
7616.142578 97.599 -50.8714
7671.332031 97.768 -49.8229
7726.921875 97.977 -48.9903
7782.914551 98.216 -48.3974
7839.312500 98.474 -48.0871
7896.119629 98.745 -48.0574
7953.337891 99.017 -48.3268
8010.971191 99.286 -48.8764
8069.021973 99.541 -49.7038
8127.493164 99.779 -50.7777
8186.388672 99.993 -52.0772
8245.710938 100.182 -53.5687
8305.461914 100.343 -55.2222
8365.647461 100.475 -57.0063
8426.267578 100.577 -58.8887
8487.328125 100.649 -60.8406
8548.831055 100.690 -62.8299
8610.779297 100.704 -64.8334
8673.176758 100.691 -66.8208
8736.026367 100.654 -68.7805
8799.331055 100.597 -70.6934
8863.094727 100.520 -72.5513
8927.320312 100.426 -74.3408
8992.010742 100.317 -76.0591
9057.170898 100.197 -77.6974
9122.802734 100.068 -79.2609
9188.910156 99.933 -80.7506
9255.497070 99.793 -82.1715
9322.566406 99.649 -83.5241
9390.121094 99.505 -84.8223
9458.166016 99.365 -86.0736
9526.704102 99.229 -87.2976
9595.738281 99.097 -88.5144
9665.273438 98.967 -89.7296
9735.311523 98.836 -90.9499
9805.857422 98.707 -92.1912
9876.915039 98.584 -93.4663
9948.487305 98.462 -94.7907
10020.578125 98.337 -96.1848
10093.191406 98.206 -97.6469
10166.331055 98.066 -99.1829
10240.000000 97.916 -100.7903
10314.203125 97.752 -102.4724
10388.944336 97.571 -104.2176
10464.226562 97.369 -106.0240
10540.054688 97.141 -107.8660
10616.432617 96.884 -109.7287
10693.363281 96.595 -111.5771
10770.852539 96.273 -113.3836
10848.902344 95.917 -115.1129
10927.517578 95.525 -116.7353
11006.703125 95.096 -118.2065
11086.461914 94.630 -119.4852
11166.798828 94.131 -120.5329
11247.718750 93.600 -121.3066
11329.223633 93.042 -121.7784
11411.320312 92.462 -121.9124
11494.011719 91.865 -121.6912
11577.301758 91.256 -121.0845
11661.195312 90.645 -120.0956
11745.697266 90.044 -118.7053
11830.811523 89.464 -116.9515
11916.542969 88.918 -114.8449
12002.894531 88.416 -112.4490
12089.873047 87.970 -109.8076
12177.480469 87.585 -106.9904
12265.723633 87.270 -104.0594
12354.606445 87.023 -101.0811
12444.132812 86.848 -98.1273
12534.308594 86.733 -95.2453
12625.136719 86.676 -92.5013
12716.624023 86.664 -89.9112
12808.773438 86.686 -87.5163
12901.591797 86.735 -85.3060
12995.082031 86.800 -83.2900
13089.250000 86.879 -81.4488
13184.099609 86.962 -79.7732
13279.636719 87.051 -78.2416
13375.867188 87.139 -76.8358
13472.793945 87.228 -75.5371
13570.422852 87.316 -74.3236
13668.759766 87.404 -73.1856
13767.809570 87.495 -72.1089
13867.577148 87.586 -71.0858
13968.067383 87.679 -70.1050
14069.285156 87.774 -69.1623
14171.237305 87.876 -68.2476
14273.927734 87.985 -67.3676
14377.362305 88.104 -66.5216
14481.546875 88.233 -65.7210
14586.486328 88.375 -64.9734
14692.185547 88.528 -64.2888
14798.651367 88.693 -63.6744
14905.888672 88.871 -63.1478
15013.902344 89.064 -62.7239
15122.700195 89.268 -62.4174
15232.285156 89.480 -62.2448
15342.664062 89.699 -62.2147
15453.843750 89.925 -62.3375
15565.829102 90.155 -62.6240
15678.625000 90.384 -63.0886
15792.239258 90.610 -63.7310
15906.675781 90.828 -64.5551
16021.942383 91.036 -65.5620
16138.043945 91.235 -66.7569
16254.986328 91.416 -68.1315
16372.777344 91.573 -69.6894
16491.421875 91.704 -71.4011
16610.923828 91.805 -73.2469
16731.294922 91.874 -75.2004
16852.535156 91.909 -77.2411
16974.656250 91.909 -79.3312
17097.662109 91.868 -81.4375
17221.558594 91.791 -83.5254
17346.353516 91.679 -85.5564
17472.052734 91.535 -87.5094
17598.662109 91.358 -89.3576
17726.189453 91.151 -91.0804
17854.640625 90.919 -92.6499
17984.021484 90.665 -94.0616
18114.341797 90.396 -95.3062
18245.605469 90.110 -96.3715
18377.820312 89.806 -97.2448
18510.994141 89.493 -97.9177
18645.132812 89.175 -98.3735
18780.242188 88.857 -98.6232
18916.332031 88.544 -98.6671
19053.408203 88.240 -98.5213
19191.476562 87.949 -98.1893
19330.546875 87.678 -97.7099
19470.623047 87.438 -97.1096
19611.714844 87.226 -96.4300
19753.830078 87.044 -95.7132
19896.974609 86.888 -94.9844
