* Measurement data measured by REW V5.20.13
* Source: C:\Users\kurin\Desktop\Targets and Curves\Resolve\Img\Files\RED GRAS Narrow Bore_SPL.txt
* Format: Comma/Tab/Space delimited data
* Dated: Aug 15, 2023 12:21:22 AM
* REW Settings:
*  C-weighting compensation: Off
*  Target level: 75.0 dB
* Note: ; Measurement imported from C:\Users\kurin\Desktop\Targets and Curves\Resolve\Img\Files\RED GRAS Narrow Bore_SPL.txt Format: Comma/Tab/Space delimited data 623 values loaded, 5 Hz to 39,792 Hz log spaced 
* Measurement: RED GRAS Narrow Bore_SPL
* Smoothing: 1/48 octave
* Frequency Step: 1/96 octave
* Start Frequency: 5.000 Hz
*
* Freq(Hz) SPL(dB) Phase(degrees)
5.000000 86.457 4.7890
5.036232 86.459 4.7828
5.072727 86.461 4.7760
5.109486 86.463 4.7681
5.146511 86.466 4.7590
5.183805 86.470 4.7481
5.221369 86.474 4.7360
5.259205 86.478 4.7233
5.297316 86.482 4.7100
5.335702 86.487 4.6961
5.374367 86.492 4.6820
5.413311 86.497 4.6681
5.452538 86.501 4.6540
5.492050 86.506 4.6396
5.531847 86.510 4.6250
5.571934 86.514 4.6106
5.612310 86.519 4.5960
5.652979 86.523 4.5811
5.693943 86.528 4.5660
5.735204 86.533 4.5511
5.776763 86.538 4.5360
5.818624 86.543 4.5206
5.860788 86.547 4.5050
5.903258 86.551 4.4895
5.946035 86.556 4.4740
5.989123 86.560 4.4586
6.032523 86.565 4.4430
6.076237 86.570 4.4271
6.120268 86.575 4.4110
6.164618 86.580 4.3951
6.209289 86.584 4.3790
6.254284 86.589 4.3626
6.299605 86.593 4.3460
6.345255 86.597 4.3296
6.391235 86.602 4.3130
6.437549 86.607 4.2961
6.484198 86.612 4.2790
6.531185 86.617 4.2615
6.578513 86.621 4.2440
6.626183 86.625 4.2271
6.674199 86.630 4.2100
6.722563 86.634 4.1921
6.771278 86.639 4.1740
6.820345 86.643 4.1566
6.869768 86.648 4.1390
6.919549 86.653 4.1206
6.969691 86.658 4.1020
7.020196 86.663 4.0841
7.071068 86.667 4.0660
7.122308 86.672 4.0471
7.173919 86.676 4.0280
7.225904 86.680 4.0090
7.278266 86.685 3.9900
7.331007 86.690 3.9711
7.384131 86.695 3.9520
7.437639 86.700 3.9326
7.491535 86.704 3.9130
7.545822 86.708 3.8931
7.600502 86.713 3.8730
7.655579 86.717 3.8531
7.711054 86.722 3.8330
7.766932 86.727 3.8126
7.823214 86.732 3.7920
7.879904 86.737 3.7716
7.937005 86.741 3.7510
7.994520 86.745 3.7301
8.052452 86.750 3.7090
8.110803 86.755 3.6876
8.169578 86.759 3.6660
8.228777 86.763 3.6446
8.288406 86.768 3.6230
8.348468 86.773 3.6011
8.408964 86.778 3.5790
8.469899 86.783 3.5566
8.531276 86.787 3.5340
8.593097 86.791 3.5116
8.655366 86.796 3.4890
8.718086 86.800 3.4661
8.781260 86.805 3.4430
8.844893 86.810 3.4201
8.908987 86.815 3.3970
8.973545 86.820 3.3736
9.038571 86.824 3.3500
9.104069 86.828 3.3261
9.170040 86.833 3.3020
9.236490 86.838 3.2776
9.303422 86.842 3.2530
9.370838 86.846 3.2286
9.438744 86.851 3.2040
9.507140 86.856 3.1786
9.576033 86.861 3.1530
9.645425 86.866 3.1281
9.715320 86.870 3.1030
9.785721 86.874 3.0771
9.856632 86.879 3.0510
9.928058 86.883 3.0251
10.000000 86.888 2.9990
10.072464 86.893 2.9726
10.145453 86.898 2.9460
10.218971 86.903 2.9191
10.293022 86.907 2.8920
10.367610 86.911 2.8646
10.442738 86.916 2.8370
10.518411 86.920 2.8091
10.594631 86.925 2.7810
10.671404 86.930 2.7531
10.748734 86.935 2.7250
10.826623 86.940 2.6966
10.905077 86.944 2.6680
10.984100 86.949 2.6391
11.063695 86.953 2.6100
11.143867 86.957 2.5806
11.224621 86.962 2.5510
11.305959 86.966 2.5211
11.387886 86.971 2.4910
11.470407 86.976 2.4606
11.553527 86.981 2.4300
11.637249 86.986 2.3996
11.721577 86.990 2.3690
11.806517 86.994 2.3377
11.892071 86.999 2.3060
11.978246 87.003 2.2746
12.065045 87.008 2.2430
12.152473 87.013 2.2112
12.240536 87.018 2.1790
12.329235 87.023 2.1461
12.418578 87.027 2.1130
12.508568 87.032 2.0801
12.599211 87.036 2.0470
12.690510 87.040 2.0137
12.782471 87.045 1.9800
12.875097 87.050 1.9462
12.968395 87.055 1.9120
13.062370 87.060 1.8777
13.157025 87.064 1.8430
13.252366 87.068 1.8076
13.348398 87.073 1.7720
13.445127 87.077 1.7366
13.542556 87.082 1.7010
13.640691 87.086 1.6652
13.739536 87.091 1.6290
13.839099 87.096 1.5926
13.939383 87.101 1.5560
14.040393 87.106 1.5192
14.142136 87.110 1.4820
14.244616 87.115 1.4441
14.347837 87.119 1.4060
14.451808 87.123 1.3681
14.556532 87.128 1.3300
14.662014 87.133 1.2917
14.768262 87.138 1.2530
14.875278 87.143 1.2137
14.983070 87.147 1.1740
15.091644 87.151 1.1347
15.201005 87.156 1.0950
15.311157 87.160 1.0547
15.422109 87.165 1.0140
15.533863 87.170 0.9737
15.646428 87.175 0.9330
15.759809 87.180 0.8917
15.874010 87.184 0.8500
15.989040 87.188 0.8087
16.104904 87.193 0.7670
16.221605 87.197 0.7247
16.339155 87.202 0.6821
16.457554 87.206 0.6396
16.576813 87.211 0.5970
16.696936 87.216 0.5541
16.817928 87.221 0.5110
16.939798 87.226 0.4681
17.062551 87.230 0.4251
17.186193 87.234 0.3815
17.310732 87.239 0.3380
17.436172 87.243 0.2950
17.562521 87.248 0.2520
17.689787 87.253 0.2085
17.817974 87.258 0.1650
17.947090 87.263 0.1218
18.077143 87.267 0.0790
18.208138 87.271 0.0368
18.340080 87.276 -0.0050
18.472980 87.281 -0.0463
18.606844 87.285 -0.0870
18.741676 87.289 -0.1267
18.877487 87.294 -0.1650
19.014280 87.298 -0.2013
19.152065 87.303 -0.2350
19.290850 87.308 -0.2654
19.430639 87.313 -0.2920
19.571442 87.318 -0.3135
19.713264 87.325 -0.3310
19.856115 87.333 -0.3437
20.000000 87.343 -0.3560
20.144928 87.356 -0.3705
20.290907 87.371 -0.3910
20.437943 87.388 -0.4210
20.586044 87.407 -0.4640
20.735220 87.428 -0.5239
20.885475 87.449 -0.6029
21.036821 87.471 -0.7060
21.189262 87.491 -0.8288
21.342808 87.508 -0.9703
21.497467 87.523 -1.1258
21.653246 87.535 -1.2922
21.810154 87.543 -1.4638
21.968201 87.547 -1.6355
22.127390 87.548 -1.8018
22.287735 87.545 -1.9550
22.449242 87.541 -2.0959
22.611917 87.536 -2.2224
22.775772 87.531 -2.3359
22.940815 87.525 -2.4367
23.107054 87.520 -2.5259
23.274498 87.516 -2.6033
23.443153 87.512 -2.6719
23.613033 87.510 -2.7341
23.784142 87.509 -2.7910
23.956491 87.508 -2.8446
24.130091 87.509 -2.8949
24.304947 87.511 -2.9415
24.481071 87.515 -2.9869
24.658470 87.521 -3.0322
24.837156 87.529 -3.0819
25.017136 87.538 -3.1412
25.198421 87.549 -3.2099
25.381020 87.560 -3.2899
25.564941 87.572 -3.3809
25.750195 87.583 -3.4842
25.936790 87.594 -3.5979
26.124741 87.604 -3.7219
26.314051 87.612 -3.8518
26.504732 87.617 -3.9841
26.696796 87.621 -4.1158
26.890253 87.624 -4.2424
27.085112 87.626 -4.3649
27.281382 87.628 -4.4816
27.479073 87.631 -4.5958
27.678198 87.635 -4.7095
27.878765 87.640 -4.8248
28.080786 87.646 -4.9445
28.284271 87.652 -5.0688
28.489231 87.658 -5.1993
28.695675 87.663 -5.3358
28.903616 87.668 -5.4788
29.113064 87.673 -5.6278
29.324028 87.677 -5.7832
29.536524 87.680 -5.9428
29.750557 87.681 -6.1046
29.966141 87.681 -6.2678
30.183289 87.680 -6.4317
30.402010 87.678 -6.5948
30.622314 87.675 -6.7561
30.844217 87.670 -6.9138
31.067726 87.665 -7.0654
31.292856 87.659 -7.2118
31.519617 87.654 -7.3531
31.748020 87.648 -7.4898
31.978081 87.642 -7.6223
32.209808 87.637 -7.7518
32.443211 87.633 -7.8790
32.678310 87.629 -8.0068
32.915108 87.627 -8.1380
33.153625 87.625 -8.2738
33.393871 87.623 -8.4175
33.635857 87.620 -8.5668
33.879597 87.616 -8.7211
34.125103 87.611 -8.8778
34.372387 87.605 -9.0345
34.621464 87.597 -9.1898
34.872345 87.589 -9.3423
35.125042 87.579 -9.4898
35.379574 87.568 -9.6293
35.635948 87.557 -9.7618
35.894180 87.547 -9.8860
36.154285 87.538 -10.0058
36.416275 87.531 -10.1246
36.680161 87.524 -10.2438
36.945961 87.518 -10.3649
37.213688 87.512 -10.4908
37.483353 87.509 -10.6252
37.754974 87.505 -10.7678
38.028561 87.499 -10.9207
38.304131 87.492 -11.0798
38.581699 87.484 -11.2428
38.861279 87.475 -11.4068
39.142883 87.463 -11.5696
39.426529 87.448 -11.7258
39.712231 87.431 -11.8685
40.000000 87.414 -11.9998
40.289856 87.399 -12.1183
40.581814 87.384 -12.2278
40.875885 87.370 -12.3310
41.172089 87.358 -12.4299
41.470440 87.347 -12.5256
41.770950 87.338 -12.6238
42.073643 87.333 -12.7306
42.378525 87.328 -12.8458
42.685616 87.322 -12.9723
42.994934 87.315 -13.1078
43.306492 87.309 -13.2517
43.620308 87.302 -13.4018
43.936401 87.292 -13.5564
44.254780 87.281 -13.7128
44.575470 87.269 -13.8675
44.898483 87.257 -14.0208
45.223835 87.243 -14.1714
45.551544 87.229 -14.3198
45.881630 87.215 -14.4658
46.214108 87.200 -14.6098
46.548996 87.186 -14.7518
46.886307 87.171 -14.8928
47.226067 87.157 -15.0336
47.568283 87.142 -15.1748
47.912983 87.127 -15.3168
48.260181 87.111 -15.4598
48.609894 87.096 -15.6038
48.962143 87.080 -15.7488
49.316940 87.064 -15.8947
49.674313 87.047 -16.0408
50.034271 87.029 -16.1869
50.396843 87.010 -16.3308
50.762039 86.990 -16.4697
51.129883 86.969 -16.6048
51.500389 86.950 -16.7358
51.873581 86.930 -16.8638
52.249481 86.910 -16.9895
52.628101 86.889 -17.1128
53.009464 86.869 -17.2330
53.393593 86.850 -17.3528
53.780506 86.831 -17.4749
54.170223 86.812 -17.5988
54.562763 86.793 -17.7259
54.958145 86.773 -17.8538
55.356396 86.752 -17.9809
55.757530 86.730 -18.1068
56.161572 86.708 -18.2311
56.568542 86.686 -18.3528
56.978462 86.663 -18.4702
57.391350 86.640 -18.5848
57.807232 86.617 -18.6974
58.226128 86.594 -18.8078
58.648056 86.571 -18.9160
59.073048 86.547 -19.0218
59.501114 86.523 -19.1249
59.932281 86.500 -19.2258
60.366577 86.477 -19.3253
60.804020 86.454 -19.4228
61.244629 86.431 -19.5181
61.688435 86.408 -19.6118
62.135452 86.385 -19.7045
62.585712 86.363 -19.7968
63.039234 86.341 -19.8894
63.496040 86.320 -19.9838
63.956161 86.299 -20.0819
64.419617 86.279 -20.1838
64.886421 86.258 -20.2909
65.356621 86.237 -20.4018
65.830215 86.215 -20.5160
66.307251 86.193 -20.6328
66.787743 86.169 -20.7513
67.271713 86.145 -20.8708
67.759193 86.120 -20.9901
68.250206 86.094 -21.1088
68.744774 86.067 -21.2263
69.242928 86.039 -21.3418
69.744690 86.011 -21.4538
70.250084 85.982 -21.5628
70.759148 85.952 -21.6692
71.271896 85.922 -21.7718
71.788361 85.891 -21.8698
72.308571 85.859 -21.9628
72.832550 85.828 -22.0503
73.360321 85.797 -22.1329
73.891922 85.765 -22.2108
74.427376 85.733 -22.2839
74.966705 85.702 -22.3509
75.509949 85.671 -22.4149
76.057121 85.642 -22.4777
76.608261 85.613 -22.5409
77.163399 85.584 -22.6066
77.722557 85.555 -22.6749
78.285767 85.527 -22.7462
78.853058 85.498 -22.8208
79.424461 85.469 -22.9008
80.000000 85.439 -22.9818
80.579712 85.407 -23.0608
81.163628 85.373 -23.1369
81.751770 85.340 -23.2076
82.344177 85.306 -23.2739
82.940880 85.271 -23.3358
83.541901 85.236 -23.3929
84.147285 85.201 -23.4440
84.757050 85.166 -23.4909
85.371231 85.132 -23.5350
85.989868 85.098 -23.5769
86.612984 85.064 -23.6184
87.240616 85.030 -23.6579
87.872803 84.996 -23.6945
88.509560 84.961 -23.7289
89.150940 84.927 -23.7618
89.796967 84.892 -23.7929
90.447670 84.857 -23.8223
91.103088 84.822 -23.8499
91.763260 84.787 -23.8757
92.428215 84.752 -23.9000
93.097992 84.718 -23.9230
93.772614 84.683 -23.9450
94.452133 84.647 -23.9669
95.136566 84.611 -23.9870
95.825966 84.575 -24.0035
96.520363 84.538 -24.0170
97.219788 84.501 -24.0273
97.924286 84.463 -24.0340
98.633881 84.426 -24.0364
99.348625 84.389 -24.0350
100.068542 84.352 -24.0301
100.793686 84.314 -24.0220
101.524078 84.277 -24.0110
102.259766 84.239 -23.9970
103.000778 84.202 -23.9805
103.747162 84.164 -23.9610
104.498962 84.127 -23.9384
105.256203 84.089 -23.9131
106.018929 84.052 -23.8854
106.787186 84.014 -23.8551
107.561012 83.977 -23.8214
108.340446 83.939 -23.7851
109.125526 83.902 -23.7464
109.916290 83.864 -23.7051
110.712791 83.827 -23.6610
111.515060 83.789 -23.6141
112.323143 83.752 -23.5645
113.137085 83.714 -23.5121
113.956924 83.677 -23.4570
114.782700 83.640 -23.3992
115.614464 83.603 -23.3386
116.452255 83.565 -23.2751
117.296112 83.528 -23.2086
118.146095 83.490 -23.1392
119.002228 83.453 -23.0666
119.864563 83.415 -22.9912
120.733154 83.378 -22.9133
121.608040 83.340 -22.8322
122.489258 83.303 -22.7474
123.376869 83.265 -22.6592
124.270905 83.228 -22.5679
125.171425 83.190 -22.4732
126.078468 83.153 -22.3751
126.992081 83.115 -22.2732
127.912323 83.078 -22.1669
128.839233 83.040 -22.0562
129.772842 83.003 -21.9414
130.713242 82.966 -21.8222
131.660431 82.929 -21.6986
132.614502 82.892 -21.5704
133.575485 82.856 -21.4372
134.543427 82.820 -21.3003
135.518387 82.784 -21.1610
136.500412 82.749 -21.0183
137.489548 82.714 -20.8711
138.485855 82.679 -20.7204
139.489380 82.644 -20.5667
140.500168 82.610 -20.4093
141.518295 82.576 -20.2480
142.543793 82.543 -20.0824
143.576721 82.509 -19.9120
144.617142 82.476 -19.7374
145.665100 82.444 -19.5588
146.720642 82.412 -19.3765
147.783844 82.380 -19.1908
148.854752 82.349 -19.0015
149.933411 82.319 -18.8084
151.019897 82.289 -18.6115
152.114243 82.260 -18.4105
153.216522 82.231 -18.2056
154.326797 82.203 -17.9968
155.445114 82.175 -17.7845
156.571533 82.149 -17.5684
157.706116 82.124 -17.3505
158.848923 82.100 -17.1328
160.000000 82.076 -16.9145
161.159424 82.053 -16.6958
162.327255 82.031 -16.4765
163.503540 82.010 -16.2560
164.688354 81.989 -16.0355
165.881760 81.969 -15.8163
167.083801 81.949 -15.5966
168.294571 81.928 -15.3746
169.514099 81.908 -15.1505
170.742462 81.889 -14.9235
171.979736 81.871 -14.6946
173.225967 81.854 -14.4651
174.481232 81.837 -14.2345
175.745605 81.821 -14.0030
177.019119 81.805 -13.7706
178.301880 81.790 -13.5376
179.593933 81.776 -13.3036
180.895340 81.762 -13.0680
182.206177 81.748 -12.8316
183.526520 81.736 -12.5947
184.856430 81.725 -12.3575
186.195984 81.713 -12.1207
187.545227 81.702 -11.8826
188.904266 81.692 -11.6408
190.273132 81.682 -11.3976
191.651932 81.674 -11.1541
193.040726 81.667 -10.9107
194.439575 81.661 -10.6685
195.848572 81.655 -10.4267
197.267761 81.650 -10.1838
198.697250 81.647 -9.9426
200.137085 81.645 -9.7057
201.587372 81.644 -9.4726
203.048157 81.643 -9.2436
204.519531 81.642 -9.0177
206.001556 81.642 -8.7941
207.494324 81.642 -8.5725
208.997925 81.643 -8.3530
210.512405 81.644 -8.1345
212.037857 81.645 -7.9155
213.574371 81.647 -7.6975
215.122025 81.650 -7.4815
216.680893 81.655 -7.2686
218.251053 81.660 -7.0605
219.832581 81.666 -6.8566
221.425583 81.671 -6.6574
223.030121 81.677 -6.4615
224.646286 81.683 -6.2679
226.274170 81.690 -6.0765
227.913849 81.697 -5.8873
229.565399 81.704 -5.6995
231.228928 81.712 -5.5116
232.904510 81.720 -5.3256
234.592224 81.730 -5.1425
236.292191 81.740 -4.9635
238.004456 81.751 -4.7894
239.729126 81.762 -4.6214
241.466309 81.775 -4.4611
243.216080 81.788 -4.3084
244.978516 81.801 -4.1646
246.753738 81.813 -4.0274
248.541809 81.825 -3.8954
250.342850 81.836 -3.7674
252.156937 81.847 -3.6417
253.984161 81.857 -3.5183
255.824646 81.868 -3.3964
257.678467 81.878 -3.2763
259.545685 81.888 -3.1583
261.426483 81.898 -3.0423
263.320862 81.908 -2.9283
265.229004 81.919 -2.8163
267.150970 81.930 -2.7062
269.086853 81.940 -2.5983
271.036774 81.950 -2.4927
273.000824 81.960 -2.3893
274.979095 81.970 -2.2877
276.971710 81.981 -2.1883
278.978760 81.991 -2.0912
281.000336 82.001 -1.9963
283.036591 82.011 -1.9032
285.087585 82.022 -1.8123
287.153442 82.032 -1.7237
289.234283 82.042 -1.6372
291.330200 82.052 -1.5525
293.441284 82.063 -1.4702
295.567688 82.074 -1.3910
297.709503 82.084 -1.3142
299.866821 82.094 -1.2395
302.039795 82.104 -1.1672
304.228485 82.114 -1.0976
306.433044 82.125 -1.0312
308.653595 82.135 -0.9684
310.890228 82.145 -0.9092
313.143066 82.155 -0.8535
315.412231 82.165 -0.8021
317.697845 82.175 -0.7559
320.000000 82.184 -0.7141
322.318848 82.193 -0.6764
324.654510 82.201 -0.6421
327.007080 82.207 -0.6108
329.376709 82.213 -0.5811
331.763519 82.218 -0.5519
334.167603 82.222 -0.5221
336.589142 82.224 -0.4904
339.028198 82.226 -0.4561
341.484924 82.227 -0.4179
343.959473 82.228 -0.3761
346.451935 82.229 -0.3305
348.962463 82.229 -0.2811
351.491211 82.229 -0.2278
354.038239 82.229 -0.1712
356.603760 82.229 -0.1116
359.187866 82.229 -0.0492
361.790680 82.229 0.0160
364.412354 82.229 0.0838
367.053040 82.229 0.1538
369.712860 82.229 0.2268
372.391968 82.229 0.3035
375.090454 82.229 0.3838
377.808533 82.229 0.4674
380.546265 82.230 0.5547
383.303864 82.231 0.6465
386.081451 82.233 0.7407
388.879150 82.237 0.8361
391.697144 82.242 0.9307
394.535522 82.247 1.0224
397.394501 82.253 1.1107
400.274170 82.260 1.1949
403.174744 82.267 1.2748
406.096313 82.274 1.3496
409.039062 82.281 1.4198
412.003113 82.288 1.4847
414.988647 82.295 1.5468
417.995850 82.300 1.6080
421.024811 82.305 1.6688
424.075714 82.310 1.7306
427.148743 82.314 1.7928
430.244049 82.319 1.8555
433.361786 82.323 1.9188
436.502106 82.327 1.9830
439.665161 82.331 2.0478
442.851166 82.335 2.1127
446.060242 82.340 2.1778
449.292572 82.345 2.2428
452.548340 82.349 2.3078
455.827698 82.353 2.3727
459.130798 82.357 2.4378
462.457855 82.361 2.5032
465.809021 82.366 2.5688
469.184448 82.370 2.6343
472.584381 82.375 2.6998
476.008911 82.380 2.7653
479.458252 82.384 2.8308
482.932617 82.388 2.8962
486.432159 82.392 2.9618
489.957031 82.396 3.0277
493.507477 82.401 3.0938
497.083618 82.406 3.1602
500.685699 82.410 3.2268
504.313873 82.414 3.2932
507.968323 82.418 3.3598
511.649292 82.422 3.4267
515.356934 82.427 3.4938
519.091370 82.432 3.5607
522.852966 82.436 3.6278
526.641724 82.440 3.6956
530.458008 82.444 3.7638
534.301941 82.448 3.8316
538.173706 82.453 3.8998
542.073547 82.457 3.9686
546.001648 82.462 4.0378
549.958191 82.467 4.1071
553.943420 82.471 4.1768
557.957520 82.475 4.2471
562.000671 82.479 4.3178
566.073181 82.483 4.3886
570.175171 82.488 4.4598
574.306885 82.493 4.5315
578.468567 82.497 4.6038
582.660400 82.501 4.6764
586.882568 82.505 4.7497
591.135376 82.509 4.8240
595.419006 82.514 4.8987
599.733643 82.519 4.9734
604.079590 82.523 5.0487
608.456970 82.527 5.1253
612.866089 82.531 5.2027
617.307190 82.535 5.2809
621.780457 82.540 5.3597
626.286133 82.544 5.4394
630.824463 82.549 5.5197
635.395691 82.554 5.6007
640.000000 82.558 5.6827
644.637695 82.562 5.7661
649.309021 82.566 5.8507
654.014160 82.570 5.9361
658.753418 82.575 6.0227
663.527039 82.580 6.1105
668.335205 82.584 6.1997
673.178284 82.588 6.2905
678.056396 82.592 6.3827
682.969849 82.596 6.4759
687.918945 82.601 6.5707
692.903870 82.606 6.6672
697.924927 82.610 6.7657
702.982422 82.614 6.8661
708.076477 82.618 6.9686
713.207520 82.622 7.0729
718.375732 82.627 7.1796
723.581360 82.631 7.2893
728.824707 82.636 7.4016
734.106079 82.641 7.5160
739.425720 82.645 7.6336
744.783936 82.649 7.7551
750.180908 82.653 7.8805
755.617065 82.657 8.0102
761.092529 82.662 8.1445
766.607727 82.666 8.2836
772.162903 82.671 8.4285
777.758301 82.676 8.5801
783.394287 82.682 8.7384
789.071045 82.688 8.9039
794.789001 82.695 9.0754
800.548340 82.703 9.2519
806.349487 82.713 9.4333
812.192627 82.723 9.6199
818.078125 82.735 9.8103
824.006226 82.749 10.0041
829.977295 82.764 10.1993
835.991699 82.781 10.3939
842.049622 82.799 10.5873
848.151428 82.818 10.7782
854.297485 82.839 10.9663
860.488098 82.861 11.1508
866.723572 82.884 11.3313
873.004211 82.908 11.5065
879.330322 82.932 11.6784
885.702332 82.955 11.8483
892.120483 82.978 12.0174
898.585144 83.003 12.1876
905.096680 83.028 12.3584
911.655396 83.053 12.5293
918.261597 83.079 12.7024
924.915710 83.104 12.8796
931.618042 83.131 13.0603
938.368896 83.159 13.2458
945.168762 83.190 13.4323
952.017822 83.223 13.6167
958.916504 83.257 13.7993
965.865234 83.292 13.9795
972.864319 83.328 14.1564
979.914062 83.367 14.3297
987.014954 83.408 14.4974
994.167236 83.449 14.6570
1001.371399 83.492 14.8095
1008.627747 83.535 14.9552
1015.936646 83.580 15.0934
1023.298584 83.626 15.2238
1030.713867 83.673 15.3456
1038.182739 83.720 15.4575
1045.705933 83.768 15.5606
1053.283447 83.817 15.6557
1060.916016 83.866 15.7417
1068.603882 83.915 15.8166
1076.347412 83.965 15.8827
1084.147095 84.013 15.9414
1092.003296 84.061 15.9938
1099.916382 84.109 16.0422
1107.886841 84.157 16.0858
1115.915039 84.204 16.1239
1124.001343 84.252 16.1589
1132.146362 84.299 16.1930
1140.350342 84.346 16.2259
1148.613770 84.393 16.2574
1156.937134 84.441 16.2889
1165.320801 84.488 16.3214
1173.765137 84.536 16.3548
1182.270752 84.586 16.3912
1190.838013 84.638 16.4249
1199.467285 84.692 16.4520
1208.159180 84.748 16.4699
1216.913940 84.805 16.4750
1225.732178 84.864 16.4661
1234.614380 84.923 16.4409
1243.560913 84.983 16.3992
1252.572266 85.041 16.3382
1261.648926 85.099 16.2623
1270.791382 85.154 16.1729
1280.000000 85.207 16.0764
1289.275391 85.257 15.9790
1298.618042 85.305 15.8834
1308.028320 85.352 15.7951
1317.506836 85.398 15.7123
1327.054077 85.445 15.6353
1336.670410 85.492 15.5633
1346.356567 85.539 15.4964
1356.112793 85.588 15.4322
1365.939697 85.638 15.3694
1375.837891 85.691 15.3043
1385.807739 85.745 15.2332
1395.849854 85.800 15.1553
1405.964844 85.856 15.0678
1416.152954 85.913 14.9724
1426.415039 85.969 14.8699
1436.751465 86.027 14.7594
1447.162720 86.085 14.6409
1457.649414 86.145 14.5125
1468.212158 86.205 14.3723
1478.851440 86.265 14.2206
1489.567871 86.324 14.0572
1500.361816 86.384 13.8827
1511.234131 86.443 13.6981
1522.185059 86.502 13.5019
1533.215454 86.561 13.2922
1544.325806 86.620 13.0710
1555.516602 86.676 12.8386
1566.788574 86.730 12.5980
1578.142090 86.783 12.3525
1589.578003 86.835 12.1021
1601.096680 86.885 11.8474
1612.698975 86.934 11.5901
1624.385254 86.981 11.3316
1636.156250 87.028 11.0731
1648.012451 87.073 10.8167
1659.954590 87.117 10.5619
1671.983398 87.161 10.3095
1684.099243 87.205 10.0590
1696.302856 87.247 9.8106
1708.594971 87.290 9.5641
1720.976196 87.333 9.3200
1733.447144 87.377 9.0771
1746.008423 87.420 8.8343
1758.660645 87.464 8.5920
1771.404663 87.508 8.3502
1784.240967 87.552 8.1080
1797.170288 87.597 7.8644
1810.193359 87.642 7.6200
1823.310791 87.687 7.3753
1836.523193 87.732 7.1290
1849.831421 87.778 6.8801
1863.236084 87.826 6.6281
1876.737793 87.873 6.3717
1890.337524 87.921 6.1121
1904.035645 87.969 5.8507
1917.833008 88.017 5.5861
1931.730469 88.066 5.3170
1945.728638 88.115 5.0442
1959.828125 88.164 4.7675
1974.029907 88.213 4.4882
1988.334473 88.263 4.2079
2002.742798 88.313 3.9251
2017.255493 88.363 3.6390
2031.873291 88.415 3.3492
2046.597168 88.468 3.0555
2061.427734 88.522 2.7563
2076.365479 88.576 2.4497
2091.411865 88.632 2.1363
2106.566895 88.688 1.8166
2121.832031 88.745 1.4894
2137.207764 88.802 1.1538
2152.694824 88.861 0.8094
2168.294189 88.920 0.4557
2184.006592 88.980 0.0917
2199.832764 89.041 -0.2830
2215.773682 89.103 -0.6704
2231.830078 89.165 -1.0729
2248.002686 89.228 -1.4892
2264.292725 89.289 -1.9189
2280.700684 89.351 -2.3611
2297.227539 89.412 -2.8143
2313.874268 89.474 -3.2801
2330.641602 89.535 -3.7599
2347.530273 89.596 -4.2529
2364.541504 89.656 -4.7594
2381.676025 89.715 -5.2766
2398.934570 89.772 -5.8018
2416.318359 89.829 -6.3356
2433.827881 89.885 -6.8773
2451.464355 89.942 -7.4277
2469.228760 89.998 -7.9876
2487.121826 90.054 -8.5565
2505.144531 90.108 -9.1344
2523.297852 90.163 -9.7213
2541.582764 90.218 -10.3169
2560.000000 90.273 -10.9233
2578.550781 90.328 -11.5423
2597.236084 90.383 -12.1750
2616.056641 90.438 -12.8233
2635.013672 90.493 -13.4872
2654.108154 90.546 -14.1679
2673.340820 90.599 -14.8639
2692.713135 90.650 -15.5741
2712.225586 90.700 -16.2986
2731.879395 90.748 -17.0374
2751.675781 90.796 -17.7905
2771.615479 90.842 -18.5579
2791.699707 90.886 -19.3385
2811.929688 90.928 -20.1306
2832.305908 90.968 -20.9352
2852.830078 91.007 -21.7525
2873.502930 91.045 -22.5824
2894.325439 91.080 -23.4251
2915.298828 91.114 -24.2791
2936.424316 91.144 -25.1429
2957.702881 91.173 -26.0162
2979.135742 91.199 -26.8981
3000.723633 91.224 -27.7891
3022.468262 91.246 -28.6891
3044.370117 91.267 -29.5978
3066.430908 91.285 -30.5147
3088.651611 91.302 -31.4408
3111.033203 91.317 -32.3763
3133.577148 91.329 -33.3225
3156.284180 91.340 -34.2823
3179.156006 91.347 -35.2514
3202.193359 91.349 -36.2266
3225.397949 91.348 -37.2063
3248.770508 91.344 -38.1875
3272.312500 91.338 -39.1706
3296.024902 91.329 -40.1564
3319.909180 91.316 -41.1414
3343.966797 91.300 -42.1221
3368.198486 91.281 -43.0994
3392.605713 91.261 -44.0717
3417.189941 91.240 -45.0435
3441.952393 91.218 -46.0191
3466.894287 91.193 -46.9976
3492.016846 91.166 -47.9798
3517.321289 91.137 -48.9644
3542.809326 91.105 -49.9508
3568.481934 91.070 -50.9384
3594.340576 91.033 -51.9273
3620.386719 90.993 -52.9163
3646.621582 90.950 -53.9052
3673.046387 90.903 -54.8913
3699.662842 90.853 -55.8727
3726.472168 90.799 -56.8475
3753.475586 90.744 -57.8138
3780.675049 90.685 -58.7707
3808.071289 90.623 -59.7170
3835.666016 90.559 -60.6526
3863.460938 90.494 -61.5762
3891.457275 90.427 -62.4907
3919.656250 90.360 -63.3984
3948.059814 90.291 -64.2999
3976.668945 90.221 -65.1964
4005.485596 90.148 -66.0877
4034.510986 90.075 -66.9741
4063.746582 89.999 -67.8548
4093.194336 89.921 -68.7293
4122.855469 89.840 -69.5968
4152.730957 89.758 -70.4570
4182.823730 89.674 -71.3080
4213.133789 89.588 -72.1477
4243.664062 89.499 -72.9761
4274.415527 89.410 -73.7910
4305.389648 89.319 -74.5961
4336.588379 89.229 -75.3948
4368.013184 89.136 -76.1863
4399.665527 89.042 -76.9716
4431.547363 88.945 -77.7482
4463.660156 88.848 -78.5133
4496.005371 88.749 -79.2682
4528.585449 88.648 -80.0144
4561.401367 88.546 -80.7495
4594.455078 88.442 -81.4725
4627.748535 88.336 -82.1816
4661.283203 88.229 -82.8728
4695.060547 88.122 -83.5507
4729.083008 88.014 -84.2186
4763.352051 87.907 -84.8769
4797.869141 87.798 -85.5283
4832.636719 87.689 -86.1698
4867.655762 87.577 -86.7988
4902.928711 87.465 -87.4160
4938.457520 87.352 -88.0216
4974.243652 87.239 -88.6152
5010.289062 87.124 -89.1976
5046.595703 87.008 -89.7662
5083.165527 86.891 -90.3181
5120.000000 86.774 -90.8554
5157.101562 86.657 -91.3780
5194.472168 86.541 -91.8895
5232.113281 86.425 -92.3942
5270.027344 86.309 -92.8905
5308.216309 86.191 -93.3790
5346.681641 86.073 -93.8577
5385.426270 85.953 -94.3255
5424.451172 85.833 -94.7798
5463.758789 85.710 -95.2189
5503.351562 85.586 -95.6390
5543.230957 85.460 -96.0360
5583.399414 85.334 -96.4092
5623.859375 85.208 -96.7559
5664.611816 85.083 -97.0785
5705.660156 84.959 -97.3778
5747.005859 84.837 -97.6566
5788.650879 84.716 -97.9174
5830.597656 84.598 -98.1608
5872.848633 84.482 -98.3875
5915.405762 84.368 -98.5999
5958.271484 84.256 -98.8011
6001.447266 84.146 -98.9901
6044.936523 84.036 -99.1678
6088.740234 83.929 -99.3312
6132.861816 83.822 -99.4770
6177.303223 83.719 -99.6074
6222.066406 83.618 -99.7225
6267.154297 83.520 -99.8255
6312.568359 83.426 -99.9198
6358.312012 83.334 -100.0046
6404.386719 83.246 -100.0792
6450.795898 83.160 -100.1467
6497.541016 83.080 -100.2088
6544.625000 83.003 -100.2687
6592.049805 82.930 -100.3311
6639.818359 82.859 -100.3937
6687.933594 82.792 -100.4549
6736.396973 82.728 -100.5167
6785.211426 82.669 -100.5789
6834.379883 82.613 -100.6456
6883.904785 82.562 -100.7206
6933.788574 82.514 -100.8045
6984.033691 82.470 -100.8990
7034.642578 82.429 -101.0054
7085.618652 82.392 -101.1245
7136.963867 82.359 -101.2593
7188.681152 82.330 -101.4125
7240.773438 82.304 -101.5851
7293.243164 82.280 -101.7792
7346.092773 82.259 -101.9939
7399.325684 82.240 -102.2279
7452.944336 82.224 -102.4837
7506.951172 82.212 -102.7618
7561.350098 82.203 -103.0664
7616.142578 82.197 -103.3998
7671.332031 82.195 -103.7670
7726.921875 82.196 -104.1715
7782.914551 82.200 -104.6206
7839.312500 82.207 -105.1218
7896.119629 82.216 -105.6789
7953.337891 82.224 -106.2986
8010.971191 82.231 -106.9792
8069.021973 82.235 -107.7234
8127.493164 82.234 -108.5256
8186.388672 82.226 -109.3846
8245.710938 82.210 -110.2901
8305.461914 82.184 -111.2342
8365.647461 82.150 -112.2088
8426.267578 82.108 -113.2036
8487.328125 82.057 -114.2166
8548.831055 81.999 -115.2435
8610.779297 81.932 -116.2805
8673.176758 81.857 -117.3230
8736.026367 81.773 -118.3693
8799.331055 81.683 -119.4173
8863.094727 81.586 -120.4645
8927.320312 81.479 -121.5104
8992.010742 81.364 -122.5466
9057.170898 81.238 -123.5665
9122.802734 81.104 -124.5638
9188.910156 80.960 -125.5312
9255.497070 80.808 -126.4641
9322.566406 80.648 -127.3567
9390.121094 80.481 -128.2047
9458.166016 80.307 -129.0019
9526.704102 80.128 -129.7472
9595.738281 79.945 -130.4381
9665.273438 79.758 -131.0728
9735.311523 79.566 -131.6499
9805.857422 79.372 -132.1664
9876.915039 79.176 -132.6185
9948.487305 78.979 -133.0071
10020.578125 78.782 -133.3314
10093.191406 78.585 -133.5918
10166.331055 78.391 -133.7869
10240.000000 78.200 -133.9205
10314.203125 78.013 -133.9946
10388.944336 77.831 -134.0130
10464.226562 77.655 -133.9788
10540.054688 77.485 -133.8966
10616.432617 77.322 -133.7692
10693.363281 77.168 -133.6051
10770.852539 77.023 -133.4107
10848.902344 76.888 -133.1952
10927.517578 76.761 -132.9693
11006.703125 76.642 -132.7343
11086.461914 76.529 -132.4948
11166.798828 76.422 -132.2514
11247.718750 76.320 -132.0093
11329.223633 76.221 -131.7583
11411.320312 76.122 -131.4964
11494.011719 76.025 -131.2037
11577.301758 75.925 -130.8639
11661.195312 75.829 -130.4634
11745.697266 75.736 -129.9854
11830.811523 75.652 -129.4233
11916.542969 75.579 -128.7619
12002.894531 75.523 -128.0104
12089.873047 75.492 -127.1616
12177.480469 75.492 -126.2493
12265.723633 75.531 -125.2890
12354.606445 75.613 -124.3291
12444.132812 75.744 -123.4047
12534.308594 75.922 -122.5722
12625.136719 76.152 -121.8785
12716.624023 76.428 -121.3879
12808.773438 76.753 -121.1623
12901.591797 77.112 -121.2555
12995.082031 77.499 -121.7332
13089.250000 77.900 -122.6224
13184.099609 78.301 -123.9713
13279.636719 78.690 -125.7795
13375.867188 79.056 -128.0758
13472.793945 79.384 -130.8202
13570.422852 79.659 -134.0099
13668.759766 79.875 -137.5619
13767.809570 80.020 -141.4238
13867.577148 80.092 -145.4998
13968.067383 80.086 -149.7085
14069.285156 80.004 -153.9539
14171.237305 79.841 -158.1368
14273.927734 79.605 -162.1861
14377.362305 79.302 -166.0101
14481.546875 78.939 -169.5724
14586.486328 78.521 -172.8094
14692.185547 78.060 -175.7121
14798.651367 77.564 -178.2438
14905.888672 77.043 179.5786
15013.902344 76.510 177.7589
15122.700195 75.970 176.2705
15232.285156 75.431 175.0977
15342.664062 74.899 174.2125
15453.843750 74.380 173.5919
15565.829102 73.878 173.2065
15678.625000 73.398 173.0282
15792.239258 72.941 173.0295
15906.675781 72.511 173.1839
16021.942383 72.109 173.4612
16138.043945 71.739 173.8307
16254.986328 71.398 174.2673
16372.777344 71.085 174.7430
16491.421875 70.799 175.2363
16610.923828 70.543 175.7247
16731.294922 70.312 176.1835
16852.535156 70.107 176.5855
16974.656250 69.923 176.9153
17097.662109 69.756 177.1500
17221.558594 69.603 177.2845
17346.353516 69.459 177.3058
17472.052734 69.320 177.2149
17598.662109 69.183 177.0046
17726.189453 69.042 176.6862
17854.640625 68.893 176.2605
17984.021484 68.732 175.7520
18114.341797 68.555 175.1768
18245.605469 68.361 174.5616
18377.820312 68.148 173.9278
18510.994141 67.915 173.3075
18645.132812 67.660 172.7286
18780.242188 67.384 172.2255
18916.332031 67.086 171.8348
19053.408203 66.774 171.5780
19191.476562 66.448 171.4906
19330.546875 66.118 171.5671
19470.623047 65.791 171.8243
19611.714844 65.473 172.2303
19753.830078 65.172 172.7696
19896.974609 64.890 173.4089
