* Measurement data measured by REW V5.20.13
* Source: C:\Users\kurin\Desktop\Targets and Curves\Resolve\Img\Files\WF1000XM4_SPL.txt
* Format: Comma/Tab/Space delimited data
* Dated: Aug 14, 2023 6:48:34 PM
* REW Settings:
*  C-weighting compensation: Off
*  Target level: 75.0 dB
* Note: ; Measurement imported from C:\Users\kurin\Desktop\Targets and Curves\Resolve\Img\Files\WF1000XM4_SPL.txt Format: Comma/Tab/Space delimited data 623 values loaded, 5 Hz to 39,792 Hz log spaced 
* Measurement: WF1000XM4_SPL
* Smoothing: 1/48 octave
* Frequency Step: 1/96 octave
* Start Frequency: 5.000 Hz
*
* Freq(Hz) SPL(dB) Phase(degrees)
5.000000 90.544 11.6710
5.036232 90.548 11.6648
5.072727 90.553 11.6580
5.109486 90.558 11.6496
5.146511 90.564 11.6400
5.183805 90.571 11.6289
5.221369 90.579 11.6170
5.259205 90.587 11.6048
5.297316 90.596 11.5920
5.335702 90.605 11.5787
5.374367 90.615 11.5650
5.413311 90.625 11.5510
5.452538 90.634 11.5370
5.492050 90.643 11.5236
5.531847 90.652 11.5100
5.571934 90.661 11.4956
5.612310 90.671 11.4810
5.652979 90.680 11.4670
5.693943 90.690 11.4530
5.735204 90.700 11.4386
5.776763 90.709 11.4240
5.818624 90.718 11.4090
5.860788 90.727 11.3940
5.903258 90.736 11.3796
5.946035 90.746 11.3650
5.989123 90.756 11.3496
6.032523 90.765 11.3340
6.076237 90.774 11.3190
6.120268 90.783 11.3040
6.164618 90.792 11.2886
6.209289 90.802 11.2730
6.254284 90.812 11.2571
6.299605 90.821 11.2410
6.345255 90.831 11.2250
6.391235 90.840 11.2090
6.437549 90.849 11.1931
6.484198 90.858 11.1770
6.531185 90.867 11.1606
6.578513 90.877 11.1440
6.626183 90.887 11.1270
6.674199 90.896 11.1100
6.722563 90.905 11.0936
6.771278 90.914 11.0770
6.820345 90.923 11.0596
6.869768 90.933 11.0420
6.919549 90.943 11.0251
6.969691 90.952 11.0080
7.020196 90.961 10.9901
7.071068 90.970 10.9720
7.122308 90.979 10.9540
7.173919 90.989 10.9360
7.225904 90.998 10.9181
7.278266 91.008 10.9000
7.331007 91.018 10.8816
7.384131 91.027 10.8630
7.437639 91.036 10.8446
7.491535 91.045 10.8260
7.545822 91.054 10.8071
7.600502 91.064 10.7880
7.655579 91.074 10.7691
7.711054 91.083 10.7500
7.766932 91.092 10.7306
7.823214 91.101 10.7110
7.879904 91.110 10.6911
7.937005 91.120 10.6710
7.994520 91.130 10.6511
8.052452 91.139 10.6310
8.110803 91.149 10.6106
8.169578 91.158 10.5900
8.228777 91.167 10.5696
8.288406 91.176 10.5490
8.348468 91.185 10.5281
8.408964 91.195 10.5070
8.469899 91.205 10.4856
8.531276 91.214 10.4640
8.593097 91.223 10.4426
8.655366 91.232 10.4210
8.718086 91.241 10.3991
8.781260 91.251 10.3770
8.844893 91.260 10.3551
8.908987 91.270 10.3330
8.973545 91.280 10.3106
9.038571 91.289 10.2880
9.104069 91.298 10.2651
9.170040 91.307 10.2420
9.236490 91.316 10.2191
9.303422 91.326 10.1960
9.370838 91.336 10.1721
9.438744 91.345 10.1480
9.507140 91.354 10.1246
9.576033 91.363 10.1010
9.645425 91.372 10.0766
9.715320 91.382 10.0520
9.785721 91.392 10.0276
9.856632 91.401 10.0030
9.928058 91.410 9.9781
10.000000 91.419 9.9530
10.072464 91.428 9.9281
10.145453 91.438 9.9030
10.218971 91.447 9.8771
10.293022 91.457 9.8510
10.367610 91.467 9.8251
10.442738 91.476 9.7990
10.518411 91.485 9.7726
10.594631 91.494 9.7460
10.671404 91.503 9.7196
10.748734 91.513 9.6930
10.826623 91.523 9.6656
10.905077 91.532 9.6380
10.984100 91.541 9.6106
11.063695 91.550 9.5830
11.143867 91.559 9.5551
11.224621 91.569 9.5270
11.305959 91.578 9.4986
11.387886 91.588 9.4700
11.470407 91.598 9.4416
11.553527 91.607 9.4130
11.637249 91.616 9.3836
11.721577 91.625 9.3540
11.806517 91.634 9.3246
11.892071 91.644 9.2950
11.978246 91.654 9.2651
12.065045 91.663 9.2350
12.152473 91.672 9.2046
12.240536 91.681 9.1740
12.329235 91.690 9.1431
12.418578 91.700 9.1120
12.508568 91.709 9.0811
12.599211 91.719 9.0500
12.690510 91.729 9.0182
12.782471 91.738 8.9860
12.875097 91.747 8.9536
12.968395 91.756 8.9210
13.062370 91.765 8.8886
13.157025 91.775 8.8560
13.252366 91.785 8.8231
13.348398 91.794 8.7900
13.445127 91.803 8.7567
13.542556 91.812 8.7230
13.640691 91.821 8.6891
13.739536 91.831 8.6550
13.839099 91.840 8.6206
13.939383 91.850 8.5860
14.040393 91.860 8.5511
14.142136 91.869 8.5160
14.244616 91.878 8.4806
14.347837 91.887 8.4450
14.451808 91.896 8.4091
14.556532 91.906 8.3730
14.662014 91.916 8.3366
14.768262 91.925 8.3000
14.875278 91.934 8.2637
14.983070 91.943 8.2270
15.091644 91.952 8.1897
15.201005 91.962 8.1520
15.311157 91.972 8.1146
15.422109 91.981 8.0770
15.533863 91.990 8.0391
15.646428 91.999 8.0010
15.759809 92.008 7.9626
15.874010 92.018 7.9240
15.989040 92.027 7.8851
16.104904 92.037 7.8460
16.221605 92.047 7.8071
16.339155 92.056 7.7680
16.457554 92.065 7.7286
16.576813 92.074 7.6890
16.696936 92.083 7.6495
16.817928 92.093 7.6100
16.939798 92.103 7.5706
17.062551 92.112 7.5311
17.186193 92.121 7.4910
17.310732 92.130 7.4510
17.436172 92.139 7.4114
17.562521 92.149 7.3720
17.689787 92.158 7.3329
17.817974 92.168 7.2940
17.947090 92.178 7.2553
18.077143 92.187 7.2170
18.208138 92.196 7.1792
18.340080 92.205 7.1420
18.472980 92.214 7.1059
18.606844 92.224 7.0710
18.741676 92.234 7.0375
18.877487 92.243 7.0060
19.014280 92.252 6.9771
19.152065 92.261 6.9520
19.290850 92.271 6.9324
19.430639 92.281 6.9180
19.571442 92.293 6.9100
19.713264 92.306 6.9060
19.856115 92.321 6.9069
20.000000 92.339 6.9040
20.144928 92.362 6.8916
20.290907 92.389 6.8620
20.437943 92.417 6.8052
20.586044 92.446 6.7231
20.735220 92.473 6.6117
20.885475 92.497 6.4782
21.036821 92.518 6.3246
21.189262 92.534 6.1612
21.342808 92.544 5.9959
21.497467 92.550 5.8372
21.653246 92.552 5.6960
21.810154 92.552 5.5731
21.968201 92.551 5.4745
22.127390 92.551 5.3951
22.287735 92.553 5.3348
22.449242 92.557 5.2840
22.611917 92.566 5.2345
22.775772 92.578 5.1821
22.940815 92.590 5.1188
23.107054 92.603 5.0471
23.274498 92.616 4.9657
23.443153 92.629 4.8771
23.613033 92.640 4.7827
23.784142 92.650 4.6851
23.956491 92.660 4.5876
24.130091 92.669 4.4901
24.304947 92.678 4.3936
24.481071 92.686 4.2981
24.658470 92.694 4.2045
24.837156 92.702 4.1121
25.017136 92.709 4.0204
25.198421 92.717 3.9301
25.381020 92.725 3.8420
25.564941 92.733 3.7561
25.750195 92.741 3.6730
25.936790 92.749 3.5921
26.124741 92.758 3.5141
26.314051 92.769 3.4351
26.504732 92.782 3.3527
26.696796 92.796 3.2631
26.890253 92.811 3.1611
27.085112 92.827 3.0481
27.281382 92.841 2.9240
27.479073 92.855 2.7892
27.678198 92.868 2.6431
27.878765 92.880 2.4882
28.080786 92.890 2.3251
28.284271 92.897 2.1592
28.489231 92.901 1.9959
28.695675 92.903 1.8362
28.903616 92.905 1.6832
29.113064 92.906 1.5362
29.324028 92.906 1.3959
29.536524 92.906 1.2612
29.750557 92.906 1.1312
29.966141 92.906 1.0051
30.183289 92.906 0.8819
30.402010 92.906 0.7611
30.622314 92.906 0.6422
30.844217 92.906 0.5251
31.067726 92.906 0.4099
31.292856 92.906 0.2962
31.519617 92.906 0.1835
31.748020 92.906 0.0721
31.978081 92.906 -0.0378
32.209808 92.906 -0.1469
32.443211 92.906 -0.2557
32.678310 92.906 -0.3639
32.915108 92.906 -0.4707
33.153625 92.906 -0.5769
33.393871 92.906 -0.6825
33.635857 92.906 -0.7878
33.879597 92.906 -0.8930
34.125103 92.906 -0.9979
34.372387 92.906 -1.1020
34.621464 92.906 -1.2058
34.872345 92.906 -1.3095
35.125042 92.906 -1.4129
35.379574 92.906 -1.5159
35.635948 92.906 -1.6189
35.894180 92.906 -1.7219
36.154285 92.906 -1.8249
36.416275 92.906 -1.9279
36.680161 92.906 -2.0308
36.945961 92.906 -2.1333
37.213688 92.906 -2.2358
37.483353 92.906 -2.3387
37.754974 92.906 -2.4418
38.028561 92.906 -2.5453
38.304131 92.906 -2.6489
38.581699 92.906 -2.7523
38.861279 92.906 -2.8558
39.142883 92.906 -2.9597
39.426529 92.906 -3.0639
39.712231 92.906 -3.1687
40.000000 92.906 -3.2738
40.289856 92.906 -3.3792
40.581814 92.906 -3.4848
40.875885 92.906 -3.5912
41.172089 92.906 -3.6978
41.470440 92.906 -3.8046
41.770950 92.906 -3.9118
42.073643 92.906 -4.0200
42.378525 92.906 -4.1288
42.685616 92.906 -4.2385
42.994934 92.906 -4.3488
43.306492 92.906 -4.4595
43.620308 92.906 -4.5708
43.936401 92.906 -4.6834
44.254780 92.906 -4.7968
44.575470 92.906 -4.9109
44.898483 92.906 -5.0258
45.223835 92.906 -5.1418
45.551544 92.906 -5.2588
45.881630 92.906 -5.3772
46.214108 92.906 -5.4968
46.548996 92.906 -5.6177
46.886307 92.906 -5.7398
47.226067 92.906 -5.8630
47.568283 92.906 -5.9878
47.912983 92.906 -6.1148
48.260181 92.906 -6.2438
48.609894 92.906 -6.3743
48.962143 92.906 -6.5068
49.316940 92.906 -6.6415
49.674313 92.906 -6.7788
50.034271 92.906 -6.9190
50.396843 92.906 -7.0628
50.762039 92.906 -7.2103
51.129883 92.906 -7.3627
51.500389 92.906 -7.5211
51.873581 92.906 -7.6857
52.249481 92.905 -7.8574
52.628101 92.903 -8.0357
53.009464 92.900 -8.2220
53.393593 92.895 -8.4117
53.780506 92.887 -8.6024
54.170223 92.876 -8.7887
54.562763 92.863 -8.9642
54.958145 92.849 -9.1297
55.356396 92.836 -9.2835
55.757530 92.822 -9.4268
56.161572 92.808 -9.5595
56.568542 92.794 -9.6838
56.978462 92.783 -9.7991
57.391350 92.775 -9.9138
57.807232 92.770 -10.0348
58.226128 92.767 -10.1658
58.648056 92.764 -10.3130
59.073048 92.760 -10.4747
59.501114 92.756 -10.6528
59.932281 92.750 -10.8427
60.366577 92.740 -11.0435
60.804020 92.727 -11.2457
61.244629 92.710 -11.4410
61.688435 92.689 -11.6247
62.135452 92.666 -11.7892
62.585712 92.642 -11.9348
63.039234 92.618 -12.0561
63.496040 92.596 -12.1618
63.956161 92.578 -12.2547
64.419617 92.564 -12.3468
64.886421 92.555 -12.4514
65.356621 92.547 -12.5688
65.830215 92.538 -12.7055
66.307251 92.528 -12.8557
66.787743 92.516 -13.0170
67.271713 92.502 -13.1847
67.759193 92.485 -13.3557
68.250206 92.464 -13.5227
68.744774 92.440 -13.6780
69.242928 92.413 -13.8188
69.744690 92.386 -13.9373
70.250084 92.359 -14.0398
70.759148 92.335 -14.1282
71.271896 92.312 -14.2079
71.788361 92.292 -14.2848
72.308571 92.274 -14.3599
72.832550 92.256 -14.4365
73.360321 92.238 -14.5129
73.891922 92.221 -14.5875
74.427376 92.204 -14.6619
74.966705 92.189 -14.7364
75.509949 92.175 -14.8129
76.057121 92.162 -14.8920
76.608261 92.151 -14.9768
77.163399 92.141 -15.0700
77.722557 92.131 -15.1728
78.285767 92.122 -15.2874
78.853058 92.112 -15.4137
79.424461 92.102 -15.5526
80.000000 92.090 -15.7037
80.579712 92.077 -15.8689
81.163628 92.062 -16.0417
81.751770 92.042 -16.2185
82.344177 92.019 -16.3917
82.940880 91.992 -16.5527
83.541901 91.962 -16.7007
84.147285 91.932 -16.8304
84.757050 91.901 -16.9458
85.371231 91.871 -17.0495
85.989868 91.841 -17.1408
86.612984 91.811 -17.2191
87.240616 91.781 -17.2869
87.872803 91.754 -17.3441
88.509560 91.729 -17.3979
89.150940 91.707 -17.4559
89.796967 91.685 -17.5159
90.447670 91.661 -17.5800
91.103088 91.637 -17.6419
91.763260 91.613 -17.6934
92.428215 91.590 -17.7419
93.097992 91.571 -17.7908
93.772614 91.553 -17.8439
94.452133 91.535 -17.9067
95.136566 91.518 -17.9778
95.825966 91.501 -18.0579
96.520363 91.484 -18.1468
97.219788 91.465 -18.2471
97.924286 91.444 -18.3508
98.633881 91.420 -18.4499
99.348625 91.395 -18.5468
100.068542 91.371 -18.6412
100.793686 91.347 -18.7338
101.524078 91.320 -18.8283
102.259766 91.291 -18.9158
103.000778 91.259 -18.9862
103.747162 91.227 -19.0459
104.498962 91.200 -19.0962
105.256203 91.175 -19.1429
106.018929 91.148 -19.1964
106.787186 91.120 -19.2449
107.561012 91.089 -19.2788
108.340446 91.058 -19.3020
109.125526 91.032 -19.3122
109.916290 91.009 -19.3190
110.712791 90.988 -19.3308
111.515060 90.968 -19.3480
112.323143 90.950 -19.3720
113.137085 90.934 -19.4079
113.956924 90.920 -19.4610
114.782700 90.906 -19.5318
115.614464 90.890 -19.6249
116.452255 90.871 -19.7328
117.296112 90.849 -19.8521
118.146095 90.823 -19.9747
119.002228 90.792 -20.0942
119.864563 90.757 -20.2017
120.733154 90.717 -20.2860
121.608040 90.676 -20.3489
122.489258 90.636 -20.3869
123.376869 90.597 -20.4050
124.270905 90.558 -20.4065
125.171425 90.521 -20.3920
126.078468 90.486 -20.3590
126.992081 90.454 -20.3201
127.912323 90.429 -20.2874
128.839233 90.406 -20.2610
129.772842 90.381 -20.2482
130.713242 90.355 -20.2400
131.660431 90.330 -20.2278
132.614502 90.305 -20.2180
133.575485 90.283 -20.2144
134.543427 90.261 -20.2160
135.518387 90.236 -20.2260
136.500412 90.210 -20.2360
137.489548 90.182 -20.2367
138.485855 90.155 -20.2340
139.489380 90.131 -20.2293
140.500168 90.107 -20.2270
141.518295 90.083 -20.2341
142.543793 90.059 -20.2450
143.576721 90.032 -20.2577
144.617142 90.004 -20.2680
145.665100 89.975 -20.2681
146.720642 89.947 -20.2670
147.783844 89.923 -20.2726
148.854752 89.898 -20.2810
149.933411 89.867 -20.2951
151.019897 89.833 -20.3020
152.114243 89.797 -20.2866
153.216522 89.762 -20.2581
154.326797 89.731 -20.2208
155.445114 89.701 -20.1751
156.571533 89.668 -20.1245
157.706116 89.635 -20.0642
158.848923 89.604 -19.9864
160.000000 89.576 -19.9032
161.159424 89.553 -19.8226
162.327255 89.533 -19.7482
163.503540 89.512 -19.6873
164.688354 89.492 -19.6371
165.881760 89.473 -19.5989
167.083801 89.452 -19.5671
168.294571 89.428 -19.5368
169.514099 89.402 -19.5071
170.742462 89.378 -19.4746
171.979736 89.354 -19.4411
173.225967 89.328 -19.4100
174.481232 89.300 -19.3721
175.745605 89.269 -19.3176
177.019119 89.238 -19.2522
178.301880 89.212 -19.1750
179.593933 89.187 -19.0952
180.895340 89.165 -19.0247
182.206177 89.142 -18.9552
183.526520 89.116 -18.8833
184.856430 89.089 -18.8062
186.195984 89.065 -18.7174
187.545227 89.042 -18.6242
188.904266 89.022 -18.5315
190.273132 89.003 -18.4402
191.651932 88.985 -18.3533
193.040726 88.967 -18.2702
194.439575 88.950 -18.1900
195.848572 88.934 -18.1172
197.267761 88.921 -18.0557
198.697250 88.909 -18.0071
200.137085 88.895 -17.9758
201.587372 88.880 -17.9570
203.048157 88.863 -17.9481
204.519531 88.844 -17.9470
206.001556 88.823 -17.9540
207.494324 88.798 -17.9600
208.997925 88.767 -17.9576
210.512405 88.733 -17.9411
212.037857 88.697 -17.9004
213.574371 88.660 -17.8402
215.122025 88.625 -17.7619
216.680893 88.590 -17.6653
218.251053 88.554 -17.5504
219.832581 88.519 -17.4174
221.425583 88.487 -17.2637
223.030121 88.458 -17.0984
224.646286 88.434 -16.9287
226.274170 88.413 -16.7584
227.913849 88.394 -16.5942
229.565399 88.376 -16.4344
231.228928 88.359 -16.2792
232.904510 88.344 -16.1294
234.592224 88.330 -15.9863
236.292191 88.316 -15.8484
238.004456 88.302 -15.7155
239.729126 88.289 -15.5854
241.466309 88.276 -15.4552
243.216080 88.263 -15.3263
244.978516 88.251 -15.1982
246.753738 88.240 -15.0734
248.541809 88.230 -14.9535
250.342850 88.222 -14.8413
252.156937 88.215 -14.7395
253.984161 88.208 -14.6492
255.824646 88.200 -14.5745
257.678467 88.191 -14.5092
259.545685 88.178 -14.4513
261.426483 88.162 -14.3922
263.320862 88.142 -14.3236
265.229004 88.121 -14.2413
267.150970 88.099 -14.1363
269.086853 88.077 -14.0134
271.036774 88.058 -13.8704
273.000824 88.042 -13.7185
274.979095 88.032 -13.5654
276.971710 88.025 -13.4184
278.978760 88.021 -13.2853
281.000336 88.019 -13.1723
283.036591 88.021 -13.0898
285.087585 88.022 -13.0331
287.153442 88.017 -13.0073
289.234283 88.007 -12.9930
291.330200 87.989 -12.9752
293.441284 87.967 -12.9461
295.567688 87.942 -12.8927
297.709503 87.915 -12.8162
299.866821 87.887 -12.7132
302.039795 87.859 -12.5854
304.228485 87.833 -12.4301
306.433044 87.811 -12.2575
308.653595 87.794 -12.0745
310.890228 87.781 -11.8885
313.143066 87.771 -11.7096
315.412231 87.764 -11.5375
317.697845 87.758 -11.3755
320.000000 87.753 -11.2224
322.318848 87.748 -11.0793
324.654510 87.744 -10.9434
327.007080 87.739 -10.8127
329.376709 87.734 -10.6864
331.763519 87.730 -10.5629
334.167603 87.725 -10.4424
336.589142 87.720 -10.3247
339.028198 87.715 -10.2093
341.484924 87.710 -10.0959
343.959473 87.705 -9.9843
346.451935 87.700 -9.8746
348.962463 87.695 -9.7663
351.491211 87.691 -9.6587
354.038239 87.686 -9.5523
356.603760 87.681 -9.4478
359.187866 87.676 -9.3443
361.790680 87.671 -9.2409
364.412354 87.666 -9.1383
367.053040 87.662 -9.0369
369.712860 87.657 -8.9363
372.391968 87.652 -8.8365
375.090454 87.647 -8.7373
377.808533 87.642 -8.6380
380.546265 87.637 -8.5393
383.303864 87.632 -8.4416
386.081451 87.627 -8.3443
388.879150 87.623 -8.2467
391.697144 87.618 -8.1493
394.535522 87.613 -8.0522
397.394501 87.608 -7.9553
400.274170 87.603 -7.8587
403.174744 87.598 -7.7623
406.096313 87.593 -7.6659
409.039062 87.588 -7.5693
412.003113 87.584 -7.4724
414.988647 87.579 -7.3753
417.995850 87.574 -7.2779
421.024811 87.569 -7.1803
424.075714 87.564 -7.0826
427.148743 87.559 -6.9843
430.244049 87.554 -6.8853
433.361786 87.549 -6.7853
436.502106 87.545 -6.6844
439.665161 87.540 -6.5823
442.851166 87.535 -6.4791
446.060242 87.530 -6.3743
449.292572 87.525 -6.2674
452.548340 87.521 -6.1583
455.827698 87.516 -6.0471
459.130798 87.512 -5.9334
462.457855 87.508 -5.8169
465.809021 87.505 -5.6974
469.184448 87.502 -5.5743
472.584381 87.500 -5.4484
476.008911 87.498 -5.3197
479.458252 87.498 -5.1894
482.932617 87.499 -5.0574
486.432159 87.503 -4.9274
489.957031 87.509 -4.8014
493.507477 87.517 -4.6843
497.083618 87.527 -4.5812
500.685699 87.539 -4.4943
504.313873 87.551 -4.4278
507.968323 87.563 -4.3801
511.649292 87.573 -4.3530
515.356934 87.580 -4.3410
519.091370 87.584 -4.3422
522.852966 87.584 -4.3480
526.641724 87.580 -4.3508
530.458008 87.573 -4.3460
534.301941 87.563 -4.3268
538.173706 87.551 -4.2931
542.073547 87.539 -4.2415
546.001648 87.527 -4.1753
549.958191 87.517 -4.0946
553.943420 87.508 -4.0053
557.957520 87.502 -3.9117
562.000671 87.498 -3.8183
566.073181 87.496 -3.7304
570.175171 87.494 -3.6493
574.306885 87.493 -3.5777
578.468567 87.492 -3.5162
582.660400 87.491 -3.4666
586.882568 87.489 -3.4271
591.135376 87.485 -3.3985
595.419006 87.478 -3.3751
599.733643 87.467 -3.3547
604.079590 87.452 -3.3281
608.456970 87.432 -3.2871
612.866089 87.409 -3.2262
617.307190 87.384 -3.1373
621.780457 87.358 -3.0204
626.286133 87.332 -2.8717
630.824463 87.308 -2.6946
635.395691 87.287 -2.4885
640.000000 87.269 -2.2618
644.637695 87.257 -2.0200
649.309021 87.250 -1.7719
654.014160 87.248 -1.5266
658.753418 87.250 -1.2878
663.527039 87.255 -1.0621
668.335205 87.262 -0.8487
673.178284 87.271 -0.6496
678.056396 87.280 -0.4626
682.969849 87.289 -0.2866
687.918945 87.299 -0.1196
692.903870 87.308 0.0406
697.924927 87.318 0.1945
702.982422 87.327 0.3428
708.076477 87.337 0.4865
713.207520 87.346 0.6268
718.375732 87.356 0.7635
723.581360 87.366 0.8966
728.824707 87.376 1.0265
734.106079 87.386 1.1538
739.425720 87.395 1.2786
744.783936 87.404 1.4011
750.180908 87.414 1.5216
755.617065 87.423 1.6400
761.092529 87.433 1.7566
766.607727 87.443 1.8719
772.162903 87.453 1.9856
777.758301 87.463 2.0973
783.394287 87.472 2.2076
789.071045 87.481 2.3171
794.789001 87.491 2.4256
800.548340 87.500 2.5331
806.349487 87.510 2.6396
812.192627 87.519 2.7451
818.078125 87.529 2.8496
824.006226 87.539 2.9534
829.977295 87.549 3.0566
835.991699 87.559 3.1594
842.049622 87.568 3.2616
848.151428 87.577 3.3634
854.297485 87.587 3.4646
860.488098 87.596 3.5653
866.723572 87.606 3.6656
873.004211 87.615 3.7662
879.330322 87.625 3.8666
885.702332 87.635 3.9666
892.120483 87.645 4.0666
898.585144 87.655 4.1670
905.096680 87.664 4.2676
911.655396 87.673 4.3685
918.261597 87.683 4.4696
924.915710 87.692 4.5709
931.618042 87.702 4.6726
938.368896 87.712 4.7752
945.168762 87.722 4.8786
952.017822 87.732 4.9827
958.916504 87.741 5.0876
965.865234 87.750 5.1935
972.864319 87.760 5.3006
979.914062 87.769 5.4093
987.014954 87.779 5.5196
994.167236 87.788 5.6316
1001.371399 87.798 5.7456
1008.627747 87.808 5.8617
1015.936646 87.818 5.9805
1023.298584 87.828 6.1022
1030.713867 87.837 6.2276
1038.182739 87.846 6.3574
1045.705933 87.856 6.4924
1053.283447 87.866 6.6335
1060.916016 87.876 6.7814
1068.603882 87.886 6.9369
1076.347412 87.898 7.1003
1084.147095 87.911 7.2729
1092.003296 87.926 7.4514
1099.916382 87.943 7.6339
1107.886841 87.962 7.8182
1115.915039 87.984 8.0026
1124.001343 88.008 8.1833
1132.146362 88.035 8.3563
1140.350342 88.064 8.5204
1148.613770 88.094 8.6728
1156.937134 88.126 8.8144
1165.320801 88.158 8.9453
1173.765137 88.190 9.0645
1182.270752 88.223 9.1699
1190.838013 88.256 9.2646
1199.467285 88.287 9.3506
1208.159180 88.318 9.4297
1216.913940 88.348 9.5046
1225.732178 88.377 9.5748
1234.614380 88.406 9.6398
1243.560913 88.434 9.7018
1252.572266 88.461 9.7625
1261.648926 88.488 9.8228
1270.791382 88.514 9.8842
1280.000000 88.539 9.9468
1289.275391 88.564 10.0109
1298.618042 88.590 10.0767
1308.028320 88.615 10.1449
1317.506836 88.640 10.2147
1327.054077 88.665 10.2855
1336.670410 88.690 10.3577
1346.356567 88.715 10.4318
1356.112793 88.740 10.5077
1365.939697 88.765 10.5855
1375.837891 88.790 10.6657
1385.807739 88.815 10.7484
1395.849854 88.840 10.8347
1405.964844 88.865 10.9253
1416.152954 88.890 11.0206
1426.415039 88.915 11.1204
1436.751465 88.940 11.2276
1447.162720 88.965 11.3445
1457.649414 88.990 11.4725
1468.212158 89.017 11.6134
1478.851440 89.045 11.7674
1489.567871 89.074 11.9367
1500.361816 89.107 12.1163
1511.234131 89.146 12.3052
1522.185059 89.190 12.4932
1533.215454 89.239 12.6714
1544.325806 89.293 12.8343
1555.516602 89.350 12.9742
1566.788574 89.411 13.0896
1578.142090 89.472 13.1766
1589.578003 89.534 13.2348
1601.096680 89.596 13.2583
1612.698975 89.655 13.2600
1624.385254 89.706 13.2474
1636.156250 89.754 13.2311
1648.012451 89.799 13.2253
1659.954590 89.843 13.2270
1671.983398 89.887 13.2369
1684.099243 89.930 13.2579
1696.302856 89.971 13.2918
1708.594971 90.012 13.3417
1720.976196 90.055 13.4133
1733.447144 90.100 13.5006
1746.008423 90.149 13.5996
1758.660645 90.201 13.7105
1771.404663 90.255 13.8345
1784.240967 90.314 13.9645
1797.170288 90.382 14.0984
1810.193359 90.458 14.2215
1823.310791 90.539 14.3194
1836.523193 90.626 14.3888
1849.831421 90.716 14.4229
1863.236084 90.809 14.4191
1876.737793 90.903 14.3696
1890.337524 90.996 14.2825
1904.035645 91.084 14.1573
1917.833008 91.168 14.0116
1931.730469 91.245 13.8602
1945.728638 91.319 13.7116
1959.828125 91.392 13.5810
1974.029907 91.466 13.4635
1988.334473 91.543 13.3631
2002.742798 91.625 13.2684
2017.255493 91.714 13.1734
2031.873291 91.809 13.0655
2046.597168 91.909 12.9317
2061.427734 92.015 12.7668
2076.365479 92.123 12.5612
2091.411865 92.235 12.3141
2106.566895 92.347 12.0209
2121.832031 92.459 11.6835
2137.207764 92.569 11.3001
2152.694824 92.678 10.8768
2168.294189 92.783 10.4158
2184.006592 92.884 9.9273
2199.832764 92.979 9.4225
2215.773682 93.072 8.9002
2231.830078 93.165 8.3664
2248.002686 93.260 7.8104
2264.292725 93.355 7.2231
2280.700684 93.450 6.6047
2297.227539 93.540 5.9510
2313.874268 93.627 5.2659
2330.641602 93.710 4.5519
2347.530273 93.790 3.8093
2364.541504 93.865 3.0360
2381.676025 93.935 2.2407
2398.934570 93.995 1.4274
2416.318359 94.050 0.6067
2433.827881 94.099 -0.2084
2451.464355 94.144 -1.0216
2469.228760 94.187 -1.8302
2487.121826 94.229 -2.6405
2505.144531 94.269 -3.4572
2523.297852 94.306 -4.2822
2541.582764 94.340 -5.1188
2560.000000 94.372 -5.9682
2578.550781 94.401 -6.8338
2597.236084 94.426 -7.7119
2616.056641 94.444 -8.6025
2635.013672 94.456 -9.4982
2654.108154 94.462 -10.3916
2673.340820 94.462 -11.2821
2692.713135 94.459 -12.1673
2712.225586 94.451 -13.0449
2731.879395 94.436 -13.9143
2751.675781 94.416 -14.7691
2771.615479 94.390 -15.6036
2791.699707 94.359 -16.4145
2811.929688 94.325 -17.1968
2832.305908 94.287 -17.9495
2852.830078 94.246 -18.6695
2873.502930 94.203 -19.3571
2894.325439 94.160 -20.0099
2915.298828 94.118 -20.6332
2936.424316 94.078 -21.2294
2957.702881 94.039 -21.8055
2979.135742 94.005 -22.3685
3000.723633 93.972 -22.9206
3022.468262 93.940 -23.4637
3044.370117 93.911 -24.0055
3066.430908 93.887 -24.5532
3088.651611 93.865 -25.1115
3111.033203 93.843 -25.6888
3133.577148 93.820 -26.2811
3156.284180 93.796 -26.8861
3179.156006 93.770 -27.5070
3202.193359 93.745 -28.1481
3225.397949 93.716 -28.8048
3248.770508 93.680 -29.4782
3272.312500 93.638 -30.1550
3296.024902 93.589 -30.8234
3319.909180 93.535 -31.4800
3343.966797 93.477 -32.1207
3368.198486 93.413 -32.7361
3392.605713 93.341 -33.3163
3417.189941 93.264 -33.8586
3441.952393 93.189 -34.3545
3466.894287 93.113 -34.8120
3492.016846 93.039 -35.2349
3517.321289 92.965 -35.6272
3542.809326 92.894 -35.9932
3568.481934 92.824 -36.3365
3594.340576 92.757 -36.6616
3620.386719 92.692 -36.9696
3646.621582 92.629 -37.2630
3673.046387 92.566 -37.5407
3699.662842 92.504 -37.8037
3726.472168 92.442 -38.0479
3753.475586 92.381 -38.2709
3780.675049 92.320 -38.4682
3808.071289 92.261 -38.6335
3835.666016 92.204 -38.7704
3863.460938 92.153 -38.8796
3891.457275 92.107 -38.9637
3919.656250 92.065 -39.0236
3948.059814 92.030 -39.0648
3976.668945 92.005 -39.0878
4005.485596 91.989 -39.1079
4034.510986 91.984 -39.1362
4063.746582 91.990 -39.1857
4093.194336 92.005 -39.2686
4122.855469 92.030 -39.3982
4152.730957 92.064 -39.5887
4182.823730 92.104 -39.8496
4213.133789 92.147 -40.1973
4243.664062 92.190 -40.6248
4274.415527 92.227 -41.1369
4305.389648 92.257 -41.7131
4336.588379 92.275 -42.3396
4368.013184 92.284 -42.9998
4399.665527 92.282 -43.6747
4431.547363 92.272 -44.3567
4463.660156 92.255 -45.0343
4496.005371 92.230 -45.7007
4528.585449 92.199 -46.3450
4561.401367 92.163 -46.9671
4594.455078 92.127 -47.5628
4627.748535 92.088 -48.1343
4661.283203 92.048 -48.6830
4695.060547 92.007 -49.2075
4729.083008 91.968 -49.7015
4763.352051 91.934 -50.1807
4797.869141 91.908 -50.6518
4832.636719 91.889 -51.1355
4867.655762 91.877 -51.6528
4902.928711 91.869 -52.2102
4938.457520 91.863 -52.8199
4974.243652 91.856 -53.4847
5010.289062 91.849 -54.2145
5046.595703 91.836 -54.9989
5083.165527 91.813 -55.8395
5120.000000 91.777 -56.7097
5157.101562 91.726 -57.5888
5194.472168 91.663 -58.4598
5232.113281 91.591 -59.2973
5270.027344 91.511 -60.1060
5308.216309 91.429 -60.8808
5346.681641 91.342 -61.6264
5385.426270 91.253 -62.3440
5424.451172 91.161 -63.0396
5463.758789 91.072 -63.7181
5503.351562 90.982 -64.3848
5543.230957 90.890 -65.0490
5583.399414 90.793 -65.7038
5623.859375 90.693 -66.3465
5664.611816 90.590 -66.9740
5705.660156 90.483 -67.5810
5747.005859 90.375 -68.1710
5788.650879 90.265 -68.7465
5830.597656 90.153 -69.3052
5872.848633 90.036 -69.8472
5915.405762 89.918 -70.3684
5958.271484 89.797 -70.8639
6001.447266 89.675 -71.3356
6044.936523 89.551 -71.7835
6088.740234 89.427 -72.2089
6132.861816 89.302 -72.6126
6177.303223 89.178 -72.9971
6222.066406 89.052 -73.3624
6267.154297 88.928 -73.7162
6312.568359 88.806 -74.0657
6358.312012 88.685 -74.4133
6404.386719 88.560 -74.7646
6450.795898 88.434 -75.1172
6497.541016 88.305 -75.4749
6544.625000 88.171 -75.8233
6592.049805 88.025 -76.1564
6639.818359 87.870 -76.4526
6687.933594 87.706 -76.6881
6736.396973 87.537 -76.8623
6785.211426 87.367 -76.9677
6834.379883 87.194 -77.0020
6883.904785 87.017 -76.9615
6933.788574 86.840 -76.8428
6984.033691 86.666 -76.6364
7034.642578 86.499 -76.3576
7085.618652 86.342 -76.0167
7136.963867 86.194 -75.6191
7188.681152 86.051 -75.1730
7240.773438 85.918 -74.6806
7293.243164 85.794 -74.1440
7346.092773 85.681 -73.5720
7399.325684 85.579 -72.9711
7452.944336 85.488 -72.3492
7506.951172 85.410 -71.7122
7561.350098 85.343 -71.0713
7616.142578 85.291 -70.4383
7671.332031 85.250 -69.8172
7726.921875 85.217 -69.2141
7782.914551 85.194 -68.6339
7839.312500 85.183 -68.0814
7896.119629 85.182 -67.5616
7953.337891 85.187 -67.0819
8010.971191 85.200 -66.6412
8069.021973 85.219 -66.2383
8127.493164 85.245 -65.8817
8186.388672 85.279 -65.5793
8245.710938 85.319 -65.3331
8305.461914 85.361 -65.1507
8365.647461 85.404 -65.0235
8426.267578 85.445 -64.9472
8487.328125 85.487 -64.9170
8548.831055 85.529 -64.9286
8610.779297 85.570 -64.9776
8673.176758 85.609 -65.0584
8736.026367 85.649 -65.1703
8799.331055 85.691 -65.3073
8863.094727 85.735 -65.4800
8927.320312 85.783 -65.6958
8992.010742 85.833 -65.9585
9057.170898 85.882 -66.2741
9122.802734 85.931 -66.6429
9188.910156 85.980 -67.0671
9255.497070 86.027 -67.5473
9322.566406 86.071 -68.0860
9390.121094 86.111 -68.6787
9458.166016 86.145 -69.3227
9526.704102 86.175 -70.0152
9595.738281 86.200 -70.7509
9665.273438 86.221 -71.5357
9735.311523 86.238 -72.3738
9805.857422 86.248 -73.2660
9876.915039 86.250 -74.2170
9948.487305 86.242 -75.2194
10020.578125 86.222 -76.2705
10093.191406 86.190 -77.3610
10166.331055 86.145 -78.4852
10240.000000 86.084 -79.6299
10314.203125 86.006 -80.7853
10388.944336 85.910 -81.9356
10464.226562 85.799 -83.0633
10540.054688 85.672 -84.1636
10616.432617 85.531 -85.2289
10693.363281 85.376 -86.2501
10770.852539 85.205 -87.2206
10848.902344 85.019 -88.1263
10927.517578 84.819 -88.9534
11006.703125 84.605 -89.6942
11086.461914 84.380 -90.3400
11166.798828 84.143 -90.8803
11247.718750 83.895 -91.3054
11329.223633 83.637 -91.6048
11411.320312 83.372 -91.7675
11494.011719 83.099 -91.7853
11577.301758 82.823 -91.6527
11661.195312 82.543 -91.3512
11745.697266 82.258 -90.8666
11830.811523 81.975 -90.1793
11916.542969 81.696 -89.2735
12002.894531 81.425 -88.1241
12089.873047 81.162 -86.6924
12177.480469 80.928 -85.0033
12265.723633 80.745 -83.0395
12354.606445 80.624 -80.8900
12444.132812 80.581 -78.6005
12534.308594 80.622 -76.2854
12625.136719 80.764 -74.0219
12716.624023 80.996 -71.9680
12808.773438 81.327 -70.2845
12901.591797 81.712 -69.0426
12995.082031 82.110 -68.3816
13089.250000 82.505 -68.2593
13184.099609 82.874 -68.7050
13279.636719 83.202 -69.6380
13375.867188 83.474 -71.0420
13472.793945 83.678 -72.7527
13570.422852 83.792 -74.6407
13668.759766 83.838 -76.5825
13767.809570 83.830 -78.4174
13867.577148 83.776 -80.1265
13968.067383 83.688 -81.6385
14069.285156 83.574 -82.9541
14171.237305 83.444 -84.0357
14273.927734 83.312 -84.9287
14377.362305 83.194 -85.6505
14481.546875 83.089 -86.2502
14586.486328 82.997 -86.7756
14692.185547 82.918 -87.2484
14798.651367 82.854 -87.7002
14905.888672 82.800 -88.1464
15013.902344 82.757 -88.6098
15122.700195 82.722 -89.0991
15232.285156 82.694 -89.6280
15342.664062 82.671 -90.2043
15453.843750 82.652 -90.8409
15565.829102 82.634 -91.5371
15678.625000 82.614 -92.2999
15792.239258 82.589 -93.1194
15906.675781 82.557 -93.9910
16021.942383 82.517 -94.9050
16138.043945 82.470 -95.8538
16254.986328 82.415 -96.8263
16372.777344 82.350 -97.8109
16491.421875 82.276 -98.8015
16610.923828 82.198 -99.7822
16731.294922 82.116 -100.7702
16852.535156 82.038 -101.7705
16974.656250 81.959 -102.8046
17097.662109 81.881 -103.8896
17221.558594 81.800 -105.0437
17346.353516 81.720 -106.2901
17472.052734 81.632 -107.6306
17598.662109 81.528 -109.0830
17726.189453 81.404 -110.6228
17854.640625 81.254 -112.2459
17984.021484 81.075 -113.9087
18114.341797 80.858 -115.5798
18245.605469 80.607 -117.2188
18377.820312 80.322 -118.7945
18510.994141 79.997 -120.2490
18645.132812 79.625 -121.5467
18780.242188 79.211 -122.5892
18916.332031 78.750 -123.2668
19053.408203 78.266 -123.5773
19191.476562 77.783 -123.4599
19330.546875 77.305 -122.9815
19470.623047 76.839 -122.1798
19611.714844 76.394 -121.0850
19753.830078 75.974 -119.7057
19896.974609 75.604 -118.1429
