* Measurement data measured by REW V5.20.13
* Source: C:\Users\kurin\Desktop\Targets and Curves\Resolve\Img\Files\empire ears evo_SPL.txt
* Format: Comma/Tab/Space delimited data
* Dated: Aug 14, 2023 3:21:10 PM
* REW Settings:
*  C-weighting compensation: Off
*  Target level: 75.0 dB
* Note: ; Measurement imported from C:\Users\kurin\Desktop\Targets and Curves\Resolve\Img\Files\empire ears evo_SPL.txt Format: Comma/Tab/Space delimited data 623 values loaded, 5 Hz to 39,792 Hz log spaced 
* Measurement: empire ears evo_SPL
* Smoothing: 1/48 octave
* Frequency Step: 1/96 octave
* Start Frequency: 5.000 Hz
*
* Freq(Hz) SPL(dB) Phase(degrees)
5.000000 105.189 -14.4680
5.036232 105.185 -14.4723
5.072727 105.181 -14.4770
5.109486 105.176 -14.4825
5.146511 105.170 -14.4890
5.183805 105.163 -14.4971
5.221369 105.155 -14.5060
5.259205 105.147 -14.5151
5.297316 105.139 -14.5250
5.335702 105.130 -14.5362
5.374367 105.121 -14.5480
5.413311 105.112 -14.5595
5.452538 105.103 -14.5710
5.492050 105.094 -14.5824
5.531847 105.085 -14.5940
5.571934 105.076 -14.6059
5.612310 105.067 -14.6180
5.652979 105.058 -14.6299
5.693943 105.049 -14.6420
5.735204 105.040 -14.6544
5.776763 105.031 -14.6670
5.818624 105.022 -14.6794
5.860788 105.013 -14.6920
5.903258 105.004 -14.7050
5.946035 104.995 -14.7180
5.989123 104.986 -14.7304
6.032523 104.977 -14.7430
6.076237 104.968 -14.7564
6.120268 104.959 -14.7700
6.164618 104.950 -14.7830
6.209289 104.941 -14.7960
6.254284 104.932 -14.8094
6.299605 104.923 -14.8230
6.345255 104.914 -14.8369
6.391235 104.905 -14.8510
6.437549 104.896 -14.8650
6.484198 104.887 -14.8790
6.531185 104.878 -14.8929
6.578513 104.869 -14.9070
6.626183 104.860 -14.9214
6.674199 104.851 -14.9360
6.722563 104.842 -14.9504
6.771278 104.833 -14.9650
6.820345 104.824 -14.9799
6.869768 104.815 -14.9950
6.919549 104.806 -15.0100
6.969691 104.797 -15.0250
7.020196 104.788 -15.0399
7.071068 104.779 -15.0550
7.122308 104.770 -15.0704
7.173919 104.761 -15.0860
7.225904 104.752 -15.1014
7.278266 104.743 -15.1170
7.331007 104.734 -15.1329
7.384131 104.725 -15.1490
7.437639 104.715 -15.1654
7.491535 104.706 -15.1820
7.545822 104.697 -15.1985
7.600502 104.688 -15.2150
7.655579 104.679 -15.2314
7.711054 104.670 -15.2480
7.766932 104.661 -15.2649
7.823214 104.652 -15.2820
7.879904 104.643 -15.2989
7.937005 104.634 -15.3160
7.994520 104.625 -15.3334
8.052452 104.616 -15.3510
8.110803 104.607 -15.3689
8.169578 104.598 -15.3870
8.228777 104.589 -15.4050
8.288406 104.580 -15.4230
8.348468 104.571 -15.4409
8.408964 104.562 -15.4590
8.469899 104.553 -15.4774
8.531276 104.544 -15.4960
8.593097 104.535 -15.5149
8.655366 104.526 -15.5340
8.718086 104.517 -15.5529
8.781260 104.508 -15.5720
8.844893 104.499 -15.5914
8.908987 104.490 -15.6110
8.973545 104.481 -15.6304
9.038571 104.472 -15.6500
9.104069 104.463 -15.6699
9.170040 104.454 -15.6900
9.236490 104.445 -15.7104
9.303422 104.436 -15.7310
9.370838 104.427 -15.7515
9.438744 104.418 -15.7720
9.507140 104.409 -15.7924
9.576033 104.400 -15.8130
9.645425 104.391 -15.8344
9.715320 104.382 -15.8560
9.785721 104.373 -15.8774
9.856632 104.364 -15.8990
9.928058 104.355 -15.9209
10.000000 104.346 -15.9430
10.072464 104.337 -15.9649
10.145453 104.328 -15.9870
10.218971 104.319 -16.0094
10.293022 104.310 -16.0320
10.367610 104.301 -16.0549
10.442738 104.292 -16.0780
10.518411 104.283 -16.1009
10.594631 104.274 -16.1240
10.671404 104.265 -16.1474
10.748734 104.256 -16.1710
10.826623 104.247 -16.1949
10.905077 104.238 -16.2190
10.984100 104.229 -16.2429
11.063695 104.220 -16.2670
11.143867 104.211 -16.2919
11.224621 104.202 -16.3170
11.305959 104.193 -16.3420
11.387886 104.184 -16.3670
11.470407 104.175 -16.3919
11.553527 104.166 -16.4170
11.637249 104.157 -16.4429
11.721577 104.148 -16.4690
11.806517 104.139 -16.4949
11.892071 104.130 -16.5210
11.978246 104.121 -16.5474
12.065045 104.112 -16.5740
12.152473 104.103 -16.6009
12.240536 104.094 -16.6280
12.329235 104.085 -16.6554
12.418578 104.076 -16.6830
12.508568 104.067 -16.7109
12.599211 104.058 -16.7390
12.690510 104.049 -16.7669
12.782471 104.040 -16.7950
12.875097 104.031 -16.8233
12.968395 104.022 -16.8520
13.062370 104.013 -16.8814
13.157025 104.004 -16.9110
13.252366 103.995 -16.9405
13.348398 103.986 -16.9700
13.445127 103.977 -16.9993
13.542556 103.968 -17.0290
13.640691 103.959 -17.0593
13.739536 103.949 -17.0900
13.839099 103.940 -17.1209
13.939383 103.931 -17.1520
14.040393 103.922 -17.1834
14.142136 103.913 -17.2150
14.244616 103.904 -17.2464
14.347837 103.895 -17.2780
14.451808 103.886 -17.3103
14.556532 103.877 -17.3430
14.662014 103.868 -17.3759
14.768262 103.859 -17.4090
14.875278 103.850 -17.4418
14.983070 103.841 -17.4750
15.091644 103.832 -17.5088
15.201005 103.823 -17.5430
15.311157 103.814 -17.5774
15.422109 103.805 -17.6120
15.533863 103.796 -17.6469
15.646428 103.787 -17.6820
15.759809 103.778 -17.7174
15.874010 103.769 -17.7530
15.989040 103.760 -17.7888
16.104904 103.751 -17.8250
16.221605 103.742 -17.8613
16.339155 103.733 -17.8980
16.457554 103.724 -17.9348
16.576813 103.715 -17.9720
16.696936 103.706 -18.0094
16.817928 103.697 -18.0470
16.939798 103.688 -18.0848
17.062551 103.679 -18.1229
17.186193 103.670 -18.1613
17.310732 103.661 -18.2000
17.436172 103.652 -18.2389
17.562521 103.643 -18.2780
17.689787 103.634 -18.3168
17.817974 103.625 -18.3560
17.947090 103.616 -18.3959
18.077143 103.607 -18.4360
18.208138 103.598 -18.4755
18.340080 103.589 -18.5150
18.472980 103.580 -18.5549
18.606844 103.571 -18.5950
18.741676 103.562 -18.6352
18.877487 103.553 -18.6750
19.014280 103.544 -18.7138
19.152065 103.535 -18.7520
19.290850 103.526 -18.7893
19.430639 103.517 -18.8260
19.571442 103.509 -18.8617
19.713264 103.501 -18.8970
19.856115 103.494 -18.9314
20.000000 103.487 -18.9670
20.144928 103.481 -19.0048
20.290907 103.476 -19.0470
20.437943 103.471 -19.0954
20.586044 103.467 -19.1510
20.735220 103.463 -19.2156
20.885475 103.459 -19.2879
21.036821 103.453 -19.3686
21.189262 103.445 -19.4529
21.342808 103.435 -19.5374
21.497467 103.424 -19.6189
21.653246 103.411 -19.6932
21.810154 103.398 -19.7599
21.968201 103.384 -19.8165
22.127390 103.371 -19.8659
22.287735 103.359 -19.9088
22.449242 103.349 -19.9500
22.611917 103.340 -19.9946
22.775772 103.332 -20.0419
22.940815 103.323 -20.0937
23.107054 103.314 -20.1469
23.274498 103.305 -20.1995
23.443153 103.295 -20.2509
23.613033 103.286 -20.3009
23.784142 103.276 -20.3470
23.956491 103.265 -20.3852
24.130091 103.256 -20.4200
24.304947 103.250 -20.4521
24.481071 103.247 -20.4889
24.658470 103.246 -20.5385
24.837156 103.245 -20.5999
25.017136 103.243 -20.6763
25.198421 103.241 -20.7639
25.381020 103.238 -20.8612
25.564941 103.234 -20.9649
25.750195 103.227 -21.0723
25.936790 103.219 -21.1809
26.124741 103.209 -21.2872
26.314051 103.198 -21.3909
26.504732 103.187 -21.4903
26.696796 103.175 -21.5849
26.890253 103.162 -21.6727
27.085112 103.150 -21.7559
27.281382 103.139 -21.8348
27.479073 103.128 -21.9129
27.678198 103.118 -21.9941
27.878765 103.109 -22.0769
28.080786 103.099 -22.1618
28.284271 103.089 -22.2469
28.489231 103.079 -22.3291
28.695675 103.069 -22.4119
28.903616 103.061 -22.4964
29.113064 103.053 -22.5859
29.324028 103.046 -22.6858
29.536524 103.038 -22.7909
29.750557 103.027 -22.8985
29.966141 103.015 -23.0059
30.183289 103.003 -23.1083
30.402010 102.991 -23.2089
30.622314 102.979 -23.3088
30.844217 102.968 -23.4089
31.067726 102.957 -23.5105
31.292856 102.946 -23.6128
31.519617 102.934 -23.7157
31.748020 102.922 -23.8179
31.978081 102.910 -23.9165
32.209808 102.898 -24.0169
32.443211 102.889 -24.1232
32.678310 102.880 -24.2359
32.915108 102.869 -24.3593
33.153625 102.857 -24.4848
33.393871 102.842 -24.6038
33.635857 102.826 -24.7208
33.879597 102.813 -24.8369
34.125103 102.801 -24.9538
34.372387 102.786 -25.0755
34.621464 102.771 -25.1968
34.872345 102.755 -25.3119
35.125042 102.739 -25.4269
35.379574 102.726 -25.5470
35.635948 102.712 -25.6689
35.894180 102.695 -25.7917
36.154285 102.676 -25.9128
36.416275 102.658 -26.0285
36.680161 102.640 -26.1408
36.945961 102.622 -26.2516
37.213688 102.604 -26.3588
37.483353 102.585 -26.4603
37.754974 102.567 -26.5589
38.028561 102.550 -26.6570
38.304131 102.534 -26.7539
38.581699 102.517 -26.8481
38.861279 102.500 -26.9429
39.142883 102.487 -27.0400
39.426529 102.474 -27.1419
39.712231 102.460 -27.2528
40.000000 102.446 -27.3678
40.289856 102.431 -27.4817
40.581814 102.417 -27.5998
40.875885 102.405 -27.7258
41.172089 102.393 -27.8598
41.470440 102.379 -28.0058
41.770950 102.362 -28.1558
42.073643 102.343 -28.3025
42.378525 102.322 -28.4478
42.685616 102.303 -28.5914
42.994934 102.283 -28.7328
43.306492 102.261 -28.8719
43.620308 102.238 -29.0068
43.936401 102.216 -29.1352
44.254780 102.193 -29.2588
44.575470 102.169 -29.3779
44.898483 102.146 -29.4948
45.223835 102.126 -29.6118
45.551544 102.106 -29.7298
45.881630 102.084 -29.8513
46.214108 102.062 -29.9738
46.548996 102.041 -30.0953
46.886307 102.019 -30.2168
47.226067 101.996 -30.3392
47.568283 101.973 -30.4608
47.912983 101.950 -30.5804
48.260181 101.926 -30.6978
48.609894 101.902 -30.8121
48.962143 101.878 -30.9238
49.316940 101.854 -31.0323
49.674313 101.831 -31.1398
50.034271 101.809 -31.2480
50.396843 101.787 -31.3578
50.762039 101.766 -31.4722
51.129883 101.744 -31.5878
51.500389 101.721 -31.7009
51.873581 101.698 -31.8158
52.249481 101.678 -31.9367
52.628101 101.658 -32.0608
53.009464 101.633 -32.1879
53.393593 101.608 -32.3148
53.780506 101.584 -32.4364
54.170223 101.561 -32.5578
54.562763 101.538 -32.6843
54.958145 101.514 -32.8108
55.356396 101.487 -32.9329
55.757530 101.461 -33.0538
56.161572 101.438 -33.1740
56.568542 101.416 -33.2978
56.978462 101.393 -33.4321
57.391350 101.368 -33.5697
57.807232 101.341 -33.7053
58.226128 101.313 -33.8408
58.648056 101.288 -33.9760
59.073048 101.262 -34.1128
59.501114 101.234 -34.2558
59.932281 101.204 -34.3968
60.366577 101.172 -34.5282
60.804020 101.139 -34.6528
61.244629 101.108 -34.7689
61.688435 101.078 -34.8818
62.135452 101.049 -34.9982
62.585712 101.019 -35.1128
63.039234 100.987 -35.2218
63.496040 100.955 -35.3278
63.956161 100.926 -35.4309
64.419617 100.898 -35.5358
64.886421 100.870 -35.6485
65.356621 100.842 -35.7658
65.830215 100.813 -35.8869
66.307251 100.783 -36.0098
66.787743 100.752 -36.1321
67.271713 100.720 -36.2538
67.759193 100.688 -36.3749
68.250206 100.655 -36.4928
68.744774 100.621 -36.6043
69.242928 100.586 -36.7108
69.744690 100.552 -36.8114
70.250084 100.519 -36.9098
70.759148 100.486 -37.0093
71.271896 100.454 -37.1098
71.788361 100.422 -37.2125
72.308571 100.389 -37.3168
72.832550 100.357 -37.4235
73.360321 100.323 -37.5298
73.891922 100.287 -37.6346
74.427376 100.250 -37.7338
74.966705 100.213 -37.8227
75.509949 100.176 -37.9029
76.057121 100.139 -37.9729
76.608261 100.104 -38.0379
77.163399 100.072 -38.1006
77.722557 100.042 -38.1669
78.285767 100.014 -38.2433
78.853058 99.986 -38.3298
79.424461 99.958 -38.4303
80.000000 99.928 -38.5388
80.579712 99.896 -38.6507
81.163628 99.862 -38.7658
81.751770 99.828 -38.8833
82.344177 99.793 -38.9998
82.940880 99.755 -39.1132
83.541901 99.715 -39.2188
84.147285 99.674 -39.3092
84.757050 99.632 -39.3899
85.371231 99.593 -39.4634
85.989868 99.555 -39.5309
86.612984 99.516 -39.5949
87.240616 99.478 -39.6539
87.872803 99.441 -39.7049
88.509560 99.405 -39.7549
89.150940 99.373 -39.8096
89.796967 99.342 -39.8699
90.447670 99.310 -39.9391
91.103088 99.277 -40.0148
91.763260 99.245 -40.0953
92.428215 99.213 -40.1818
93.097992 99.181 -40.2761
93.772614 99.147 -40.3748
94.452133 99.111 -40.4765
95.136566 99.074 -40.5778
95.825966 99.035 -40.6740
96.520363 98.996 -40.7668
97.219788 98.957 -40.8558
97.924286 98.917 -40.9418
98.633881 98.877 -41.0253
99.348625 98.837 -41.1068
100.068542 98.797 -41.1873
100.793686 98.756 -41.2668
101.524078 98.715 -41.3472
102.259766 98.673 -41.4248
103.000778 98.629 -41.4972
103.747162 98.585 -41.5619
104.498962 98.540 -41.6145
105.256203 98.496 -41.6589
106.018929 98.454 -41.6962
106.787186 98.412 -41.7299
107.561012 98.372 -41.7643
108.340446 98.332 -41.7989
109.125526 98.293 -41.8341
109.916290 98.254 -41.8729
110.712791 98.218 -41.9183
111.515060 98.182 -41.9709
112.323143 98.145 -42.0346
113.137085 98.106 -42.1029
113.956924 98.065 -42.1707
114.782700 98.022 -42.2368
115.614464 97.979 -42.2984
116.452255 97.936 -42.3549
117.296112 97.891 -42.4044
118.146095 97.846 -42.4489
119.002228 97.802 -42.4888
119.864563 97.759 -42.5269
120.733154 97.716 -42.5665
121.608040 97.672 -42.6069
122.489258 97.628 -42.6493
123.376869 97.584 -42.6909
124.270905 97.538 -42.7307
125.171425 97.491 -42.7649
126.078468 97.442 -42.7896
126.992081 97.393 -42.8050
127.912323 97.345 -42.8091
128.839233 97.297 -42.8040
129.772842 97.250 -42.7893
130.713242 97.205 -42.7700
131.660431 97.162 -42.7492
132.614502 97.121 -42.7320
133.575485 97.082 -42.7247
134.543427 97.044 -42.7270
135.518387 97.006 -42.7419
136.500412 96.966 -42.7659
137.489548 96.925 -42.7990
138.485855 96.881 -42.8339
139.489380 96.833 -42.8648
140.500168 96.783 -42.8880
141.518295 96.732 -42.8972
142.543793 96.681 -42.8940
143.576721 96.629 -42.8781
144.617142 96.577 -42.8491
145.665100 96.525 -42.8042
146.720642 96.475 -42.7502
147.783844 96.429 -42.6918
148.854752 96.384 -42.6322
149.933411 96.340 -42.5776
151.019897 96.296 -42.5231
152.114243 96.251 -42.4644
153.216522 96.206 -42.4052
154.326797 96.165 -42.3468
155.445114 96.124 -42.2921
156.571533 96.082 -42.2476
157.706116 96.039 -42.2041
158.848923 95.993 -42.1536
160.000000 95.947 -42.0991
161.159424 95.903 -42.0405
162.327255 95.859 -41.9791
163.503540 95.813 -41.9193
164.688354 95.766 -41.8531
165.881760 95.717 -41.7737
167.083801 95.668 -41.6823
168.294571 95.620 -41.5777
169.514099 95.572 -41.4603
170.742462 95.525 -41.3296
171.979736 95.479 -41.1874
173.225967 95.436 -41.0341
174.481232 95.395 -40.8734
175.745605 95.356 -40.7090
177.019119 95.319 -40.5404
178.301880 95.283 -40.3669
179.593933 95.250 -40.1934
180.895340 95.221 -40.0252
182.206177 95.194 -39.8604
183.526520 95.166 -39.7003
184.856430 95.138 -39.5414
186.195984 95.113 -39.3791
187.545227 95.089 -39.2174
188.904266 95.067 -39.0596
190.273132 95.047 -38.9024
191.651932 95.026 -38.7420
193.040726 95.008 -38.5824
194.439575 94.994 -38.4249
195.848572 94.984 -38.2744
197.267761 94.976 -38.1366
198.697250 94.970 -38.0103
200.137085 94.966 -37.8956
201.587372 94.963 -37.7942
203.048157 94.963 -37.7077
204.519531 94.965 -37.6362
206.001556 94.968 -37.5802
207.494324 94.972 -37.5401
208.997925 94.978 -37.5159
210.512405 94.986 -37.5090
212.037857 94.996 -37.5176
213.574371 95.010 -37.5519
215.122025 95.029 -37.6176
216.680893 95.052 -37.7266
218.251053 95.078 -37.8917
219.832581 95.104 -38.1163
221.425583 95.129 -38.4077
223.030121 95.150 -38.7670
224.646286 95.167 -39.2015
226.274170 95.176 -39.6996
227.913849 95.171 -40.2584
229.565399 95.152 -40.8585
231.228928 95.118 -41.4878
232.904510 95.068 -42.1221
234.592224 94.998 -42.7415
236.292191 94.911 -43.3205
238.004456 94.808 -43.8269
239.729126 94.694 -44.2609
241.466309 94.576 -44.6106
243.216080 94.453 -44.8804
244.978516 94.325 -45.0698
246.753738 94.196 -45.1818
248.541809 94.071 -45.2121
250.342850 93.950 -45.1812
252.156937 93.840 -45.1053
253.984161 93.736 -44.9923
255.824646 93.633 -44.8559
257.678467 93.535 -44.6944
259.545685 93.444 -44.5067
261.426483 93.358 -44.3045
263.320862 93.279 -44.0999
265.229004 93.203 -43.8916
267.150970 93.129 -43.6825
269.086853 93.057 -43.4726
271.036774 92.991 -43.2608
273.000824 92.928 -43.0536
274.979095 92.868 -42.8588
276.971710 92.808 -42.6716
278.978760 92.747 -42.4914
281.000336 92.686 -42.3125
283.036591 92.625 -42.1277
285.087585 92.565 -41.9406
287.153442 92.508 -41.7517
289.234283 92.451 -41.5635
291.330200 92.395 -41.3801
293.441284 92.339 -41.1965
295.567688 92.283 -41.0080
297.709503 92.227 -40.8175
299.866821 92.175 -40.6247
302.039795 92.124 -40.4346
304.228485 92.074 -40.2521
306.433044 92.024 -40.0765
308.653595 91.975 -39.9088
310.890228 91.926 -39.7474
313.143066 91.877 -39.5914
315.412231 91.827 -39.4394
317.697845 91.776 -39.2901
320.000000 91.725 -39.1434
322.318848 91.674 -38.9995
324.654510 91.622 -38.8565
327.007080 91.569 -38.7135
329.376709 91.514 -38.5675
331.763519 91.458 -38.4129
334.167603 91.403 -38.2555
336.589142 91.352 -38.0976
339.028198 91.301 -37.9434
341.484924 91.249 -37.7990
343.959473 91.197 -37.6614
346.451935 91.145 -37.5290
348.962463 91.093 -37.4043
351.491211 91.040 -37.2892
354.038239 90.986 -37.1833
356.603760 90.931 -37.0881
359.187866 90.874 -37.0003
361.790680 90.814 -36.9158
364.412354 90.753 -36.8382
367.053040 90.692 -36.7673
369.712860 90.630 -36.7101
372.391968 90.567 -36.6736
375.090454 90.500 -36.6580
377.808533 90.430 -36.6639
380.546265 90.355 -36.6969
383.303864 90.278 -36.7623
386.081451 90.193 -36.8607
388.879150 90.098 -36.9971
391.697144 89.989 -37.1625
394.535522 89.866 -37.3574
397.394501 89.723 -37.5574
400.274170 89.556 -37.7560
403.174744 89.360 -37.8997
406.096313 89.130 -37.9559
409.039062 88.867 -37.8546
412.003113 88.568 -37.5470
414.988647 88.235 -36.9366
417.995850 87.860 -35.9318
421.024811 87.465 -34.4674
424.075714 87.060 -32.4274
427.148743 86.682 -29.8729
430.244049 86.364 -26.7734
433.361786 86.133 -23.2898
436.502106 86.025 -19.5065
439.665161 86.047 -15.6250
442.851166 86.225 -11.8140
446.060242 86.526 -8.2575
449.292572 86.941 -5.1691
452.548340 87.420 -2.6289
455.827698 87.923 -0.8103
459.130798 88.420 0.3543
462.457855 88.873 0.8259
465.809021 89.275 0.7530
469.184448 89.606 0.2187
472.584381 89.867 -0.6181
476.008911 90.049 -1.6154
479.458252 90.163 -2.6379
482.932617 90.208 -3.5213
486.432159 90.207 -4.2102
489.957031 90.176 -4.5861
493.507477 90.135 -4.6752
497.083618 90.101 -4.4335
500.685699 90.093 -3.9539
504.313873 90.139 -3.2750
507.968323 90.238 -2.5175
511.649292 90.398 -1.7803
515.356934 90.610 -1.1687
519.091370 90.874 -0.7994
522.852966 91.165 -0.7366
526.641724 91.469 -1.0957
530.458008 91.760 -1.8399
534.301941 92.012 -3.0058
538.173706 92.218 -4.4876
542.073547 92.363 -6.2226
546.001648 92.451 -8.1163
549.958191 92.479 -10.0816
553.943420 92.447 -12.0328
557.957520 92.351 -13.8758
562.000671 92.203 -15.5497
566.073181 92.010 -16.9616
570.175171 91.787 -18.1136
574.306885 91.546 -18.9700
578.468567 91.293 -19.5535
582.660400 91.036 -19.8642
586.882568 90.784 -19.9351
591.135376 90.546 -19.7853
595.419006 90.325 -19.4564
599.733643 90.128 -18.9853
604.079590 89.954 -18.4052
608.456970 89.803 -17.7532
612.866089 89.673 -17.0534
617.307190 89.566 -16.3408
621.780457 89.475 -15.6194
626.286133 89.394 -14.9043
630.824463 89.324 -14.1973
635.395691 89.267 -13.5034
640.000000 89.218 -12.8273
644.637695 89.175 -12.1785
649.309021 89.136 -11.5481
654.014160 89.099 -10.9308
658.753418 89.065 -10.3250
663.527039 89.036 -9.7279
668.335205 89.009 -9.1390
673.178284 88.983 -8.5598
678.056396 88.958 -7.9820
682.969849 88.933 -7.3969
687.918945 88.910 -6.8071
692.903870 88.893 -6.2098
697.924927 88.879 -5.6111
702.982422 88.869 -5.0149
708.076477 88.862 -4.4241
713.207520 88.861 -3.8420
718.375732 88.863 -3.2720
723.581360 88.867 -2.7194
728.824707 88.872 -2.1819
734.106079 88.879 -1.6596
739.425720 88.886 -1.1498
744.783936 88.893 -0.6501
750.180908 88.901 -0.1597
755.617065 88.909 0.3216
761.092529 88.916 0.7973
766.607727 88.922 1.2703
772.162903 88.927 1.7423
777.758301 88.934 2.2160
783.394287 88.940 2.6913
789.071045 88.945 3.1674
794.789001 88.949 3.6503
800.548340 88.951 4.1458
806.349487 88.954 4.6542
812.192627 88.959 5.1777
818.078125 88.965 5.7150
824.006226 88.973 6.2654
829.977295 88.982 6.8300
835.991699 88.993 7.4129
842.049622 89.008 8.0048
848.151428 89.031 8.5985
854.297485 89.059 9.1908
860.488098 89.086 9.7745
866.723572 89.116 10.3549
873.004211 89.147 10.9368
879.330322 89.182 11.5149
885.702332 89.221 12.0834
892.120483 89.262 12.6480
898.585144 89.300 13.2123
905.096680 89.341 13.7769
911.655396 89.387 14.3468
918.261597 89.438 14.9119
924.915710 89.492 15.4620
931.618042 89.549 16.0021
938.368896 89.605 16.5352
945.168762 89.663 17.0571
952.017822 89.727 17.5648
958.916504 89.794 18.0571
965.865234 89.858 18.5287
972.864319 89.923 18.9893
979.914062 89.986 19.4481
987.014954 90.051 19.9023
994.167236 90.118 20.3522
1001.371399 90.187 20.7974
1008.627747 90.256 21.2362
1015.936646 90.326 21.6722
1023.298584 90.397 22.1104
1030.713867 90.470 22.5456
1038.182739 90.547 22.9747
1045.705933 90.627 23.3952
1053.283447 90.709 23.8032
1060.916016 90.793 24.2003
1068.603882 90.877 24.5873
1076.347412 90.964 24.9625
1084.147095 91.053 25.3249
1092.003296 91.144 25.6738
1099.916382 91.236 26.0075
1107.886841 91.329 26.3277
1115.915039 91.422 26.6363
1124.001343 91.517 26.9309
1132.146362 91.614 27.2099
1140.350342 91.712 27.4730
1148.613770 91.810 27.7184
1156.937134 91.908 27.9491
1165.320801 92.005 28.1671
1173.765137 92.103 28.3741
1182.270752 92.199 28.5721
1190.838013 92.296 28.7622
1199.467285 92.392 28.9462
1208.159180 92.490 29.1243
1216.913940 92.587 29.2974
1225.732178 92.686 29.4654
1234.614380 92.785 29.6284
1243.560913 92.886 29.7864
1252.572266 92.986 29.9399
1261.648926 93.089 30.0874
1270.791382 93.193 30.2284
1280.000000 93.299 30.3605
1289.275391 93.406 30.4790
1298.618042 93.515 30.5905
1308.028320 93.621 30.7008
1317.506836 93.730 30.8076
1327.054077 93.843 30.9133
1336.670410 93.961 31.0087
1346.356567 94.082 31.0851
1356.112793 94.207 31.1418
1365.939697 94.333 31.1756
1375.837891 94.461 31.1850
1385.807739 94.592 31.1688
1395.849854 94.724 31.1232
1405.964844 94.859 31.0444
1416.152954 94.994 30.9315
1426.415039 95.129 30.7811
1436.751465 95.262 30.5978
1447.162720 95.392 30.3823
1457.649414 95.519 30.1420
1468.212158 95.643 29.8848
1478.851440 95.765 29.6101
1489.567871 95.885 29.3181
1500.361816 96.004 29.0142
1511.234131 96.118 28.7033
1522.185059 96.230 28.3864
1533.215454 96.344 28.0685
1544.325806 96.457 27.7435
1555.516602 96.572 27.4067
1566.788574 96.687 27.0585
1578.142090 96.800 26.6984
1589.578003 96.915 26.3236
1601.096680 97.030 25.9322
1612.698975 97.147 25.5208
1624.385254 97.262 25.0831
1636.156250 97.376 24.6251
1648.012451 97.486 24.1513
1659.954590 97.597 23.6589
1671.983398 97.708 23.1466
1684.099243 97.819 22.6133
1696.302856 97.925 22.0547
1708.594971 98.029 21.4786
1720.976196 98.129 20.8916
1733.447144 98.227 20.2926
1746.008423 98.324 19.6825
1758.660645 98.419 19.0616
1771.404663 98.511 18.4301
1784.240967 98.601 17.7886
1797.170288 98.690 17.1392
1810.193359 98.779 16.4777
1823.310791 98.866 15.8004
1836.523193 98.952 15.1078
1849.831421 99.035 14.3977
1863.236084 99.115 13.6743
1876.737793 99.191 12.9406
1890.337524 99.264 12.1973
1904.035645 99.335 11.4452
1917.833008 99.403 10.6870
1931.730469 99.467 9.9253
1945.728638 99.528 9.1613
1959.828125 99.588 8.3987
1974.029907 99.646 7.6323
1988.334473 99.703 6.8580
2002.742798 99.759 6.0762
2017.255493 99.811 5.2845
2031.873291 99.860 4.4862
2046.597168 99.906 3.6828
2061.427734 99.948 2.8776
2076.365479 99.986 2.0724
2091.411865 100.021 1.2723
2106.566895 100.052 0.4842
2121.832031 100.082 -0.2958
2137.207764 100.111 -1.0696
2152.694824 100.139 -1.8360
2168.294189 100.163 -2.5946
2184.006592 100.186 -3.3446
2199.832764 100.209 -4.0819
2215.773682 100.233 -4.8160
2231.830078 100.258 -5.5560
2248.002686 100.283 -6.2989
2264.292725 100.304 -7.0456
2280.700684 100.324 -7.7938
2297.227539 100.343 -8.5402
2313.874268 100.362 -9.2889
2330.641602 100.380 -10.0445
2347.530273 100.395 -10.8027
2364.541504 100.406 -11.5629
2381.676025 100.413 -12.3186
2398.934570 100.418 -13.0632
2416.318359 100.421 -13.7957
2433.827881 100.421 -14.5137
2451.464355 100.420 -15.2151
2469.228760 100.418 -15.8966
2487.121826 100.417 -16.5602
2505.144531 100.416 -17.2044
2523.297852 100.418 -17.8361
2541.582764 100.423 -18.4600
2560.000000 100.431 -19.0822
2578.550781 100.441 -19.7098
2597.236084 100.454 -20.3460
2616.056641 100.468 -20.9974
2635.013672 100.483 -21.6622
2654.108154 100.497 -22.3418
2673.340820 100.509 -23.0330
2692.713135 100.520 -23.7340
2712.225586 100.529 -24.4407
2731.879395 100.536 -25.1486
2751.675781 100.541 -25.8567
2771.615479 100.546 -26.5608
2791.699707 100.552 -27.2659
2811.929688 100.558 -27.9754
2832.305908 100.564 -28.6896
2852.830078 100.569 -29.4102
2873.502930 100.573 -30.1358
2894.325439 100.577 -30.8651
2915.298828 100.581 -31.6006
2936.424316 100.585 -32.3453
2957.702881 100.587 -33.0967
2979.135742 100.587 -33.8532
3000.723633 100.586 -34.6157
3022.468262 100.585 -35.3840
3044.370117 100.584 -36.1594
3066.430908 100.581 -36.9448
3088.651611 100.576 -37.7364
3111.033203 100.569 -38.5314
3133.577148 100.560 -39.3302
3156.284180 100.550 -40.1324
3179.156006 100.538 -40.9372
3202.193359 100.523 -41.7442
3225.397949 100.507 -42.5522
3248.770508 100.490 -43.3578
3272.312500 100.471 -44.1664
3296.024902 100.453 -44.9826
3319.909180 100.433 -45.8042
3343.966797 100.408 -46.6315
3368.198486 100.380 -47.4611
3392.605713 100.350 -48.2901
3417.189941 100.317 -49.1162
3441.952393 100.279 -49.9392
3466.894287 100.237 -50.7494
3492.016846 100.189 -51.5368
3517.321289 100.139 -52.3025
3542.809326 100.090 -53.0439
3568.481934 100.039 -53.7617
3594.340576 99.985 -54.4586
3620.386719 99.929 -55.1269
3646.621582 99.872 -55.7579
3673.046387 99.816 -56.3572
3699.662842 99.765 -56.9266
3726.472168 99.716 -57.4686
3753.475586 99.669 -57.9867
3780.675049 99.624 -58.4798
3808.071289 99.585 -58.9458
3835.666016 99.551 -59.3909
3863.460938 99.524 -59.8184
3891.457275 99.504 -60.2360
3919.656250 99.492 -60.6511
3948.059814 99.488 -61.0690
3976.668945 99.491 -61.4953
4005.485596 99.503 -61.9368
4034.510986 99.524 -62.3990
4063.746582 99.555 -62.8926
4093.194336 99.594 -63.4272
4122.855469 99.641 -64.0110
4152.730957 99.696 -64.6518
4182.823730 99.759 -65.3595
4213.133789 99.828 -66.1451
4243.664062 99.901 -67.0127
4274.415527 99.975 -67.9685
4305.389648 100.051 -69.0166
4336.588379 100.128 -70.1617
4368.013184 100.205 -71.4088
4399.665527 100.278 -72.7648
4431.547363 100.346 -74.2286
4463.660156 100.407 -75.7997
4496.005371 100.460 -77.4832
4528.585449 100.505 -79.2855
4561.401367 100.537 -81.2026
4594.455078 100.551 -83.2357
4627.748535 100.546 -85.3753
4661.283203 100.521 -87.6155
4695.060547 100.472 -89.9464
4729.083008 100.397 -92.3682
4763.352051 100.290 -94.8441
4797.869141 100.142 -97.3531
4832.636719 99.956 -99.8476
4867.655762 99.729 -102.2858
4902.928711 99.462 -104.6288
4938.457520 99.156 -106.8383
4974.243652 98.811 -108.8718
5010.289062 98.425 -110.6874
5046.595703 98.006 -112.2459
5083.165527 97.556 -113.5007
5120.000000 97.083 -114.4313
5157.101562 96.594 -115.0061
5194.472168 96.096 -115.2119
5232.113281 95.594 -115.0202
5270.027344 95.101 -114.4449
5308.216309 94.631 -113.4693
5346.681641 94.199 -112.1562
5385.426270 93.821 -110.5335
5424.451172 93.506 -108.6904
5463.758789 93.269 -106.6919
5503.351562 93.113 -104.6400
5543.230957 93.048 -102.6267
5583.399414 93.062 -100.7487
5623.859375 93.152 -99.1196
5664.611816 93.296 -97.7807
5705.660156 93.476 -96.8172
5747.005859 93.674 -96.2102
5788.650879 93.871 -95.9855
5830.597656 94.060 -96.0946
5872.848633 94.228 -96.5168
5915.405762 94.370 -97.1939
5958.271484 94.480 -98.0810
6001.447266 94.558 -99.1174
6044.936523 94.598 -100.2398
6088.740234 94.607 -101.4111
6132.861816 94.589 -102.5796
6177.303223 94.545 -103.7263
6222.066406 94.479 -104.8175
6267.154297 94.394 -105.8460
6312.568359 94.298 -106.7912
6358.312012 94.192 -107.6598
6404.386719 94.079 -108.4519
6450.795898 93.962 -109.1675
6497.541016 93.840 -109.8038
6544.625000 93.718 -110.3693
6592.049805 93.599 -110.8682
6639.818359 93.485 -111.3118
6687.933594 93.374 -111.7139
6736.396973 93.268 -112.0713
6785.211426 93.161 -112.3833
6834.379883 93.060 -112.6557
6883.904785 92.968 -112.8904
6933.788574 92.885 -113.0980
6984.033691 92.809 -113.2872
7034.642578 92.741 -113.4651
7085.618652 92.684 -113.6366
7136.963867 92.637 -113.8171
7188.681152 92.602 -114.0209
7240.773438 92.576 -114.2557
7293.243164 92.557 -114.5335
7346.092773 92.544 -114.8563
7399.325684 92.537 -115.2292
7452.944336 92.534 -115.6547
7506.951172 92.534 -116.1385
7561.350098 92.535 -116.6761
7616.142578 92.534 -117.2649
7671.332031 92.534 -117.9056
7726.921875 92.535 -118.5947
7782.914551 92.537 -119.3420
7839.312500 92.539 -120.1577
7896.119629 92.538 -121.0382
7953.337891 92.530 -121.9868
8010.971191 92.514 -122.9925
8069.021973 92.489 -124.0484
8127.493164 92.454 -125.1451
8186.388672 92.408 -126.2792
8245.710938 92.348 -127.4269
8305.461914 92.271 -128.5698
8365.647461 92.181 -129.6882
8426.267578 92.079 -130.7555
8487.328125 91.971 -131.7738
8548.831055 91.857 -132.7360
8610.779297 91.741 -133.6433
8673.176758 91.622 -134.4918
8736.026367 91.506 -135.2898
8799.331055 91.395 -136.0385
8863.094727 91.291 -136.7563
8927.320312 91.195 -137.4594
8992.010742 91.107 -138.1563
9057.170898 91.025 -138.8581
9122.802734 90.949 -139.5722
9188.910156 90.883 -140.3039
9255.497070 90.824 -141.0707
9322.566406 90.775 -141.8876
9390.121094 90.733 -142.7672
9458.166016 90.696 -143.7229
9526.704102 90.662 -144.7662
9595.738281 90.632 -145.9091
9665.273438 90.601 -147.1631
9735.311523 90.568 -148.5445
9805.857422 90.527 -150.0505
9876.915039 90.472 -151.6875
9948.487305 90.401 -153.4442
10020.578125 90.313 -155.3191
10093.191406 90.200 -157.2891
10166.331055 90.056 -159.3528
10240.000000 89.875 -161.4440
10314.203125 89.647 -163.5126
10388.944336 89.379 -165.5078
10464.226562 89.080 -167.3734
10540.054688 88.745 -169.0754
10616.432617 88.370 -170.5747
10693.363281 87.965 -171.8304
10770.852539 87.532 -172.7816
10848.902344 87.088 -173.4501
10927.517578 86.651 -173.8257
11006.703125 86.221 -173.9450
11086.461914 85.805 -173.8286
11166.798828 85.410 -173.5162
11247.718750 85.049 -173.0364
11329.223633 84.722 -172.4433
11411.320312 84.433 -171.7941
11494.011719 84.174 -171.1087
11577.301758 83.938 -170.4209
11661.195312 83.726 -169.7457
11745.697266 83.543 -169.1096
11830.811523 83.377 -168.5121
11916.542969 83.216 -167.9662
12002.894531 83.064 -167.4567
12089.873047 82.921 -166.9748
12177.480469 82.784 -166.5146
12265.723633 82.649 -166.0729
12354.606445 82.516 -165.6324
12444.132812 82.383 -165.1747
12534.308594 82.255 -164.6996
12625.136719 82.137 -164.2007
12716.624023 82.027 -163.6798
12808.773438 81.922 -163.1386
12901.591797 81.827 -162.5713
12995.082031 81.742 -161.9689
13089.250000 81.671 -161.3422
13184.099609 81.617 -160.6958
13279.636719 81.581 -160.0394
13375.867188 81.563 -159.3808
13472.793945 81.567 -158.7307
13570.422852 81.593 -158.0926
13668.759766 81.646 -157.4954
13767.809570 81.730 -156.9539
13867.577148 81.846 -156.5132
13968.067383 81.997 -156.2126
14069.285156 82.175 -156.0852
14171.237305 82.375 -156.1687
14273.927734 82.594 -156.4886
14377.362305 82.828 -157.0753
14481.546875 83.069 -157.9517
14586.486328 83.310 -159.1562
14692.185547 83.539 -160.6733
14798.651367 83.743 -162.5162
14905.888672 83.917 -164.6349
15013.902344 84.051 -167.0055
15122.700195 84.143 -169.5621
15232.285156 84.185 -172.2498
15342.664062 84.182 -175.0111
15453.843750 84.135 -177.7779
15565.829102 84.050 179.4738
15678.625000 83.932 176.7932
15792.239258 83.789 174.1710
15906.675781 83.625 171.6235
16021.942383 83.446 169.1234
16138.043945 83.258 166.6600
16254.986328 83.061 164.2004
16372.777344 82.859 161.7050
16491.421875 82.640 159.1831
16610.923828 82.397 156.6135
16731.294922 82.124 154.0488
16852.535156 81.814 151.5216
16974.656250 81.470 149.0725
17097.662109 81.092 146.7455
17221.558594 80.682 144.5648
17346.353516 80.238 142.5675
17472.052734 79.769 140.7584
17598.662109 79.282 139.1625
17726.189453 78.784 137.7556
17854.640625 78.285 136.5296
17984.021484 77.786 135.4595
18114.341797 77.288 134.5206
18245.605469 76.791 133.7043
18377.820312 76.295 132.9803
18510.994141 75.792 132.3890
18645.132812 75.269 131.9487
18780.242188 74.736 131.6978
18916.332031 74.196 131.6784
19053.408203 73.652 131.8980
19191.476562 73.103 132.3773
19330.546875 72.558 133.1183
19470.623047 72.019 134.1488
19611.714844 71.504 135.4113
19753.830078 71.033 136.8815
19896.974609 70.606 138.4850
