* Measurement data measured by REW V5.20.13
* Source: C:\Users\kurin\Desktop\Targets and Curves\Resolve\Img\Files\Raycon e25_SPL.txt
* Format: Comma/Tab/Space delimited data
* Dated: Aug 15, 2023 12:19:54 AM
* REW Settings:
*  C-weighting compensation: Off
*  Target level: 75.0 dB
* Note: ; Measurement imported from C:\Users\kurin\Desktop\Targets and Curves\Resolve\Img\Files\Raycon e25_SPL.txt Format: Comma/Tab/Space delimited data 623 values loaded, 5 Hz to 39,792 Hz log spaced 
* Measurement: Raycon e25_SPL
* Smoothing: 1/48 octave
* Frequency Step: 1/96 octave
* Start Frequency: 5.000 Hz
*
* Freq(Hz) SPL(dB) Phase(degrees)
5.000000 103.092 5.7130
5.036232 103.094 5.7043
5.072727 103.097 5.6950
5.109486 103.100 5.6843
5.146511 103.104 5.6720
5.183805 103.109 5.6572
5.221369 103.114 5.6410
5.259205 103.119 5.6239
5.297316 103.124 5.6060
5.335702 103.129 5.5873
5.374367 103.135 5.5680
5.413311 103.141 5.5486
5.452538 103.147 5.5290
5.492050 103.152 5.5095
5.531847 103.158 5.4900
5.571934 103.164 5.4706
5.612310 103.170 5.4510
5.652979 103.175 5.4306
5.693943 103.181 5.4100
5.735204 103.187 5.3901
5.776763 103.193 5.3700
5.818624 103.199 5.3491
5.860788 103.204 5.3280
5.903258 103.209 5.3070
5.946035 103.215 5.2860
5.989123 103.221 5.2651
6.032523 103.227 5.2440
6.076237 103.232 5.2221
6.120268 103.238 5.2000
6.164618 103.244 5.1780
6.209289 103.250 5.1560
6.254284 103.256 5.1341
6.299605 103.261 5.1120
6.345255 103.267 5.0896
6.391235 103.273 5.0670
6.437549 103.278 5.0441
6.484198 103.284 5.0210
6.531185 103.290 4.9981
6.578513 103.296 4.9750
6.626183 103.302 4.9516
6.674199 103.307 4.9280
6.722563 103.312 4.9041
6.771278 103.318 4.8800
6.820345 103.324 4.8556
6.869768 103.330 4.8310
6.919549 103.336 4.8066
6.969691 103.341 4.7820
7.020196 103.347 4.7571
7.071068 103.353 4.7320
7.122308 103.358 4.7071
7.173919 103.364 4.6820
7.225904 103.370 4.6561
7.278266 103.376 4.6300
7.331007 103.382 4.6041
7.384131 103.387 4.5780
7.437639 103.392 4.5516
7.491535 103.398 4.5250
7.545822 103.404 4.4986
7.600502 103.410 4.4720
7.655579 103.415 4.4446
7.711054 103.421 4.4170
7.766932 103.427 4.3896
7.823214 103.433 4.3620
7.879904 103.438 4.3341
7.937005 103.444 4.3060
7.994520 103.450 4.2776
8.052452 103.456 4.2490
8.110803 103.462 4.2206
8.169578 103.467 4.1920
8.228777 103.473 4.1626
8.288406 103.479 4.1330
8.348468 103.485 4.1036
8.408964 103.490 4.0740
8.469899 103.495 4.0441
8.531276 103.501 4.0140
8.593097 103.507 3.9836
8.655366 103.513 3.9530
8.718086 103.519 3.9221
8.781260 103.524 3.8910
8.844893 103.530 3.8596
8.908987 103.536 3.8280
8.973545 103.541 3.7961
9.038571 103.547 3.7640
9.104069 103.553 3.7316
9.170040 103.559 3.6990
9.236490 103.565 3.6666
9.303422 103.570 3.6340
9.370838 103.575 3.6007
9.438744 103.581 3.5670
9.507140 103.587 3.5331
9.576033 103.593 3.4990
9.645425 103.598 3.4651
9.715320 103.604 3.4310
9.785721 103.610 3.3961
9.856632 103.616 3.3610
9.928058 103.621 3.3261
10.000000 103.627 3.2910
10.072464 103.633 3.2552
10.145453 103.639 3.2190
10.218971 103.644 3.1827
10.293022 103.650 3.1460
10.367610 103.656 3.1091
10.442738 103.662 3.0720
10.518411 103.668 3.0351
10.594631 103.673 2.9980
10.671404 103.678 2.9602
10.748734 103.684 2.9220
10.826623 103.690 2.8837
10.905077 103.696 2.8450
10.984100 103.701 2.8057
11.063695 103.707 2.7660
11.143867 103.713 2.7266
11.224621 103.719 2.6870
11.305959 103.725 2.6466
11.387886 103.730 2.6060
11.470407 103.736 2.5656
11.553527 103.742 2.5250
11.637249 103.748 2.4837
11.721577 103.753 2.4420
11.806517 103.758 2.4002
11.892071 103.764 2.3580
11.978246 103.770 2.3151
12.065045 103.776 2.2720
12.152473 103.782 2.2291
12.240536 103.787 2.1860
12.329235 103.793 2.1422
12.418578 103.799 2.0980
12.508568 103.804 2.0537
12.599211 103.810 2.0090
12.690510 103.816 1.9642
12.782471 103.822 1.9190
12.875097 103.828 1.8732
12.968395 103.833 1.8270
13.062370 103.838 1.7807
13.157025 103.844 1.7340
13.252366 103.850 1.6867
13.348398 103.856 1.6390
13.445127 103.861 1.5917
13.542556 103.867 1.5441
13.640691 103.873 1.4952
13.739536 103.879 1.4460
13.839099 103.884 1.3972
13.939383 103.890 1.3480
14.040393 103.896 1.2982
14.142136 103.902 1.2480
14.244616 103.908 1.1977
14.347837 103.913 1.1470
14.451808 103.919 1.0958
14.556532 103.925 1.0440
14.662014 103.931 0.9917
14.768262 103.936 0.9391
14.875278 103.941 0.8862
14.983070 103.947 0.8331
15.091644 103.953 0.7798
15.201005 103.959 0.7260
15.311157 103.964 0.6713
15.422109 103.970 0.6160
15.533863 103.976 0.5607
15.646428 103.982 0.5050
15.759809 103.987 0.4492
15.874010 103.993 0.3930
15.989040 103.999 0.3362
16.104904 104.005 0.2790
16.221605 104.011 0.2217
16.339155 104.016 0.1641
16.457554 104.021 0.1057
16.576813 104.027 0.0470
16.696936 104.033 -0.0118
16.817928 104.039 -0.0710
16.939798 104.044 -0.1308
17.062551 104.050 -0.1909
17.186193 104.056 -0.2513
17.310732 104.062 -0.3120
17.436172 104.067 -0.3728
17.562521 104.073 -0.4340
17.689787 104.079 -0.4953
17.817974 104.085 -0.5569
17.947090 104.090 -0.6194
18.077143 104.096 -0.6820
18.208138 104.102 -0.7439
18.340080 104.108 -0.8059
18.472980 104.114 -0.8685
18.606844 104.119 -0.9310
18.741676 104.124 -0.9928
18.877487 104.130 -1.0539
19.014280 104.136 -1.1139
19.152065 104.142 -1.1729
19.290850 104.148 -1.2314
19.430639 104.155 -1.2890
19.571442 104.162 -1.3446
19.713264 104.169 -1.4009
19.856115 104.178 -1.4597
20.000000 104.188 -1.5229
20.144928 104.198 -1.5936
20.290907 104.209 -1.6699
20.437943 104.219 -1.7519
20.586044 104.228 -1.8379
20.735220 104.237 -1.9268
20.885475 104.245 -2.0179
21.036821 104.252 -2.1113
21.189262 104.259 -2.2039
21.342808 104.265 -2.2918
21.497467 104.271 -2.3779
21.653246 104.278 -2.4627
21.810154 104.286 -2.5489
21.968201 104.294 -2.6394
22.127390 104.303 -2.7339
22.287735 104.311 -2.8330
22.449242 104.319 -2.9369
22.611917 104.327 -3.0467
22.775772 104.334 -3.1599
22.940815 104.339 -3.2756
23.107054 104.343 -3.3898
23.274498 104.345 -3.4982
23.443153 104.347 -3.6009
23.613033 104.348 -3.6963
23.784142 104.350 -3.7849
23.956491 104.352 -3.8653
24.130091 104.355 -3.9409
24.304947 104.360 -4.0133
24.481071 104.366 -4.0869
24.658470 104.374 -4.1668
24.837156 104.383 -4.2519
25.017136 104.392 -4.3428
25.198421 104.400 -4.4389
25.381020 104.408 -4.5404
25.564941 104.416 -4.6459
25.750195 104.423 -4.7553
25.936790 104.430 -4.8649
26.124741 104.435 -4.9706
26.314051 104.440 -5.0739
26.504732 104.446 -5.1732
26.696796 104.453 -5.2729
26.890253 104.461 -5.3769
27.085112 104.470 -5.4849
27.281382 104.479 -5.5975
27.479073 104.487 -5.7148
27.678198 104.495 -5.8377
27.878765 104.503 -5.9648
28.080786 104.510 -6.0968
28.284271 104.515 -6.2288
28.489231 104.519 -6.3567
28.695675 104.522 -6.4798
28.903616 104.525 -6.5953
29.113064 104.529 -6.7058
29.324028 104.534 -6.8120
29.536524 104.540 -6.9179
29.750557 104.548 -7.0281
29.966141 104.557 -7.1419
30.183289 104.565 -7.2602
30.402010 104.574 -7.3828
30.622314 104.583 -7.5103
30.844217 104.592 -7.6418
31.067726 104.601 -7.7776
31.292856 104.609 -7.9158
31.519617 104.617 -8.0540
31.748020 104.625 -8.1948
31.978081 104.634 -8.3401
32.209808 104.644 -8.4898
32.443211 104.653 -8.6445
32.678310 104.661 -8.8038
32.915108 104.669 -8.9674
33.153625 104.677 -9.1348
33.393871 104.684 -9.3071
33.635857 104.689 -9.4797
33.879597 104.693 -9.6489
34.125103 104.696 -9.8138
34.372387 104.699 -9.9709
34.621464 104.702 -10.1238
34.872345 104.707 -10.2735
35.125042 104.714 -10.4238
35.379574 104.722 -10.5791
35.635948 104.731 -10.7388
35.894180 104.739 -10.9041
36.154285 104.748 -11.0747
36.416275 104.757 -11.2510
36.680161 104.766 -11.4327
36.945961 104.775 -11.6202
37.213688 104.783 -11.8117
37.483353 104.791 -12.0045
37.754974 104.799 -12.2017
38.028561 104.808 -12.4056
38.304131 104.818 -12.6157
38.581699 104.827 -12.8321
38.861279 104.835 -13.0557
39.142883 104.843 -13.2873
39.426529 104.851 -13.5267
39.712231 104.858 -13.7751
40.000000 104.863 -14.0286
40.289856 104.866 -14.2838
40.581814 104.868 -14.5396
40.875885 104.869 -14.7934
41.172089 104.870 -15.0466
41.470440 104.870 -15.2995
41.770950 104.870 -15.5526
42.073643 104.870 -15.8061
42.378525 104.870 -16.0616
42.685616 104.870 -16.3206
42.994934 104.870 -16.5836
43.306492 104.869 -16.8520
43.620308 104.868 -17.1256
43.936401 104.866 -17.4052
44.254780 104.863 -17.6885
44.575470 104.858 -17.9746
44.898483 104.851 -18.2605
45.223835 104.843 -18.5427
45.551544 104.835 -18.8226
45.881630 104.827 -19.1003
46.214108 104.818 -19.3766
46.548996 104.809 -19.6518
46.886307 104.800 -19.9276
47.226067 104.792 -20.2047
47.568283 104.783 -20.4855
47.912983 104.774 -20.7732
48.260181 104.764 -21.0655
48.609894 104.753 -21.3617
48.962143 104.741 -21.6606
49.316940 104.727 -21.9613
49.674313 104.712 -22.2615
50.034271 104.695 -22.5578
50.396843 104.677 -22.8516
50.762039 104.660 -23.1419
51.129883 104.642 -23.4315
51.500389 104.624 -23.7240
51.873581 104.604 -24.0155
52.249481 104.582 -24.3027
52.628101 104.560 -24.5875
53.009464 104.539 -24.8707
53.393593 104.517 -25.1525
53.780506 104.493 -25.4351
54.170223 104.468 -25.7145
54.562763 104.443 -25.9864
54.958145 104.417 -26.2546
55.356396 104.392 -26.5215
55.757530 104.366 -26.7866
56.161572 104.339 -27.0509
56.568542 104.311 -27.3126
56.978462 104.283 -27.5697
57.391350 104.254 -27.8235
57.807232 104.225 -28.0757
58.226128 104.195 -28.3236
58.648056 104.163 -28.5654
59.073048 104.131 -28.7996
59.501114 104.098 -29.0231
59.932281 104.066 -29.2386
60.366577 104.035 -29.4476
60.804020 104.005 -29.6507
61.244629 103.975 -29.8484
61.688435 103.946 -30.0427
62.135452 103.919 -30.2344
62.585712 103.893 -30.4267
63.039234 103.869 -30.6226
63.496040 103.845 -30.8236
63.956161 103.822 -31.0319
64.419617 103.799 -31.2486
64.886421 103.777 -31.4767
65.356621 103.755 -31.7126
65.830215 103.730 -31.9542
66.307251 103.704 -32.2005
66.787743 103.678 -32.4495
67.271713 103.651 -32.7025
67.759193 103.623 -32.9616
68.250206 103.594 -33.2235
68.744774 103.562 -33.4863
69.242928 103.529 -33.7485
69.744690 103.496 -34.0079
70.250084 103.461 -34.2655
70.759148 103.424 -34.5231
71.271896 103.386 -34.7765
71.788361 103.346 -35.0225
72.308571 103.304 -35.2606
72.832550 103.262 -35.4886
73.360321 103.219 -35.7076
73.891922 103.176 -35.9176
74.427376 103.132 -36.1186
74.966705 103.088 -36.3104
75.509949 103.045 -36.4937
76.057121 103.002 -36.6689
76.608261 102.960 -36.8367
77.163399 102.918 -36.9966
77.722557 102.877 -37.1517
78.285767 102.838 -37.3037
78.853058 102.801 -37.4557
79.424461 102.764 -37.6116
80.000000 102.728 -37.7707
80.579712 102.692 -37.9334
81.163628 102.657 -38.1007
81.751770 102.622 -38.2742
82.344177 102.586 -38.4526
82.940880 102.549 -38.6363
83.541901 102.511 -38.8216
84.147285 102.471 -39.0054
84.757050 102.430 -39.1867
85.371231 102.389 -39.3633
85.989868 102.347 -39.5357
86.612984 102.304 -39.7032
87.240616 102.261 -39.8657
87.872803 102.218 -40.0225
88.509560 102.175 -40.1747
89.150940 102.132 -40.3230
89.796967 102.089 -40.4677
90.447670 102.046 -40.6096
91.103088 102.003 -40.7477
91.763260 101.960 -40.8814
92.428215 101.917 -41.0107
93.097992 101.873 -41.1357
93.772614 101.830 -41.2568
94.452133 101.788 -41.3740
95.136566 101.747 -41.4878
95.825966 101.705 -41.5978
96.520363 101.664 -41.7058
97.219788 101.625 -41.8122
97.924286 101.587 -41.9198
98.633881 101.550 -42.0313
99.348625 101.513 -42.1468
100.068542 101.477 -42.2673
100.793686 101.440 -42.3927
101.524078 101.404 -42.5232
102.259766 101.367 -42.6587
103.000778 101.330 -42.8000
103.747162 101.291 -42.9437
104.498962 101.251 -43.0868
105.256203 101.210 -43.2287
106.018929 101.169 -43.3680
106.787186 101.127 -43.5047
107.561012 101.084 -43.6383
108.340446 101.041 -43.7688
109.125526 100.998 -43.8958
109.916290 100.955 -44.0198
110.712791 100.912 -44.1408
111.515060 100.869 -44.2598
112.323143 100.826 -44.3774
113.137085 100.783 -44.4938
113.956924 100.740 -44.6094
114.782700 100.696 -44.7237
115.614464 100.653 -44.8360
116.452255 100.610 -44.9468
117.296112 100.567 -45.0565
118.146095 100.523 -45.1648
119.002228 100.480 -45.2714
119.864563 100.436 -45.3767
120.733154 100.393 -45.4812
121.608040 100.349 -45.5848
122.489258 100.306 -45.6876
123.376869 100.262 -45.7898
124.270905 100.219 -45.8914
125.171425 100.175 -45.9928
126.078468 100.132 -46.0945
126.992081 100.088 -46.1958
127.912323 100.044 -46.2962
128.839233 99.999 -46.3958
129.772842 99.955 -46.4945
130.713242 99.911 -46.5918
131.660431 99.866 -46.6873
132.614502 99.820 -46.7807
133.575485 99.775 -46.8712
134.543427 99.731 -46.9608
135.518387 99.687 -47.0516
136.500412 99.643 -47.1438
137.489548 99.599 -47.2385
138.485855 99.554 -47.3348
139.489380 99.509 -47.4317
140.500168 99.464 -47.5298
141.518295 99.419 -47.6300
142.543793 99.372 -47.7298
143.576721 99.324 -47.8273
144.617142 99.274 -47.9208
145.665100 99.224 -48.0074
146.720642 99.174 -48.0878
147.783844 99.124 -48.1612
148.854752 99.073 -48.2288
149.933411 99.023 -48.2903
151.019897 98.974 -48.3489
152.114243 98.926 -48.4071
153.216522 98.879 -48.4658
154.326797 98.832 -48.5263
155.445114 98.785 -48.5898
156.571533 98.738 -48.6591
157.706116 98.691 -48.7318
158.848923 98.642 -48.8075
160.000000 98.592 -48.8828
161.159424 98.540 -48.9543
162.327255 98.487 -49.0219
163.503540 98.434 -49.0846
164.688354 98.379 -49.1409
165.881760 98.323 -49.1900
167.083801 98.265 -49.2289
168.294571 98.207 -49.2538
169.514099 98.148 -49.2670
170.742462 98.091 -49.2703
171.979736 98.034 -49.2620
173.225967 97.975 -49.2426
174.481232 97.915 -49.2081
175.745605 97.857 -49.1545
177.019119 97.799 -49.0832
178.301880 97.743 -48.9944
179.593933 97.689 -48.8883
180.895340 97.637 -48.7650
182.206177 97.587 -48.6244
183.526520 97.541 -48.4636
184.856430 97.500 -48.2914
186.195984 97.467 -48.1122
187.545227 97.441 -47.9364
188.904266 97.421 -47.7734
190.273132 97.408 -47.6313
191.651932 97.402 -47.5186
193.040726 97.401 -47.4441
194.439575 97.405 -47.4191
195.848572 97.412 -47.4458
197.267761 97.418 -47.5330
198.697250 97.422 -47.6726
200.137085 97.421 -47.8629
201.587372 97.414 -48.0934
203.048157 97.400 -48.3563
204.519531 97.379 -48.6411
206.001556 97.350 -48.9381
207.494324 97.313 -49.2383
208.997925 97.269 -49.5299
210.512405 97.219 -49.8113
212.037857 97.165 -50.0758
213.574371 97.107 -50.3264
215.122025 97.048 -50.5637
216.680893 96.985 -50.7894
218.251053 96.919 -51.0070
219.832581 96.849 -51.2114
221.425583 96.775 -51.4022
223.030121 96.695 -51.5696
224.646286 96.610 -51.7079
226.274170 96.520 -51.8048
227.913849 96.425 -51.8471
229.565399 96.327 -51.8311
231.228928 96.231 -51.7452
232.904510 96.139 -51.6005
234.592224 96.054 -51.3975
236.292191 95.979 -51.1567
238.004456 95.917 -50.8915
239.729126 95.867 -50.6247
241.466309 95.830 -50.3796
243.216080 95.803 -50.1685
244.978516 95.783 -50.0133
246.753738 95.767 -49.9092
248.541809 95.750 -49.8631
250.342850 95.731 -49.8619
252.156937 95.706 -49.8995
253.984161 95.676 -49.9618
255.824646 95.640 -50.0354
257.678467 95.598 -50.1128
259.545685 95.553 -50.1818
261.426483 95.504 -50.2429
263.320862 95.454 -50.2918
265.229004 95.403 -50.3309
267.150970 95.351 -50.3608
269.086853 95.299 -50.3829
271.036774 95.247 -50.3988
273.000824 95.194 -50.4090
274.979095 95.142 -50.4147
276.971710 95.089 -50.4160
278.978760 95.036 -50.4137
281.000336 94.982 -50.4070
283.036591 94.929 -50.3953
285.087585 94.875 -50.3791
287.153442 94.822 -50.3581
289.234283 94.768 -50.3341
291.330200 94.715 -50.3089
293.441284 94.662 -50.2821
295.567688 94.609 -50.2538
297.709503 94.555 -50.2231
299.866821 94.501 -50.1896
302.039795 94.447 -50.1521
304.228485 94.392 -50.1093
306.433044 94.337 -50.0611
308.653595 94.282 -50.0067
310.890228 94.227 -49.9472
313.143066 94.173 -49.8833
315.412231 94.118 -49.8152
317.697845 94.064 -49.7437
320.000000 94.009 -49.6672
322.318848 93.955 -49.5845
324.654510 93.900 -49.4953
327.007080 93.846 -49.3992
329.376709 93.793 -49.2963
331.763519 93.740 -49.1868
334.167603 93.687 -49.0704
336.589142 93.636 -48.9466
339.028198 93.586 -48.8164
341.484924 93.538 -48.6790
343.959473 93.492 -48.5394
346.451935 93.449 -48.4006
348.962463 93.409 -48.2674
351.491211 93.371 -48.1454
354.038239 93.335 -48.0353
356.603760 93.299 -47.9398
359.187866 93.264 -47.8582
361.790680 93.229 -47.7911
364.412354 93.193 -47.7371
367.053040 93.156 -47.6964
369.712860 93.117 -47.6651
372.391968 93.076 -47.6408
375.090454 93.032 -47.6191
377.808533 92.986 -47.5951
380.546265 92.938 -47.5681
383.303864 92.889 -47.5356
386.081451 92.838 -47.4971
388.879150 92.786 -47.4514
391.697144 92.733 -47.3982
394.535522 92.680 -47.3365
397.394501 92.626 -47.2672
400.274170 92.573 -47.1906
403.174744 92.520 -47.1073
406.096313 92.467 -47.0182
409.039062 92.413 -46.9233
412.003113 92.361 -46.8229
414.988647 92.308 -46.7174
417.995850 92.255 -46.6067
421.024811 92.203 -46.4924
424.075714 92.153 -46.3757
427.148743 92.103 -46.2574
430.244049 92.053 -46.1388
433.361786 92.002 -46.0194
436.502106 91.953 -45.8989
439.665161 91.903 -45.7784
442.851166 91.853 -45.6602
446.060242 91.803 -45.5404
449.292572 91.752 -45.4156
452.548340 91.700 -45.2864
455.827698 91.650 -45.1519
459.130798 91.599 -45.0135
462.457855 91.548 -44.8726
465.809021 91.496 -44.7285
469.184448 91.446 -44.5807
472.584381 91.396 -44.4295
476.008911 91.346 -44.2744
479.458252 91.295 -44.1165
482.932617 91.246 -43.9569
486.432159 91.197 -43.7955
489.957031 91.148 -43.6335
493.507477 91.098 -43.4685
497.083618 91.048 -43.2982
500.685699 90.998 -43.1236
504.313873 90.949 -42.9446
507.968323 90.901 -42.7626
511.649292 90.853 -42.5792
515.356934 90.804 -42.3936
519.091370 90.756 -42.2052
522.852966 90.709 -42.0146
526.641724 90.663 -41.8224
530.458008 90.616 -41.6286
534.301941 90.569 -41.4345
538.173706 90.522 -41.2377
542.073547 90.475 -41.0361
546.001648 90.428 -40.8307
549.958191 90.381 -40.6210
553.943420 90.335 -40.4087
557.957520 90.290 -40.1953
562.000671 90.245 -39.9807
566.073181 90.201 -39.7660
570.175171 90.156 -39.5497
574.306885 90.111 -39.3304
578.468567 90.066 -39.1098
582.660400 90.023 -38.8896
586.882568 89.979 -38.6678
591.135376 89.933 -38.4435
595.419006 89.886 -38.2138
599.733643 89.840 -37.9747
604.079590 89.795 -37.7289
608.456970 89.750 -37.4777
612.866089 89.705 -37.2219
617.307190 89.662 -36.9625
621.780457 89.619 -36.6989
626.286133 89.575 -36.4303
630.824463 89.532 -36.1579
635.395691 89.491 -35.8820
640.000000 89.450 -35.6040
644.637695 89.410 -35.3261
649.309021 89.370 -35.0460
654.014160 89.330 -34.7621
658.753418 89.289 -34.4740
663.527039 89.249 -34.1802
668.335205 89.209 -33.8820
673.178284 89.171 -33.5798
678.056396 89.133 -33.2740
682.969849 89.096 -32.9654
687.918945 89.059 -32.6541
692.903870 89.023 -32.3405
697.924927 88.987 -32.0241
702.982422 88.951 -31.7043
708.076477 88.915 -31.3812
713.207520 88.881 -31.0547
718.375732 88.847 -30.7242
723.581360 88.813 -30.3898
728.824707 88.778 -30.0492
734.106079 88.744 -29.6998
739.425720 88.711 -29.3433
744.783936 88.679 -28.9805
750.180908 88.648 -28.6113
755.617065 88.618 -28.2356
761.092529 88.589 -27.8544
766.607727 88.562 -27.4679
772.162903 88.537 -27.0794
777.758301 88.514 -26.6929
783.394287 88.492 -26.3064
789.071045 88.469 -25.9196
794.789001 88.447 -25.5314
800.548340 88.427 -25.1402
806.349487 88.407 -24.7464
812.192627 88.388 -24.3508
818.078125 88.369 -23.9505
824.006226 88.350 -23.5424
829.977295 88.332 -23.1275
835.991699 88.317 -22.7050
842.049622 88.303 -22.2776
848.151428 88.292 -21.8472
854.297485 88.282 -21.4146
860.488098 88.274 -20.9802
866.723572 88.268 -20.5466
873.004211 88.265 -20.1166
879.330322 88.263 -19.6895
885.702332 88.262 -19.2666
892.120483 88.261 -18.8455
898.585144 88.261 -18.4245
905.096680 88.263 -18.0026
911.655396 88.265 -17.5778
918.261597 88.269 -17.1506
924.915710 88.275 -16.7202
931.618042 88.283 -16.2886
938.368896 88.293 -15.8573
945.168762 88.304 -15.4266
952.017822 88.317 -14.9969
958.916504 88.333 -14.5696
965.865234 88.351 -14.1460
972.864319 88.372 -13.7265
979.914062 88.394 -13.3120
987.014954 88.418 -12.9025
994.167236 88.445 -12.4978
1001.371399 88.474 -12.0994
1008.627747 88.505 -11.7090
1015.936646 88.538 -11.3266
1023.298584 88.573 -10.9517
1030.713867 88.610 -10.5872
1038.182739 88.650 -10.2354
1045.705933 88.692 -9.8964
1053.283447 88.735 -9.5719
1060.916016 88.779 -9.2593
1068.603882 88.824 -8.9559
1076.347412 88.872 -8.6642
1084.147095 88.922 -8.3848
1092.003296 88.974 -8.1199
1099.916382 89.027 -7.8709
1107.886841 89.083 -7.6399
1115.915039 89.142 -7.4282
1124.001343 89.203 -7.2406
1132.146362 89.266 -7.0817
1140.350342 89.331 -6.9534
1148.613770 89.396 -6.8599
1156.937134 89.461 -6.8002
1165.320801 89.524 -6.7748
1173.765137 89.587 -6.7829
1182.270752 89.647 -6.8244
1190.838013 89.705 -6.8966
1199.467285 89.759 -6.9975
1208.159180 89.809 -7.1254
1216.913940 89.856 -7.2791
1225.732178 89.899 -7.4553
1234.614380 89.935 -7.6530
1243.560913 89.966 -7.8652
1252.572266 89.990 -8.0864
1261.648926 90.008 -8.3111
1270.791382 90.020 -8.5338
1280.000000 90.025 -8.7492
1289.275391 90.024 -8.9518
1298.618042 90.018 -9.1363
1308.028320 90.007 -9.2964
1317.506836 89.991 -9.4295
1327.054077 89.972 -9.5303
1336.670410 89.952 -9.6008
1346.356567 89.932 -9.6398
1356.112793 89.911 -9.6520
1365.939697 89.891 -9.6415
1375.837891 89.871 -9.6082
1385.807739 89.851 -9.5528
1395.849854 89.831 -9.4763
1405.964844 89.814 -9.3780
1416.152954 89.799 -9.2634
1426.415039 89.787 -9.1382
1436.751465 89.776 -9.0025
1447.162720 89.766 -8.8583
1457.649414 89.757 -8.7056
1468.212158 89.751 -8.5446
1478.851440 89.746 -8.3776
1489.567871 89.743 -8.2075
1500.361816 89.741 -8.0337
1511.234131 89.740 -7.8569
1522.185059 89.739 -7.6758
1533.215454 89.740 -7.4895
1544.325806 89.741 -7.2969
1555.516602 89.743 -7.0963
1566.788574 89.746 -6.8889
1578.142090 89.752 -6.6744
1589.578003 89.760 -6.4559
1601.096680 89.770 -6.2361
1612.698975 89.781 -6.0159
1624.385254 89.795 -5.7967
1636.156250 89.810 -5.5800
1648.012451 89.827 -5.3682
1659.954590 89.845 -5.1598
1671.983398 89.862 -4.9548
1684.099243 89.880 -4.7499
1696.302856 89.898 -4.5407
1708.594971 89.918 -4.3299
1720.976196 89.939 -4.1197
1733.447144 89.962 -3.9079
1746.008423 89.984 -3.6935
1758.660645 90.007 -3.4759
1771.404663 90.033 -3.2521
1784.240967 90.061 -3.0279
1797.170288 90.092 -2.8083
1810.193359 90.125 -2.5928
1823.310791 90.158 -2.3831
1836.523193 90.193 -2.1778
1849.831421 90.229 -1.9758
1863.236084 90.267 -1.7789
1876.737793 90.306 -1.5885
1890.337524 90.346 -1.4038
1904.035645 90.386 -1.2245
1917.833008 90.427 -1.0507
1931.730469 90.469 -0.8826
1945.728638 90.513 -0.7197
1959.828125 90.556 -0.5620
1974.029907 90.600 -0.4076
1988.334473 90.644 -0.2542
2002.742798 90.689 -0.1026
2017.255493 90.735 0.0465
2031.873291 90.782 0.1944
2046.597168 90.828 0.3424
2061.427734 90.876 0.4903
2076.365479 90.926 0.6397
2091.411865 90.978 0.7874
2106.566895 91.031 0.9307
2121.832031 91.085 1.0704
2137.207764 91.140 1.2069
2152.694824 91.197 1.3385
2168.294189 91.256 1.4635
2184.006592 91.317 1.5825
2199.832764 91.377 1.6940
2215.773682 91.438 1.8016
2231.830078 91.499 1.9086
2248.002686 91.562 2.0136
2264.292725 91.626 2.1162
2280.700684 91.692 2.2166
2297.227539 91.759 2.3153
2313.874268 91.828 2.4106
2330.641602 91.899 2.5014
2347.530273 91.973 2.5866
2364.541504 92.047 2.6650
2381.676025 92.124 2.7367
2398.934570 92.202 2.8020
2416.318359 92.283 2.8598
2433.827881 92.365 2.9088
2451.464355 92.450 2.9498
2469.228760 92.535 2.9836
2487.121826 92.622 3.0089
2505.144531 92.712 3.0256
2523.297852 92.805 3.0310
2541.582764 92.899 3.0219
2560.000000 92.995 3.0001
2578.550781 93.092 2.9667
2597.236084 93.191 2.9212
2616.056641 93.291 2.8640
2635.013672 93.395 2.7933
2654.108154 93.500 2.7080
2673.340820 93.609 2.6065
2692.713135 93.718 2.4871
2712.225586 93.829 2.3487
2731.879395 93.943 2.1891
2751.675781 94.057 2.0099
2771.615479 94.173 1.8119
2791.699707 94.289 1.5950
2811.929688 94.407 1.3590
2832.305908 94.525 1.1042
2852.830078 94.645 0.8301
2873.502930 94.765 0.5393
2894.325439 94.886 0.2358
2915.298828 95.008 -0.0845
2936.424316 95.136 -0.4224
2957.702881 95.265 -0.7834
2979.135742 95.397 -1.1727
3000.723633 95.530 -1.5911
3022.468262 95.666 -2.0398
3044.370117 95.803 -2.5217
3066.430908 95.943 -3.0406
3088.651611 96.082 -3.5964
3111.033203 96.221 -4.1911
3133.577148 96.360 -4.8229
3156.284180 96.499 -5.4900
3179.156006 96.638 -6.1946
3202.193359 96.777 -6.9375
3225.397949 96.915 -7.7212
3248.770508 97.053 -8.5477
3272.312500 97.190 -9.4180
3296.024902 97.325 -10.3332
3319.909180 97.457 -11.2944
3343.966797 97.587 -12.3031
3368.198486 97.713 -13.3589
3392.605713 97.834 -14.4644
3417.189941 97.949 -15.6126
3441.952393 98.058 -16.7982
3466.894287 98.160 -18.0175
3492.016846 98.255 -19.2660
3517.321289 98.345 -20.5410
3542.809326 98.426 -21.8395
3568.481934 98.502 -23.1579
3594.340576 98.571 -24.4908
3620.386719 98.635 -25.8405
3646.621582 98.693 -27.2078
3673.046387 98.746 -28.5914
3699.662842 98.790 -29.9913
3726.472168 98.828 -31.4044
3753.475586 98.860 -32.8288
3780.675049 98.884 -34.2606
3808.071289 98.899 -35.6967
3835.666016 98.907 -37.1332
3863.460938 98.908 -38.5655
3891.457275 98.902 -39.9922
3919.656250 98.889 -41.4117
3948.059814 98.870 -42.8205
3976.668945 98.844 -44.2147
4005.485596 98.811 -45.5943
4034.510986 98.773 -46.9583
4063.746582 98.730 -48.3066
4093.194336 98.682 -49.6393
4122.855469 98.629 -50.9556
4152.730957 98.570 -52.2548
4182.823730 98.506 -53.5369
4213.133789 98.439 -54.8035
4243.664062 98.365 -56.0511
4274.415527 98.284 -57.2781
4305.389648 98.197 -58.4812
4336.588379 98.107 -59.6573
4368.013184 98.010 -60.8036
4399.665527 97.907 -61.9188
4431.547363 97.798 -62.9948
4463.660156 97.682 -64.0246
4496.005371 97.562 -65.0042
4528.585449 97.438 -65.9263
4561.401367 97.312 -66.7940
4594.455078 97.185 -67.6073
4627.748535 97.058 -68.3694
4661.283203 96.931 -69.0829
4695.060547 96.805 -69.7498
4729.083008 96.680 -70.3718
4763.352051 96.558 -70.9523
4797.869141 96.438 -71.4951
4832.636719 96.320 -72.0015
4867.655762 96.203 -72.4748
4902.928711 96.089 -72.9129
4938.457520 95.974 -73.3155
4974.243652 95.862 -73.6814
5010.289062 95.752 -74.0086
5046.595703 95.646 -74.2986
5083.165527 95.541 -74.5522
5120.000000 95.440 -74.7700
5157.101562 95.344 -74.9526
5194.472168 95.251 -75.1013
5232.113281 95.164 -75.2165
5270.027344 95.081 -75.3016
5308.216309 95.005 -75.3602
5346.681641 94.933 -75.3929
5385.426270 94.867 -75.4008
5424.451172 94.807 -75.3861
5463.758789 94.754 -75.3513
5503.351562 94.707 -75.2973
5543.230957 94.666 -75.2260
5583.399414 94.631 -75.1375
5623.859375 94.603 -75.0327
5664.611816 94.581 -74.9116
5705.660156 94.566 -74.7750
5747.005859 94.558 -74.6218
5788.650879 94.558 -74.4498
5830.597656 94.567 -74.2640
5872.848633 94.586 -74.0668
5915.405762 94.616 -73.8641
5958.271484 94.657 -73.6607
6001.447266 94.710 -73.4610
6044.936523 94.773 -73.2679
6088.740234 94.849 -73.0898
6132.861816 94.938 -72.9339
6177.303223 95.040 -72.8075
6222.066406 95.155 -72.7198
6267.154297 95.280 -72.6731
6312.568359 95.416 -72.6714
6358.312012 95.563 -72.7196
6404.386719 95.722 -72.8221
6450.795898 95.892 -72.9850
6497.541016 96.072 -73.2140
6544.625000 96.263 -73.5153
6592.049805 96.464 -73.8947
6639.818359 96.674 -74.3584
6687.933594 96.893 -74.9129
6736.396973 97.120 -75.5624
6785.211426 97.354 -76.3095
6834.379883 97.595 -77.1653
6883.904785 97.845 -78.1395
6933.788574 98.101 -79.2390
6984.033691 98.357 -80.4736
7034.642578 98.615 -81.8438
7085.618652 98.873 -83.3504
7136.963867 99.130 -85.0013
7188.681152 99.384 -86.8057
7240.773438 99.632 -88.7608
7293.243164 99.869 -90.8699
7346.092773 100.096 -93.1243
7399.325684 100.310 -95.5179
7452.944336 100.510 -98.0470
7506.951172 100.694 -100.7097
7561.350098 100.860 -103.4944
7616.142578 101.005 -106.3928
7671.332031 101.128 -109.3923
7726.921875 101.230 -112.4821
7782.914551 101.307 -115.6475
7839.312500 101.358 -118.8788
7896.119629 101.382 -122.1536
7953.337891 101.377 -125.4537
8010.971191 101.345 -128.7566
8069.021973 101.286 -132.0401
8127.493164 101.200 -135.2850
8186.388672 101.088 -138.4700
8245.710938 100.953 -141.5788
8305.461914 100.796 -144.5888
8365.647461 100.622 -147.4979
8426.267578 100.435 -150.2938
8487.328125 100.238 -152.9841
8548.831055 100.033 -155.5687
8610.779297 99.824 -158.0571
8673.176758 99.613 -160.4538
8736.026367 99.402 -162.7736
8799.331055 99.194 -165.0289
8863.094727 98.988 -167.2315
8927.320312 98.785 -169.3939
8992.010742 98.584 -171.5268
9057.170898 98.388 -173.6409
9122.802734 98.195 -175.7478
9188.910156 98.005 -177.8605
9255.497070 97.815 -179.9855
9322.566406 97.625 177.8683
9390.121094 97.434 175.6956
9458.166016 97.242 173.4886
9526.704102 97.046 171.2459
9595.738281 96.843 168.9611
9665.273438 96.632 166.6414
9735.311523 96.410 164.2878
9805.857422 96.174 161.9129
9876.915039 95.923 159.5239
9948.487305 95.656 157.1369
10020.578125 95.372 154.7668
10093.191406 95.072 152.4246
10166.331055 94.754 150.1215
10240.000000 94.420 147.8707
10314.203125 94.066 145.6835
10388.944336 93.696 143.5778
10464.226562 93.310 141.5735
10540.054688 92.909 139.6760
10616.432617 92.498 137.8938
10693.363281 92.075 136.2365
10770.852539 91.639 134.7130
10848.902344 91.196 133.3311
10927.517578 90.749 132.1038
11006.703125 90.299 131.0235
11086.461914 89.853 130.0905
11166.798828 89.411 129.2931
11247.718750 88.976 128.6241
11329.223633 88.551 128.0696
11411.320312 88.141 127.6202
11494.011719 87.745 127.2548
11577.301758 87.367 126.9560
11661.195312 87.005 126.7033
11745.697266 86.661 126.4750
11830.811523 86.334 126.2572
11916.542969 86.020 126.0307
12002.894531 85.720 125.7904
12089.873047 85.430 125.5269
12177.480469 85.149 125.2338
12265.723633 84.876 124.8987
12354.606445 84.607 124.5291
12444.132812 84.336 124.1232
12534.308594 84.062 123.6964
12625.136719 83.786 123.2612
12716.624023 83.505 122.8243
12808.773438 83.222 122.3907
12901.591797 82.933 121.9773
12995.082031 82.633 121.5992
13089.250000 82.329 121.2665
13184.099609 82.023 120.9944
13279.636719 81.717 120.7819
13375.867188 81.408 120.6318
13472.793945 81.100 120.5483
13570.422852 80.793 120.5386
13668.759766 80.490 120.5974
13767.809570 80.195 120.7244
13867.577148 79.909 120.9117
13968.067383 79.630 121.1524
14069.285156 79.362 121.4442
14171.237305 79.102 121.7842
14273.927734 78.854 122.1678
14377.362305 78.619 122.5916
14481.546875 78.396 123.0486
14586.486328 78.187 123.5338
14692.185547 77.994 124.0380
14798.651367 77.817 124.5557
14905.888672 77.658 125.0710
15013.902344 77.518 125.5711
15122.700195 77.397 126.0424
15232.285156 77.293 126.4716
15342.664062 77.206 126.8459
15453.843750 77.139 127.1518
15565.829102 77.087 127.3780
15678.625000 77.049 127.5109
15792.239258 77.024 127.5441
15906.675781 77.010 127.4698
16021.942383 77.006 127.2794
16138.043945 77.011 126.9648
16254.986328 77.024 126.5160
16372.777344 77.042 125.9224
16491.421875 77.064 125.1766
16610.923828 77.086 124.2702
16731.294922 77.105 123.1967
16852.535156 77.121 121.9459
16974.656250 77.127 120.5212
17097.662109 77.118 118.9172
17221.558594 77.090 117.1512
17346.353516 77.040 115.2303
17472.052734 76.964 113.1798
17598.662109 76.857 111.0146
17726.189453 76.717 108.7732
17854.640625 76.539 106.4847
17984.021484 76.323 104.1927
18114.341797 76.068 101.9377
18245.605469 75.776 99.7571
18377.820312 75.447 97.6901
18510.994141 75.084 95.7716
18645.132812 74.687 94.0419
18780.242188 74.264 92.5246
18916.332031 73.820 91.2582
19053.408203 73.363 90.2371
19191.476562 72.899 89.4784
19330.546875 72.438 88.9523
19470.623047 71.990 88.6483
19611.714844 71.559 88.5233
19753.830078 71.153 88.5444
19896.974609 70.773 88.6690
