* Measurement data measured by REW V5.20.13
* Source: C:\Users\kurin\Desktop\Targets and Curves\Resolve\Img\Files\Ovidius tx-901_SPL.txt
* Format: Comma/Tab/Space delimited data
* Dated: Aug 15, 2023 12:16:07 AM
* REW Settings:
*  C-weighting compensation: Off
*  Target level: 75.0 dB
* Note: ; Measurement imported from C:\Users\kurin\Desktop\Targets and Curves\Resolve\Img\Files\Ovidius tx-901_SPL.txt Format: Comma/Tab/Space delimited data 623 values loaded, 5 Hz to 39,792 Hz log spaced 
* Measurement: Ovidius tx-901_SPL
* Smoothing: 1/48 octave
* Frequency Step: 1/96 octave
* Start Frequency: 5.000 Hz
*
* Freq(Hz) SPL(dB) Phase(degrees)
5.000000 90.735 -2.7680
5.036232 90.735 -2.7690
5.072727 90.734 -2.7700
5.109486 90.733 -2.7709
5.146511 90.732 -2.7720
5.183805 90.731 -2.7739
5.221369 90.729 -2.7760
5.259205 90.728 -2.7780
5.297316 90.726 -2.7800
5.335702 90.724 -2.7819
5.374367 90.722 -2.7840
5.413311 90.720 -2.7865
5.452538 90.719 -2.7890
5.492050 90.718 -2.7910
5.531847 90.716 -2.7930
5.571934 90.714 -2.7954
5.612310 90.712 -2.7980
5.652979 90.710 -2.8005
5.693943 90.709 -2.8030
5.735204 90.707 -2.8055
5.776763 90.705 -2.8080
5.818624 90.704 -2.8105
5.860788 90.702 -2.8130
5.903258 90.700 -2.8155
5.946035 90.698 -2.8180
5.989123 90.696 -2.8205
6.032523 90.695 -2.8230
6.076237 90.693 -2.8254
6.120268 90.691 -2.8280
6.164618 90.689 -2.8310
6.209289 90.688 -2.8340
6.254284 90.687 -2.8365
6.299605 90.685 -2.8390
6.345255 90.683 -2.8420
6.391235 90.681 -2.8450
6.437549 90.680 -2.8475
6.484198 90.678 -2.8500
6.531185 90.676 -2.8529
6.578513 90.674 -2.8560
6.626183 90.673 -2.8591
6.674199 90.671 -2.8620
6.722563 90.669 -2.8645
6.771278 90.667 -2.8670
6.820345 90.665 -2.8699
6.869768 90.664 -2.8730
6.919549 90.663 -2.8759
6.969691 90.661 -2.8790
7.020196 90.659 -2.8825
7.071068 90.657 -2.8860
7.122308 90.655 -2.8891
7.173919 90.654 -2.8920
7.225904 90.652 -2.8949
7.278266 90.650 -2.8980
7.331007 90.649 -2.9015
7.384131 90.647 -2.9050
7.437639 90.645 -2.9080
7.491535 90.643 -2.9110
7.545822 90.641 -2.9144
7.600502 90.640 -2.9180
7.655579 90.638 -2.9216
7.711054 90.636 -2.9250
7.766932 90.634 -2.9280
7.823214 90.633 -2.9310
7.879904 90.632 -2.9344
7.937005 90.630 -2.9380
7.994520 90.628 -2.9414
8.052452 90.626 -2.9450
8.110803 90.625 -2.9490
8.169578 90.623 -2.9530
8.228777 90.621 -2.9566
8.288406 90.619 -2.9600
8.348468 90.618 -2.9634
8.408964 90.616 -2.9670
8.469899 90.614 -2.9709
8.531276 90.612 -2.9750
8.593097 90.610 -2.9790
8.655366 90.609 -2.9830
8.718086 90.608 -2.9870
8.781260 90.606 -2.9910
8.844893 90.604 -2.9950
8.908987 90.602 -2.9990
8.973545 90.601 -3.0030
9.038571 90.599 -3.0070
9.104069 90.597 -3.0110
9.170040 90.595 -3.0150
9.236490 90.594 -3.0189
9.303422 90.592 -3.0230
9.370838 90.590 -3.0274
9.438744 90.588 -3.0320
9.507140 90.586 -3.0366
9.576033 90.585 -3.0410
9.645425 90.584 -3.0450
9.715320 90.582 -3.0490
9.785721 90.580 -3.0534
9.856632 90.578 -3.0580
9.928058 90.576 -3.0624
10.000000 90.575 -3.0670
10.072464 90.573 -3.0720
10.145453 90.571 -3.0770
10.218971 90.570 -3.0815
10.293022 90.568 -3.0860
10.367610 90.566 -3.0909
10.442738 90.564 -3.0960
10.518411 90.562 -3.1010
10.594631 90.561 -3.1060
10.671404 90.559 -3.1110
10.748734 90.557 -3.1160
10.826623 90.555 -3.1210
10.905077 90.554 -3.1260
10.984100 90.553 -3.1310
11.063695 90.551 -3.1360
11.143867 90.549 -3.1409
11.224621 90.547 -3.1460
11.305959 90.546 -3.1514
11.387886 90.544 -3.1570
11.470407 90.542 -3.1625
11.553527 90.540 -3.1680
11.637249 90.539 -3.1735
11.721577 90.537 -3.1790
11.806517 90.535 -3.1844
11.892071 90.533 -3.1900
11.978246 90.531 -3.1960
12.065045 90.530 -3.2020
12.152473 90.529 -3.2075
12.240536 90.527 -3.2130
12.329235 90.525 -3.2189
12.418578 90.523 -3.2250
12.508568 90.521 -3.2309
12.599211 90.520 -3.2370
12.690510 90.518 -3.2435
12.782471 90.516 -3.2500
12.875097 90.515 -3.2560
12.968395 90.513 -3.2620
13.062370 90.511 -3.2684
13.157025 90.509 -3.2750
13.252366 90.507 -3.2815
13.348398 90.506 -3.2880
13.445127 90.504 -3.2944
13.542556 90.502 -3.3010
13.640691 90.500 -3.3080
13.739536 90.499 -3.3150
13.839099 90.498 -3.3215
13.939383 90.496 -3.3280
14.040393 90.494 -3.3349
14.142136 90.492 -3.3420
14.244616 90.491 -3.3495
14.347837 90.489 -3.3570
14.451808 90.487 -3.3640
14.556532 90.485 -3.3710
14.662014 90.484 -3.3784
14.768262 90.482 -3.3860
14.875278 90.480 -3.3935
14.983070 90.478 -3.4010
15.091644 90.476 -3.4084
15.201005 90.475 -3.4160
15.311157 90.474 -3.4239
15.422109 90.472 -3.4320
15.533863 90.470 -3.4405
15.646428 90.468 -3.4490
15.759809 90.466 -3.4570
15.874010 90.465 -3.4650
15.989040 90.463 -3.4734
16.104904 90.461 -3.4820
16.221605 90.460 -3.4905
16.339155 90.458 -3.4990
16.457554 90.456 -3.5075
16.576813 90.454 -3.5160
16.696936 90.452 -3.5244
16.817928 90.451 -3.5330
16.939798 90.449 -3.5420
17.062551 90.447 -3.5510
17.186193 90.445 -3.5596
17.310732 90.444 -3.5680
17.436172 90.443 -3.5764
17.562521 90.441 -3.5850
17.689787 90.439 -3.5940
17.817974 90.437 -3.6030
17.947090 90.436 -3.6116
18.077143 90.434 -3.6200
18.208138 90.432 -3.6286
18.340080 90.430 -3.6370
18.472980 90.429 -3.6446
18.606844 90.427 -3.6520
18.741676 90.425 -3.6596
18.877487 90.423 -3.6670
19.014280 90.421 -3.6738
19.152065 90.420 -3.6800
19.290850 90.419 -3.6855
19.430639 90.417 -3.6900
19.571442 90.415 -3.6931
19.713264 90.413 -3.6950
19.856115 90.412 -3.6959
20.000000 90.411 -3.6950
20.144928 90.410 -3.6913
20.290907 90.409 -3.6850
20.437943 90.409 -3.6761
20.586044 90.409 -3.6650
20.735220 90.410 -3.6516
20.885475 90.413 -3.6380
21.036821 90.418 -3.6252
21.189262 90.425 -3.6170
21.342808 90.433 -3.6173
21.497467 90.443 -3.6270
21.653246 90.453 -3.6472
21.810154 90.464 -3.6809
21.968201 90.478 -3.7302
22.127390 90.492 -3.7989
22.287735 90.505 -3.8937
22.449242 90.516 -4.0089
22.611917 90.524 -4.1432
22.775772 90.528 -4.2908
22.940815 90.528 -4.4474
23.107054 90.524 -4.6068
23.274498 90.515 -4.7638
23.443153 90.501 -4.9108
23.613033 90.482 -5.0392
23.784142 90.461 -5.1459
23.956491 90.438 -5.2236
24.130091 90.415 -5.2770
24.304947 90.394 -5.3059
24.481071 90.374 -5.3170
24.658470 90.357 -5.3153
24.837156 90.343 -5.3060
25.017136 90.332 -5.2953
25.198421 90.322 -5.2850
25.381020 90.313 -5.2798
25.564941 90.305 -5.2770
25.750195 90.297 -5.2765
25.936790 90.288 -5.2760
26.124741 90.279 -5.2731
26.314051 90.271 -5.2680
26.504732 90.263 -5.2601
26.696796 90.255 -5.2490
26.890253 90.248 -5.2328
27.085112 90.242 -5.2160
27.281382 90.239 -5.2020
27.479073 90.237 -5.1920
27.678198 90.236 -5.1884
27.878765 90.235 -5.1920
28.080786 90.235 -5.2044
28.284271 90.234 -5.2250
28.489231 90.233 -5.2540
28.695675 90.232 -5.2909
28.903616 90.231 -5.3360
29.113064 90.228 -5.3869
29.324028 90.223 -5.4428
29.536524 90.216 -5.4999
29.750557 90.207 -5.5546
29.966141 90.197 -5.6059
30.183289 90.186 -5.6526
30.402010 90.173 -5.6920
30.622314 90.158 -5.7211
30.844217 90.143 -5.7390
31.067726 90.128 -5.7421
31.292856 90.115 -5.7350
31.519617 90.104 -5.7205
31.748020 90.094 -5.7010
31.978081 90.085 -5.6795
32.209808 90.077 -5.6580
32.443211 90.072 -5.6385
32.678310 90.068 -5.6240
32.915108 90.065 -5.6186
33.153625 90.062 -5.6220
33.393871 90.059 -5.6360
33.635857 90.056 -5.6580
33.879597 90.051 -5.6870
34.125103 90.044 -5.7190
34.372387 90.036 -5.7496
34.621464 90.027 -5.7790
34.872345 90.017 -5.8063
35.125042 90.006 -5.8300
35.379574 89.994 -5.8486
35.635948 89.981 -5.8600
35.894180 89.967 -5.8603
36.154285 89.954 -5.8530
36.416275 89.943 -5.8398
36.680161 89.933 -5.8230
36.945961 89.924 -5.8057
37.213688 89.915 -5.7880
37.483353 89.907 -5.7702
37.754974 89.900 -5.7550
38.028561 89.894 -5.7455
38.304131 89.888 -5.7410
38.581699 89.881 -5.7427
38.861279 89.874 -5.7480
39.142883 89.866 -5.7547
39.426529 89.857 -5.7620
39.712231 89.848 -5.7690
40.000000 89.837 -5.7740
40.289856 89.825 -5.7759
40.581814 89.812 -5.7720
40.875885 89.799 -5.7583
41.172089 89.786 -5.7380
41.470440 89.775 -5.7122
41.770950 89.764 -5.6830
42.073643 89.754 -5.6534
42.378525 89.744 -5.6230
42.685616 89.735 -5.5923
42.994934 89.727 -5.5620
43.306492 89.719 -5.5337
43.620308 89.710 -5.5060
43.936401 89.701 -5.4787
44.254780 89.692 -5.4510
44.575470 89.684 -5.4220
44.898483 89.675 -5.3920
45.223835 89.666 -5.3612
45.551544 89.657 -5.3290
45.881630 89.648 -5.2951
46.214108 89.640 -5.2601
46.548996 89.632 -5.2247
46.886307 89.624 -5.1881
47.226067 89.615 -5.1498
47.568283 89.606 -5.1091
47.912983 89.597 -5.0648
48.260181 89.589 -5.0171
48.609894 89.580 -4.9655
48.962143 89.572 -4.9101
49.316940 89.564 -4.8498
49.674313 89.558 -4.7871
50.034271 89.554 -4.7233
50.396843 89.551 -4.6611
50.762039 89.549 -4.6037
51.129883 89.548 -4.5511
51.500389 89.547 -4.5044
51.873581 89.547 -4.4641
52.249481 89.547 -4.4313
52.628101 89.547 -4.4050
53.009464 89.546 -4.3848
53.393593 89.545 -4.3700
53.780506 89.543 -4.3611
54.170223 89.540 -4.3550
54.562763 89.535 -4.3501
54.958145 89.529 -4.3430
55.356396 89.521 -4.3297
55.757530 89.512 -4.3100
56.161572 89.504 -4.2826
56.568542 89.496 -4.2481
56.978462 89.487 -4.2067
57.391350 89.479 -4.1591
57.807232 89.473 -4.1044
58.226128 89.468 -4.0471
58.648056 89.465 -3.9908
59.073048 89.463 -3.9371
59.501114 89.462 -3.8887
59.932281 89.461 -3.8451
60.366577 89.461 -3.8063
60.804020 89.461 -3.7731
61.244629 89.461 -3.7467
61.688435 89.461 -3.7260
62.135452 89.460 -3.7107
62.585712 89.459 -3.7000
63.039234 89.457 -3.6938
63.496040 89.454 -3.6900
63.956161 89.449 -3.6879
64.419617 89.443 -3.6830
64.886421 89.435 -3.6703
65.356621 89.426 -3.6510
65.830215 89.418 -3.6246
66.307251 89.410 -3.5911
66.787743 89.401 -3.5499
67.271713 89.393 -3.5021
67.759193 89.387 -3.4470
68.250206 89.382 -3.3891
68.744774 89.379 -3.3324
69.242928 89.377 -3.2781
69.744690 89.376 -3.2289
70.250084 89.375 -3.1851
70.759148 89.375 -3.1481
71.271896 89.375 -3.1171
71.788361 89.374 -3.0919
72.308571 89.373 -3.0720
72.832550 89.371 -3.0578
73.360321 89.368 -3.0460
73.891922 89.363 -3.0345
74.427376 89.357 -3.0200
74.966705 89.349 -2.9985
75.509949 89.340 -2.9701
76.057121 89.332 -2.9335
76.608261 89.324 -2.8891
77.163399 89.316 -2.8362
77.722557 89.308 -2.7761
78.285767 89.301 -2.7084
78.853058 89.296 -2.6371
79.424461 89.293 -2.5660
80.000000 89.291 -2.4961
80.579712 89.290 -2.4301
81.163628 89.289 -2.3671
81.751770 89.289 -2.3076
82.344177 89.289 -2.2511
82.940880 89.289 -2.1979
83.541901 89.289 -2.1471
84.147285 89.289 -2.0978
84.757050 89.289 -2.0501
85.371231 89.289 -2.0035
85.989868 89.289 -1.9581
86.612984 89.289 -1.9137
87.240616 89.289 -1.8701
87.872803 89.289 -1.8273
88.509560 89.289 -1.7851
89.150940 89.289 -1.7434
89.796967 89.289 -1.7021
90.447670 89.289 -1.6608
91.103088 89.289 -1.6201
91.763260 89.289 -1.5804
92.428215 89.289 -1.5411
93.097992 89.289 -1.5015
93.772614 89.289 -1.4621
94.452133 89.289 -1.4230
95.136566 89.289 -1.3841
95.825966 89.289 -1.3455
96.520363 89.289 -1.3071
97.219788 89.289 -1.2691
97.924286 89.289 -1.2311
98.633881 89.289 -1.1926
99.348625 89.289 -1.1541
100.068542 89.289 -1.1160
100.793686 89.289 -1.0781
101.524078 89.289 -1.0402
102.259766 89.289 -1.0021
103.000778 89.289 -0.9636
103.747162 89.289 -0.9251
104.498962 89.289 -0.8867
105.256203 89.289 -0.8481
106.018929 89.289 -0.8087
106.787186 89.289 -0.7691
107.561012 89.289 -0.7297
108.340446 89.289 -0.6901
109.125526 89.289 -0.6498
109.916290 89.289 -0.6091
110.712791 89.289 -0.5683
111.515060 89.289 -0.5271
112.323143 89.289 -0.4854
113.137085 89.289 -0.4431
113.956924 89.289 -0.4000
114.782700 89.289 -0.3561
115.614464 89.289 -0.3115
116.452255 89.289 -0.2661
117.296112 89.289 -0.2201
118.146095 89.289 -0.1731
119.002228 89.289 -0.1248
119.864563 89.289 -0.0751
120.733154 89.289 -0.0239
121.608040 89.289 0.0289
122.489258 89.289 0.0833
123.376869 89.289 0.1399
124.270905 89.289 0.1988
125.171425 89.289 0.2609
126.078468 89.289 0.3268
126.992081 89.289 0.3968
127.912323 89.290 0.4715
128.839233 89.291 0.5508
129.772842 89.293 0.6357
130.713242 89.296 0.7238
131.660431 89.301 0.8141
132.614502 89.308 0.9037
133.575485 89.316 0.9890
134.543427 89.324 1.0708
135.518387 89.333 1.1490
136.500412 89.342 1.2239
137.489548 89.352 1.2961
138.485855 89.363 1.3648
139.489380 89.375 1.4291
140.500168 89.387 1.4899
141.518295 89.399 1.5469
142.543793 89.410 1.6029
143.576721 89.421 1.6613
144.617142 89.433 1.7189
145.665100 89.447 1.7742
146.720642 89.463 1.8249
147.783844 89.479 1.8673
148.854752 89.496 1.9029
149.933411 89.512 1.9321
151.019897 89.529 1.9540
152.114243 89.546 1.9672
153.216522 89.563 1.9730
154.326797 89.579 1.9708
155.445114 89.594 1.9650
156.571533 89.607 1.9604
157.706116 89.619 1.9560
158.848923 89.632 1.9521
160.000000 89.646 1.9490
161.159424 89.658 1.9466
162.327255 89.671 1.9460
163.503540 89.684 1.9496
164.688354 89.698 1.9530
165.881760 89.714 1.9525
167.083801 89.731 1.9480
168.294571 89.747 1.9375
169.514099 89.764 1.9230
170.742462 89.781 1.9065
171.979736 89.798 1.8861
173.225967 89.816 1.8604
174.481232 89.835 1.8301
175.745605 89.854 1.7956
177.019119 89.873 1.7561
178.301880 89.893 1.7115
179.593933 89.913 1.6601
180.895340 89.934 1.6000
182.206177 89.956 1.5322
183.526520 89.977 1.4569
184.856430 89.998 1.3742
186.195984 90.020 1.2842
187.545227 90.042 1.1862
188.904266 90.064 1.0799
190.273132 90.086 0.9653
191.651932 90.109 0.8437
193.040726 90.133 0.7114
194.439575 90.158 0.5658
195.848572 90.184 0.4045
197.267761 90.210 0.2243
198.697250 90.237 0.0245
200.137085 90.264 -0.1946
201.587372 90.291 -0.4394
203.048157 90.320 -0.7151
204.519531 90.349 -1.0250
206.001556 90.374 -1.3752
207.494324 90.397 -1.7630
208.997925 90.417 -2.1868
210.512405 90.432 -2.6499
212.037857 90.443 -3.1570
213.574371 90.446 -3.7027
215.122025 90.439 -4.2867
216.680893 90.420 -4.8973
218.251053 90.389 -5.5276
219.832581 90.345 -6.1632
221.425583 90.286 -6.7947
223.030121 90.211 -7.4005
224.646286 90.118 -7.9620
226.274170 90.010 -8.4598
227.913849 89.888 -8.8729
229.565399 89.754 -9.1873
231.228928 89.609 -9.3840
232.904510 89.458 -9.4580
234.592224 89.305 -9.3942
236.292191 89.153 -9.2037
238.004456 89.010 -8.8859
239.729126 88.876 -8.4603
241.466309 88.757 -7.9383
243.216080 88.654 -7.3437
244.978516 88.570 -6.6970
246.753738 88.503 -6.0200
248.541809 88.455 -5.3369
250.342850 88.423 -4.6609
252.156937 88.405 -4.0108
253.984161 88.400 -3.3946
255.824646 88.405 -2.8263
257.678467 88.418 -2.3072
259.545685 88.437 -1.8445
261.426483 88.459 -1.4350
263.320862 88.482 -1.0803
265.229004 88.505 -0.7728
267.150970 88.525 -0.5078
269.086853 88.543 -0.2786
271.036774 88.558 -0.0802
273.000824 88.569 0.0965
274.979095 88.573 0.2583
276.971710 88.571 0.4175
278.978760 88.564 0.5871
281.000336 88.553 0.7715
283.036591 88.539 0.9774
285.087585 88.523 1.2112
287.153442 88.503 1.4812
289.234283 88.483 1.7881
291.330200 88.467 2.1387
293.441284 88.454 2.5239
295.567688 88.447 2.9390
297.709503 88.446 3.3778
299.866821 88.452 3.8366
302.039795 88.465 4.3036
304.228485 88.488 4.7686
306.433044 88.519 5.2237
308.653595 88.556 5.6582
310.890228 88.598 6.0709
313.143066 88.645 6.4580
315.412231 88.697 6.8170
317.697845 88.751 7.1424
320.000000 88.808 7.4392
322.318848 88.864 7.7104
324.654510 88.922 7.9573
327.007080 88.982 8.1827
329.376709 89.044 8.3844
331.763519 89.106 8.5602
334.167603 89.168 8.7126
336.589142 89.230 8.8426
339.028198 89.293 8.9517
341.484924 89.355 9.0418
343.959473 89.418 9.1118
346.451935 89.481 9.1610
348.962463 89.544 9.1909
351.491211 89.606 9.2024
354.038239 89.667 9.1970
356.603760 89.728 9.1779
359.187866 89.790 9.1421
361.790680 89.852 9.0890
364.412354 89.915 9.0152
367.053040 89.979 8.9185
369.712860 90.044 8.7954
372.391968 90.109 8.6434
375.090454 90.174 8.4576
377.808533 90.240 8.2333
380.546265 90.305 7.9669
383.303864 90.367 7.6537
386.081451 90.427 7.2911
388.879150 90.483 6.8747
391.697144 90.532 6.4055
394.535522 90.573 5.8793
397.394501 90.602 5.3077
400.274170 90.618 4.6939
403.174744 90.617 4.0600
406.096313 90.597 3.4195
409.039062 90.557 2.8019
412.003113 90.496 2.2309
414.988647 90.416 1.7374
417.995850 90.316 1.3527
421.024811 90.201 1.0996
424.075714 90.074 1.0118
427.148743 89.943 1.0885
430.244049 89.815 1.3460
433.361786 89.695 1.7654
436.502106 89.590 2.3449
439.665161 89.506 3.0486
442.851166 89.451 3.8545
446.060242 89.424 4.7193
449.292572 89.429 5.6027
452.548340 89.461 6.4743
455.827698 89.520 7.2964
459.130798 89.601 8.0507
462.457855 89.701 8.7082
465.809021 89.816 9.2644
469.184448 89.938 9.7021
472.584381 90.067 10.0302
476.008911 90.196 10.2479
479.458252 90.325 10.3668
482.932617 90.450 10.3947
486.432159 90.573 10.3423
489.957031 90.690 10.2200
493.507477 90.802 10.0357
497.083618 90.909 9.7985
500.685699 91.012 9.5140
504.313873 91.109 9.1908
507.968323 91.203 8.8292
511.649292 91.295 8.4364
515.356934 91.387 8.0005
519.091370 91.479 7.5179
522.852966 91.572 6.9709
526.641724 91.666 6.3457
530.458008 91.757 5.6275
534.301941 91.842 4.7989
538.173706 91.918 3.8554
542.073547 91.980 2.7794
546.001648 92.020 1.5932
549.958191 92.030 0.2921
553.943420 92.003 -1.0596
557.957520 91.931 -2.4249
562.000671 91.815 -3.7258
566.073181 91.653 -4.8950
570.175171 91.448 -5.8632
574.306885 91.200 -6.5486
578.468567 90.925 -6.9213
582.660400 90.630 -6.9140
586.882568 90.334 -6.5569
591.135376 90.053 -5.8368
595.419006 89.799 -4.8170
599.733643 89.585 -3.5306
604.079590 89.417 -2.0554
608.456970 89.311 -0.4574
612.866089 89.259 1.1944
617.307190 89.261 2.8185
621.780457 89.308 4.3870
626.286133 89.389 5.8475
630.824463 89.502 7.1918
635.395691 89.638 8.3937
640.000000 89.793 9.4546
644.637695 89.959 10.3626
649.309021 90.133 11.1316
654.014160 90.310 11.7686
658.753418 90.489 12.2825
663.527039 90.670 12.6804
668.335205 90.849 12.9742
673.178284 91.023 13.1727
678.056396 91.191 13.2917
682.969849 91.355 13.3479
687.918945 91.515 13.3481
692.903870 91.672 13.3024
697.924927 91.825 13.2174
702.982422 91.975 13.1015
708.076477 92.122 12.9596
713.207520 92.269 12.7998
718.375732 92.416 12.6197
723.581360 92.565 12.4191
728.824707 92.715 12.1988
734.106079 92.867 11.9592
739.425720 93.022 11.7019
744.783936 93.181 11.4307
750.180908 93.346 11.1401
755.617065 93.521 10.8299
761.092529 93.706 10.4873
766.607727 93.904 10.1065
772.162903 94.118 9.6667
777.758301 94.351 9.1583
783.394287 94.604 8.5424
789.071045 94.882 7.7950
794.789001 95.182 6.8617
800.548340 95.505 5.6990
806.349487 95.843 4.2497
812.192627 96.192 2.4561
818.078125 96.539 0.2757
824.006226 96.873 -2.3514
829.977295 97.177 -5.4312
835.991699 97.437 -9.0076
842.049622 97.635 -13.0264
848.151428 97.757 -17.4971
854.297485 97.785 -22.2709
860.488098 97.701 -27.2746
866.723572 97.501 -32.2887
873.004211 97.173 -37.1501
879.330322 96.718 -41.6160
885.702332 96.126 -45.4490
892.120483 95.413 -48.4699
898.585144 94.578 -50.4227
905.096680 93.659 -51.3008
911.655396 92.674 -50.9607
918.261597 91.682 -49.5601
924.915710 90.725 -47.1219
931.618042 89.866 -43.9098
938.368896 89.176 -40.1019
945.168762 88.669 -35.9818
952.017822 88.399 -31.8297
958.916504 88.313 -27.8328
965.865234 88.393 -24.2550
972.864319 88.587 -21.1445
979.914062 88.848 -18.6580
987.014954 89.145 -16.7312
994.167236 89.431 -15.3885
1001.371399 89.701 -14.5193
1008.627747 89.935 -14.0531
1015.936646 90.134 -13.8922
1023.298584 90.292 -13.9384
1030.713867 90.414 -14.1233
1038.182739 90.501 -14.3553
1045.705933 90.561 -14.6040
1053.283447 90.599 -14.8076
1060.916016 90.623 -14.9694
1068.603882 90.643 -15.0646
1076.347412 90.660 -15.1159
1084.147095 90.680 -15.1314
1092.003296 90.703 -15.1310
1099.916382 90.730 -15.1354
1107.886841 90.758 -15.1499
1115.915039 90.786 -15.1915
1124.001343 90.810 -15.2458
1132.146362 90.826 -15.3108
1140.350342 90.836 -15.3658
1148.613770 90.840 -15.3928
1156.937134 90.841 -15.3821
1165.320801 90.840 -15.3158
1173.765137 90.843 -15.2016
1182.270752 90.855 -15.0322
1190.838013 90.878 -14.8348
1199.467285 90.918 -14.6243
1208.159180 90.973 -14.4307
1216.913940 91.044 -14.2826
1225.732178 91.127 -14.1992
1234.614380 91.219 -14.2084
1243.560913 91.317 -14.3114
1252.572266 91.414 -14.5236
1261.648926 91.508 -14.8306
1270.791382 91.592 -15.2293
1280.000000 91.668 -15.7010
1289.275391 91.732 -16.2323
1298.618042 91.784 -16.8046
1308.028320 91.822 -17.4004
1317.506836 91.849 -18.0034
1327.054077 91.863 -18.5935
1336.670410 91.868 -19.1638
1346.356567 91.867 -19.6997
1356.112793 91.862 -20.2052
1365.939697 91.855 -20.6759
1375.837891 91.847 -21.1232
1385.807739 91.842 -21.5521
1395.849854 91.839 -21.9773
1405.964844 91.838 -22.4172
1416.152954 91.835 -22.8663
1426.415039 91.826 -23.3321
1436.751465 91.811 -23.7933
1447.162720 91.786 -24.2367
1457.649414 91.754 -24.6444
1468.212158 91.718 -24.9944
1478.851440 91.680 -25.2860
1489.567871 91.645 -25.5051
1500.361816 91.617 -25.6705
1511.234131 91.603 -25.7840
1522.185059 91.604 -25.8825
1533.215454 91.626 -25.9906
1544.325806 91.665 -26.1481
1555.516602 91.722 -26.3986
1566.788574 91.790 -26.7562
1578.142090 91.860 -27.2537
1589.578003 91.928 -27.8781
1601.096680 91.986 -28.6352
1612.698975 92.033 -29.5012
1624.385254 92.062 -30.4631
1636.156250 92.074 -31.4943
1648.012451 92.065 -32.5692
1659.954590 92.037 -33.6719
1671.983398 91.992 -34.7797
1684.099243 91.930 -35.8874
1696.302856 91.852 -36.9853
1708.594971 91.757 -38.0652
1720.976196 91.647 -39.1203
1733.447144 91.519 -40.1367
1746.008423 91.372 -41.1063
1758.660645 91.208 -42.0055
1771.404663 91.023 -42.8153
1784.240967 90.820 -43.5144
1797.170288 90.601 -44.0774
1810.193359 90.369 -44.4976
1823.310791 90.127 -44.7599
1836.523193 89.879 -44.8639
1849.831421 89.627 -44.8047
1863.236084 89.374 -44.5814
1876.737793 89.123 -44.1957
1890.337524 88.875 -43.6348
1904.035645 88.630 -42.8970
1917.833008 88.390 -41.9512
1931.730469 88.154 -40.7684
1945.728638 87.936 -39.3407
1959.828125 87.745 -37.6323
1974.029907 87.600 -35.6966
1988.334473 87.519 -33.5328
2002.742798 87.518 -31.2692
2017.255493 87.623 -28.9802
2031.873291 87.821 -26.8281
2046.597168 88.120 -24.9651
2061.427734 88.483 -23.4964
2076.365479 88.889 -22.5775
2091.411865 89.304 -22.2093
2106.566895 89.695 -22.4810
2121.832031 90.042 -23.2807
2137.207764 90.316 -24.5837
2152.694824 90.518 -26.2151
2168.294189 90.635 -28.0362
2184.006592 90.678 -29.9105
2199.832764 90.649 -31.6726
2215.773682 90.565 -33.2699
2231.830078 90.440 -34.5855
2248.002686 90.291 -35.6501
2264.292725 90.137 -36.4335
2280.700684 89.987 -37.0030
2297.227539 89.852 -37.3979
2313.874268 89.731 -37.6721
2330.641602 89.631 -37.8887
2347.530273 89.541 -38.0593
2364.541504 89.456 -38.2233
2381.676025 89.371 -38.3595
2398.934570 89.282 -38.4648
2416.318359 89.191 -38.5229
2433.827881 89.098 -38.5174
2451.464355 89.005 -38.4445
2469.228760 88.915 -38.2897
2487.121826 88.831 -38.0681
2505.144531 88.760 -37.7802
2523.297852 88.702 -37.4545
2541.582764 88.662 -37.1128
2560.000000 88.636 -36.7764
2578.550781 88.622 -36.4722
2597.236084 88.618 -36.2061
2616.056641 88.620 -35.9960
2635.013672 88.625 -35.8326
2654.108154 88.627 -35.7202
2673.340820 88.625 -35.6363
2692.713135 88.615 -35.5650
2712.225586 88.600 -35.4904
2731.879395 88.581 -35.3926
2751.675781 88.561 -35.2677
2771.615479 88.541 -35.1036
2791.699707 88.523 -34.9050
2811.929688 88.511 -34.6664
2832.305908 88.506 -34.4062
2852.830078 88.514 -34.1346
2873.502930 88.532 -33.8711
2894.325439 88.560 -33.6358
2915.298828 88.595 -33.4378
2936.424316 88.636 -33.2940
2957.702881 88.679 -33.2003
2979.135742 88.720 -33.1645
3000.723633 88.756 -33.1679
3022.468262 88.784 -33.2017
3044.370117 88.805 -33.2438
3066.430908 88.816 -33.2761
3088.651611 88.821 -33.2781
3111.033203 88.819 -33.2241
3133.577148 88.816 -33.1117
3156.284180 88.818 -32.9230
3179.156006 88.829 -32.6793
3202.193359 88.855 -32.3865
3225.397949 88.896 -32.0725
3248.770508 88.955 -31.7575
3272.312500 89.031 -31.4702
3296.024902 89.125 -31.2406
3319.909180 89.231 -31.0845
3343.966797 89.346 -31.0285
3368.198486 89.464 -31.0706
3392.605713 89.584 -31.2220
3417.189941 89.699 -31.4686
3441.952393 89.807 -31.8072
3466.894287 89.905 -32.2160
3492.016846 89.990 -32.6786
3517.321289 90.065 -33.1756
3542.809326 90.127 -33.6872
3568.481934 90.179 -34.1987
3594.340576 90.220 -34.6921
3620.386719 90.253 -35.1569
3646.621582 90.280 -35.5766
3673.046387 90.303 -35.9503
3699.662842 90.326 -36.2696
3726.472168 90.351 -36.5409
3753.475586 90.381 -36.7630
3780.675049 90.418 -36.9512
3808.071289 90.466 -37.1161
3835.666016 90.523 -37.2713
3863.460938 90.589 -37.4322
3891.457275 90.663 -37.6041
3919.656250 90.744 -37.7957
3948.059814 90.834 -38.0119
3976.668945 90.930 -38.2592
4005.485596 91.033 -38.5415
4034.510986 91.143 -38.8637
4063.746582 91.259 -39.2291
4093.194336 91.381 -39.6404
4122.855469 91.509 -40.1056
4152.730957 91.644 -40.6326
4182.823730 91.783 -41.2250
4213.133789 91.924 -41.8882
4243.664062 92.067 -42.6253
4274.415527 92.213 -43.4411
4305.389648 92.360 -44.3364
4336.588379 92.506 -45.3147
4368.013184 92.650 -46.3728
4399.665527 92.792 -47.5069
4431.547363 92.932 -48.7219
4463.660156 93.072 -50.0179
4496.005371 93.209 -51.4058
4528.585449 93.345 -52.8952
4561.401367 93.476 -54.4902
4594.455078 93.600 -56.1978
4627.748535 93.714 -58.0178
4661.283203 93.819 -59.9514
4695.060547 93.911 -62.0007
4729.083008 93.988 -64.1714
4763.352051 94.048 -66.4539
4797.869141 94.085 -68.8461
4832.636719 94.097 -71.3313
4867.655762 94.083 -73.8996
4902.928711 94.039 -76.5280
4938.457520 93.964 -79.2018
4974.243652 93.855 -81.8873
5010.289062 93.708 -84.5559
5046.595703 93.526 -87.1770
5083.165527 93.309 -89.7171
5120.000000 93.060 -92.1554
5157.101562 92.779 -94.4632
5194.472168 92.471 -96.6308
5232.113281 92.137 -98.6388
5270.027344 91.781 -100.4861
5308.216309 91.406 -102.1651
5346.681641 91.014 -103.6760
5385.426270 90.606 -105.0187
5424.451172 90.183 -106.1877
5463.758789 89.747 -107.1856
5503.351562 89.293 -107.9886
5543.230957 88.821 -108.5893
5583.399414 88.328 -108.9410
5623.859375 87.815 -109.0129
5664.611816 87.283 -108.7482
5705.660156 86.730 -108.0955
5747.005859 86.166 -107.0078
5788.650879 85.595 -105.4213
5830.597656 85.035 -103.3361
5872.848633 84.498 -100.7096
5915.405762 84.010 -97.6062
5958.271484 83.595 -94.0351
6001.447266 83.276 -90.1209
6044.936523 83.085 -85.9405
6088.740234 83.025 -81.6466
6132.861816 83.114 -77.3723
6177.303223 83.334 -73.2550
6222.066406 83.682 -69.4501
6267.154297 84.128 -66.0380
6312.568359 84.644 -63.1485
6358.312012 85.209 -60.7884
6404.386719 85.794 -59.0173
6450.795898 86.390 -57.8048
6497.541016 86.980 -57.1568
6544.625000 87.557 -57.0244
6592.049805 88.108 -57.3803
6639.818359 88.628 -58.1639
6687.933594 89.112 -59.3220
6736.396973 89.559 -60.8056
6785.211426 89.967 -62.5620
6834.379883 90.335 -64.5492
6883.904785 90.662 -66.7206
6933.788574 90.951 -69.0378
6984.033691 91.201 -71.4569
7034.642578 91.416 -73.9483
7085.618652 91.598 -76.4737
7136.963867 91.750 -79.0162
7188.681152 91.877 -81.5463
7240.773438 91.984 -84.0654
7293.243164 92.073 -86.5609
7346.092773 92.149 -89.0455
7399.325684 92.215 -91.5216
7452.944336 92.272 -94.0085
7506.951172 92.323 -96.5191
7561.350098 92.367 -99.0747
7616.142578 92.404 -101.6940
7671.332031 92.433 -104.3978
7726.921875 92.453 -107.2101
7782.914551 92.458 -110.1406
7839.312500 92.444 -113.2113
7896.119629 92.404 -116.4127
7953.337891 92.333 -119.7544
8010.971191 92.225 -123.2006
8069.021973 92.071 -126.7371
8127.493164 91.867 -130.3081
8186.388672 91.610 -133.8780
8245.710938 91.294 -137.3709
8305.461914 90.914 -140.7291
8365.647461 90.471 -143.8622
8426.267578 89.961 -146.6809
8487.328125 89.394 -149.1223
8548.831055 88.775 -151.1009
8610.779297 88.115 -152.5945
8673.176758 87.419 -153.5524
8736.026367 86.702 -153.9752
8799.331055 85.972 -153.8306
8863.094727 85.253 -153.1658
8927.320312 84.565 -151.9951
8992.010742 83.919 -150.3876
9057.170898 83.329 -148.4002
9122.802734 82.800 -146.0850
9188.910156 82.341 -143.4937
9255.497070 81.960 -140.6847
9322.566406 81.665 -137.7126
9390.121094 81.455 -134.6414
9458.166016 81.332 -131.5305
9526.704102 81.298 -128.4481
9595.738281 81.356 -125.4554
9665.273438 81.501 -122.6323
9735.311523 81.732 -120.0565
9805.857422 82.032 -117.7963
9876.915039 82.393 -115.9324
9948.487305 82.796 -114.5054
10020.578125 83.226 -113.5845
10093.191406 83.664 -113.1639
10166.331055 84.090 -113.2790
10240.000000 84.492 -113.8756
10314.203125 84.854 -114.9375
10388.944336 85.170 -116.3853
10464.226562 85.431 -118.1636
10540.054688 85.634 -120.1824
10616.432617 85.772 -122.3677
10693.363281 85.848 -124.6166
10770.852539 85.857 -126.8329
10848.902344 85.806 -128.9252
10927.517578 85.699 -130.7945
11006.703125 85.546 -132.3684
11086.461914 85.351 -133.5504
11166.798828 85.137 -134.3140
11247.718750 84.920 -134.5817
11329.223633 84.733 -134.4110
11411.320312 84.603 -133.7851
11494.011719 84.558 -132.8527
11577.301758 84.635 -131.6860
11661.195312 84.837 -130.4993
11745.697266 85.191 -129.4727
11830.811523 85.656 -128.7835
11916.542969 86.211 -128.6395
12002.894531 86.820 -129.1293
12089.873047 87.448 -130.4110
12177.480469 88.067 -132.4829
12265.723633 88.642 -135.4342
12354.606445 89.156 -139.1489
12444.132812 89.581 -143.5896
12534.308594 89.916 -148.6055
12625.136719 90.154 -154.0737
12716.624023 90.294 -159.8717
12808.773438 90.331 -165.8680
12901.591797 90.269 -171.9653
12995.082031 90.109 -178.0515
13089.250000 89.854 175.9597
13184.099609 89.504 170.1626
13279.636719 89.062 164.6436
13375.867188 88.528 159.4869
13472.793945 87.907 154.7932
13570.422852 87.201 150.6589
13668.759766 86.419 147.1805
13767.809570 85.562 144.4680
13867.577148 84.646 142.5784
13968.067383 83.678 141.6129
14069.285156 82.692 141.5488
14171.237305 81.706 142.4491
14273.927734 80.770 144.1560
14377.362305 79.925 146.6128
14481.546875 79.212 149.5748
14586.486328 78.690 152.8522
14692.185547 78.350 156.2206
14798.651367 78.216 159.4503
14905.888672 78.249 162.3634
15013.902344 78.442 164.7237
15122.700195 78.734 166.4770
15232.285156 79.069 167.4690
15342.664062 79.427 167.7673
15453.843750 79.773 167.3553
15565.829102 80.097 166.3321
15678.625000 80.377 164.7627
15792.239258 80.616 162.7361
15906.675781 80.808 160.3471
16021.942383 80.955 157.6424
16138.043945 81.058 154.6920
16254.986328 81.116 151.5200
16372.777344 81.129 148.1642
16491.421875 81.096 144.6528
16610.923828 81.015 141.0130
16731.294922 80.883 137.2868
16852.535156 80.696 133.5080
16974.656250 80.455 129.7308
17097.662109 80.155 126.0044
17221.558594 79.801 122.3796
17346.353516 79.393 118.9122
17472.052734 78.935 115.6362
17598.662109 78.430 112.6028
17726.189453 77.886 109.8164
17854.640625 77.312 107.3058
17984.021484 76.713 105.0488
18114.341797 76.098 103.0358
18245.605469 75.467 101.2574
18377.820312 74.824 99.6972
18510.994141 74.172 98.3670
18645.132812 73.512 97.2608
18780.242188 72.841 96.4168
18916.332031 72.156 95.8551
19053.408203 71.459 95.6243
19191.476562 70.746 95.7859
19330.546875 70.034 96.3221
19470.623047 69.334 97.2581
19611.714844 68.659 98.5230
19753.830078 68.020 100.0789
19896.974609 67.430 101.8497
