* Measurement data measured by REW V5.20.13
* Source: C:\Users\kurin\Desktop\Targets and Curves\Resolve\Img\Files\RED 5128_R_SPL.txt
* Format: Comma/Tab/Space delimited data
* Dated: Aug 15, 2023 12:28:53 AM
* REW Settings:
*  C-weighting compensation: Off
*  Target level: 75.0 dB
* Note: ; Measurement imported from C:\Users\kurin\Desktop\Targets and Curves\Resolve\Img\Files\RED 5128_R_SPL.txt Format: Comma/Tab/Space delimited data 623 values loaded, 5 Hz to 39,792 Hz log spaced 
* Measurement: RED 5128_R_SPL
* Smoothing: 1/48 octave
* Frequency Step: 1/96 octave
* Start Frequency: 5.000 Hz
*
* Freq(Hz) SPL(dB) Phase(degrees)
5.000000 88.086 4.7070
5.036232 88.088 4.6979
5.072727 88.091 4.6880
5.109486 88.094 4.6764
5.146511 88.097 4.6630
5.183805 88.101 4.6473
5.221369 88.105 4.6300
5.259205 88.110 4.6120
5.297316 88.115 4.5930
5.335702 88.120 4.5728
5.374367 88.125 4.5520
5.413311 88.130 4.5311
5.452538 88.135 4.5100
5.492050 88.140 4.4890
5.531847 88.145 4.4680
5.571934 88.150 4.4471
5.612310 88.156 4.4260
5.652979 88.161 4.4046
5.693943 88.166 4.3830
5.735204 88.171 4.3611
5.776763 88.176 4.3390
5.818624 88.181 4.3166
5.860788 88.187 4.2940
5.903258 88.192 4.2715
5.946035 88.197 4.2490
5.989123 88.202 4.2266
6.032523 88.207 4.2040
6.076237 88.212 4.1806
6.120268 88.217 4.1570
6.164618 88.222 4.1336
6.209289 88.228 4.1100
6.254284 88.233 4.0861
6.299605 88.238 4.0620
6.345255 88.243 4.0381
6.391235 88.248 4.0140
6.437549 88.254 3.9896
6.484198 88.259 3.9650
6.531185 88.264 3.9401
6.578513 88.269 3.9150
6.626183 88.274 3.8896
6.674199 88.279 3.8640
6.722563 88.284 3.8386
6.771278 88.289 3.8130
6.820345 88.295 3.7871
6.869768 88.300 3.7610
6.919549 88.305 3.7346
6.969691 88.310 3.7080
7.020196 88.315 3.6811
7.071068 88.320 3.6540
7.122308 88.325 3.6266
7.173919 88.330 3.5990
7.225904 88.336 3.5716
7.278266 88.341 3.5440
7.331007 88.346 3.5161
7.384131 88.351 3.4880
7.437639 88.356 3.4596
7.491535 88.361 3.4310
7.545822 88.367 3.4021
7.600502 88.372 3.3730
7.655579 88.377 3.3441
7.711054 88.382 3.3150
7.766932 88.387 3.2851
7.823214 88.392 3.2550
7.879904 88.397 3.2251
7.937005 88.402 3.1950
7.994520 88.408 3.1647
8.052452 88.413 3.1340
8.110803 88.418 3.1026
8.169578 88.423 3.0710
8.228777 88.428 3.0396
8.288406 88.433 3.0080
8.348468 88.438 2.9761
8.408964 88.444 2.9440
8.469899 88.449 2.9116
8.531276 88.454 2.8790
8.593097 88.459 2.8461
8.655366 88.464 2.8130
8.718086 88.469 2.7796
8.781260 88.474 2.7460
8.844893 88.479 2.7126
8.908987 88.485 2.6790
8.973545 88.490 2.6447
9.038571 88.495 2.6100
9.104069 88.500 2.5751
9.170040 88.505 2.5400
9.236490 88.510 2.5046
9.303422 88.515 2.4690
9.370838 88.521 2.4332
9.438744 88.526 2.3970
9.507140 88.531 2.3601
9.576033 88.536 2.3230
9.645425 88.541 2.2861
9.715320 88.546 2.2490
9.785721 88.551 2.2117
9.856632 88.557 2.1740
9.928058 88.562 2.1356
10.000000 88.567 2.0970
10.072464 88.572 2.0587
10.145453 88.577 2.0200
10.218971 88.582 1.9807
10.293022 88.587 1.9410
10.367610 88.592 1.9011
10.442738 88.598 1.8610
10.518411 88.603 1.8206
10.594631 88.608 1.7800
10.671404 88.613 1.7392
10.748734 88.618 1.6980
10.826623 88.623 1.6562
10.905077 88.629 1.6140
10.984100 88.634 1.5717
11.063695 88.639 1.5290
11.143867 88.644 1.4861
11.224621 88.649 1.4430
11.305959 88.654 1.3996
11.387886 88.659 1.3560
11.470407 88.664 1.3122
11.553527 88.670 1.2680
11.637249 88.675 1.2233
11.721577 88.680 1.1780
11.806517 88.685 1.1322
11.892071 88.690 1.0860
11.978246 88.695 1.0401
12.065045 88.700 0.9940
12.152473 88.705 0.9472
12.240536 88.711 0.9000
12.329235 88.716 0.8527
12.418578 88.721 0.8050
12.508568 88.726 0.7567
12.599211 88.731 0.7080
12.690510 88.736 0.6592
12.782471 88.742 0.6100
12.875097 88.747 0.5607
12.968395 88.752 0.5110
13.062370 88.757 0.4607
13.157025 88.762 0.4100
13.252366 88.767 0.3592
13.348398 88.772 0.3080
13.445127 88.777 0.2567
13.542556 88.783 0.2051
13.640691 88.788 0.1527
13.739536 88.793 0.1000
13.839099 88.798 0.0472
13.939383 88.803 -0.0060
14.040393 88.809 -0.0598
14.142136 88.814 -0.1140
14.244616 88.819 -0.1684
14.347837 88.824 -0.2230
14.451808 88.829 -0.2778
14.556532 88.834 -0.3330
14.662014 88.839 -0.3888
14.768262 88.844 -0.4449
14.875278 88.849 -0.5012
14.983070 88.855 -0.5579
15.091644 88.860 -0.6153
15.201005 88.865 -0.6730
15.311157 88.870 -0.7303
15.422109 88.875 -0.7880
15.533863 88.880 -0.8463
15.646428 88.885 -0.9050
15.759809 88.891 -0.9639
15.874010 88.896 -1.0230
15.989040 88.901 -1.0819
16.104904 88.906 -1.1410
16.221605 88.911 -1.2004
16.339155 88.916 -1.2599
16.457554 88.921 -1.3194
16.576813 88.927 -1.3790
16.696936 88.932 -1.4385
16.817928 88.937 -1.4980
16.939798 88.942 -1.5570
17.062551 88.947 -1.6159
17.186193 88.952 -1.6751
17.310732 88.957 -1.7340
17.436172 88.963 -1.7918
17.562521 88.968 -1.8490
17.689787 88.973 -1.9054
17.817974 88.978 -1.9609
17.947090 88.983 -2.0156
18.077143 88.988 -2.0690
18.208138 88.993 -2.1206
18.340080 88.999 -2.1699
18.472980 89.004 -2.2167
18.606844 89.009 -2.2600
18.741676 89.014 -2.2999
18.877487 89.019 -2.3340
19.014280 89.024 -2.3600
19.152065 89.029 -2.3770
19.290850 89.036 -2.3834
19.430639 89.044 -2.3790
19.571442 89.054 -2.3612
19.713264 89.068 -2.3360
19.856115 89.087 -2.3048
20.000000 89.111 -2.2790
20.144928 89.142 -2.2688
20.290907 89.178 -2.2790
20.437943 89.216 -2.3175
20.586044 89.256 -2.3859
20.735220 89.299 -2.4881
20.885475 89.344 -2.6258
21.036821 89.388 -2.8041
21.189262 89.430 -3.0167
21.342808 89.468 -3.2608
21.497467 89.503 -3.5316
21.653246 89.535 -3.8232
21.810154 89.565 -4.1366
21.968201 89.592 -4.4717
22.127390 89.615 -4.8266
22.287735 89.634 -5.2014
22.449242 89.647 -5.5897
22.611917 89.654 -5.9879
22.775772 89.654 -6.3875
22.940815 89.648 -6.7820
23.107054 89.635 -7.1625
23.274498 89.616 -7.5194
23.443153 89.593 -7.8486
23.613033 89.566 -8.1418
23.784142 89.537 -8.4018
23.956491 89.510 -8.6259
24.130091 89.484 -8.8228
24.304947 89.461 -8.9972
24.481071 89.441 -9.1578
24.658470 89.425 -9.3132
24.837156 89.411 -9.4688
25.017136 89.400 -9.6332
25.198421 89.389 -9.8048
25.381020 89.377 -9.9871
25.564941 89.364 -10.1738
25.750195 89.348 -10.3614
25.936790 89.330 -10.5448
26.124741 89.310 -10.7183
26.314051 89.288 -10.8798
26.504732 89.265 -11.0251
26.696796 89.241 -11.1539
26.890253 89.218 -11.2628
27.085112 89.196 -11.3559
27.281382 89.177 -11.4341
27.479073 89.161 -11.5029
27.678198 89.147 -11.5672
27.878765 89.136 -11.6299
28.080786 89.127 -11.6955
28.284271 89.120 -11.7649
28.489231 89.115 -11.8399
28.695675 89.111 -11.9219
28.903616 89.109 -12.0126
29.113064 89.108 -12.1129
29.324028 89.107 -12.2245
29.536524 89.106 -12.3469
29.750557 89.105 -12.4800
29.966141 89.104 -12.6228
30.183289 89.102 -12.7758
30.402010 89.098 -12.9348
30.622314 89.092 -13.0977
30.844217 89.083 -13.2588
31.067726 89.073 -13.4122
31.292856 89.061 -13.5558
31.519617 89.049 -13.6853
31.748020 89.037 -13.8019
31.978081 89.026 -13.9019
32.209808 89.019 -13.9949
32.443211 89.018 -14.0850
32.678310 89.022 -14.1849
32.915108 89.030 -14.3065
33.153625 89.041 -14.4558
33.393871 89.054 -14.6435
33.635857 89.067 -14.8676
33.879597 89.077 -15.1338
34.125103 89.082 -15.4306
34.372387 89.080 -15.7535
34.621464 89.070 -16.0875
34.872345 89.052 -16.4202
35.125042 89.027 -16.7396
35.379574 88.995 -17.0296
35.635948 88.959 -17.2897
35.894180 88.922 -17.5117
36.154285 88.885 -17.7027
36.416275 88.850 -17.8655
36.680161 88.816 -18.0058
36.945961 88.786 -18.1282
37.213688 88.758 -18.2398
37.483353 88.734 -18.3483
37.754974 88.712 -18.4568
38.028561 88.692 -18.5728
38.304131 88.672 -18.6918
38.581699 88.651 -18.8122
38.861279 88.631 -18.9338
39.142883 88.612 -19.0557
39.426529 88.593 -19.1788
39.712231 88.574 -19.3043
40.000000 88.555 -19.4308
40.289856 88.537 -19.5568
40.581814 88.519 -19.6848
40.875885 88.502 -19.8171
41.172089 88.484 -19.9528
41.470440 88.466 -20.0927
41.770950 88.448 -20.2348
42.073643 88.429 -20.3768
42.378525 88.409 -20.5198
42.685616 88.390 -20.6647
42.994934 88.370 -20.8098
43.306492 88.349 -20.9540
43.620308 88.327 -21.0968
43.936401 88.305 -21.2364
44.254780 88.284 -21.3748
44.575470 88.263 -21.5129
44.898483 88.242 -21.6518
45.223835 88.221 -21.7930
45.551544 88.200 -21.9358
45.881630 88.178 -22.0803
46.214108 88.156 -22.2258
46.548996 88.133 -22.3715
46.886307 88.110 -22.5178
47.226067 88.087 -22.6653
47.568283 88.063 -22.8128
47.912983 88.038 -22.9591
48.260181 88.012 -23.1038
48.609894 87.986 -23.2456
48.962143 87.959 -23.3848
49.316940 87.932 -23.5212
49.674313 87.905 -23.6548
50.034271 87.878 -23.7855
50.396843 87.850 -23.9138
50.762039 87.822 -24.0402
51.129883 87.794 -24.1648
51.500389 87.766 -24.2879
51.873581 87.738 -24.4088
52.249481 87.710 -24.5269
52.628101 87.681 -24.6428
53.009464 87.653 -24.7567
53.393593 87.625 -24.8688
53.780506 87.597 -24.9796
54.170223 87.568 -25.0888
54.562763 87.540 -25.1961
54.958145 87.511 -25.3018
55.356396 87.483 -25.4065
55.757530 87.454 -25.5098
56.161572 87.425 -25.6115
56.568542 87.397 -25.7118
56.978462 87.369 -25.8112
57.391350 87.341 -25.9098
57.807232 87.313 -26.0076
58.226128 87.285 -26.1058
58.648056 87.258 -26.2055
59.073048 87.232 -26.3078
59.501114 87.206 -26.4149
59.932281 87.179 -26.5258
60.366577 87.152 -26.6405
60.804020 87.124 -26.7578
61.244629 87.095 -26.8768
61.688435 87.066 -26.9968
62.135452 87.036 -27.1175
62.585712 87.004 -27.2368
63.039234 86.971 -27.3520
63.496040 86.938 -27.4638
63.956161 86.905 -27.5715
64.419617 86.871 -27.6768
64.886421 86.837 -27.7816
65.356621 86.803 -27.8848
65.830215 86.768 -27.9864
66.307251 86.733 -28.0848
66.787743 86.697 -28.1791
67.271713 86.660 -28.2678
67.759193 86.623 -28.3495
68.250206 86.585 -28.4229
68.744774 86.547 -28.4856
69.242928 86.509 -28.5399
69.744690 86.474 -28.5856
70.250084 86.440 -28.6279
70.759148 86.409 -28.6712
71.271896 86.379 -28.7179
71.788361 86.351 -28.7712
72.308571 86.323 -28.8329
72.832550 86.297 -28.9059
73.360321 86.270 -28.9898
73.891922 86.242 -29.0872
74.427376 86.213 -29.1928
74.966705 86.181 -29.3030
75.509949 86.148 -29.4158
76.057121 86.114 -29.5279
76.608261 86.079 -29.6388
77.163399 86.041 -29.7477
77.722557 86.002 -29.8528
78.285767 85.963 -29.9516
78.853058 85.923 -30.0458
79.424461 85.883 -30.1366
80.000000 85.842 -30.2238
80.579712 85.800 -30.3085
81.163628 85.758 -30.3889
81.751770 85.715 -30.4633
82.344177 85.672 -30.5329
82.940880 85.630 -30.5979
83.541901 85.587 -30.6589
84.147285 85.544 -30.7163
84.757050 85.500 -30.7699
85.371231 85.456 -30.8192
85.989868 85.413 -30.8659
86.612984 85.370 -30.9112
87.240616 85.328 -30.9559
87.872803 85.286 -31.0013
88.509560 85.244 -31.0479
89.150940 85.201 -31.0965
89.796967 85.158 -31.1469
90.447670 85.115 -31.1995
91.103088 85.071 -31.2529
91.763260 85.025 -31.3063
92.428215 84.978 -31.3579
93.097992 84.930 -31.4062
93.772614 84.880 -31.4499
94.452133 84.830 -31.4877
95.136566 84.779 -31.5189
95.825966 84.726 -31.5425
96.520363 84.673 -31.5580
97.219788 84.620 -31.5640
97.924286 84.567 -31.5620
98.633881 84.514 -31.5527
99.348625 84.461 -31.5370
100.068542 84.408 -31.5161
100.793686 84.355 -31.4901
101.524078 84.303 -31.4595
102.259766 84.250 -31.4241
103.000778 84.198 -31.3838
103.747162 84.145 -31.3391
104.498962 84.093 -31.2902
105.256203 84.040 -31.2371
106.018929 83.987 -31.1798
106.787186 83.934 -31.1181
107.561012 83.882 -31.0518
108.340446 83.829 -30.9811
109.125526 83.777 -30.9063
109.916290 83.724 -30.8272
110.712791 83.672 -30.7438
111.515060 83.619 -30.6562
112.323143 83.567 -30.5644
113.137085 83.514 -30.4682
113.956924 83.462 -30.3674
114.782700 83.409 -30.2623
115.614464 83.357 -30.1530
116.452255 83.304 -30.0392
117.296112 83.251 -29.9205
118.146095 83.198 -29.7973
119.002228 83.146 -29.6701
119.864563 83.093 -29.5384
120.733154 83.041 -29.4017
121.608040 82.988 -29.2603
122.489258 82.936 -29.1143
123.376869 82.883 -28.9634
124.270905 82.831 -28.8074
125.171425 82.778 -28.6463
126.078468 82.726 -28.4800
126.992081 82.673 -28.3084
127.912323 82.621 -28.1316
128.839233 82.568 -27.9494
129.772842 82.515 -27.7617
130.713242 82.462 -27.5684
131.660431 82.410 -27.3695
132.614502 82.357 -27.1646
133.575485 82.305 -26.9533
134.543427 82.252 -26.7354
135.518387 82.200 -26.5108
136.500412 82.147 -26.2794
137.489548 82.095 -26.0416
138.485855 82.042 -25.7966
139.489380 81.990 -25.5440
140.500168 81.937 -25.2836
141.518295 81.885 -25.0150
142.543793 81.832 -24.7377
143.576721 81.780 -24.4514
144.617142 81.727 -24.1557
145.665100 81.674 -23.8506
146.720642 81.621 -23.5349
147.783844 81.569 -23.2075
148.854752 81.516 -22.8679
149.933411 81.464 -22.5156
151.019897 81.411 -22.1489
152.114243 81.359 -21.7666
153.216522 81.306 -21.3672
154.326797 81.254 -20.9498
155.445114 81.203 -20.5120
156.571533 81.153 -20.0513
157.706116 81.103 -19.5671
158.848923 81.055 -19.0589
160.000000 81.009 -18.5243
161.159424 80.965 -17.9606
162.327255 80.924 -17.3684
163.503540 80.888 -16.7464
164.688354 80.858 -16.0984
165.881760 80.834 -15.4260
167.083801 80.817 -14.7348
168.294571 80.808 -14.0271
169.514099 80.809 -13.3147
170.742462 80.821 -12.6067
171.979736 80.843 -11.9148
173.225967 80.875 -11.2519
174.481232 80.914 -10.6244
175.745605 80.959 -10.0441
177.019119 81.009 -9.5073
178.301880 81.060 -9.0164
179.593933 81.112 -8.5651
180.895340 81.165 -8.1487
182.206177 81.218 -7.7639
183.526520 81.271 -7.4061
184.856430 81.325 -7.0737
186.195984 81.379 -6.7616
187.545227 81.436 -6.4756
188.904266 81.496 -6.2175
190.273132 81.558 -5.9945
191.651932 81.621 -5.8147
193.040726 81.685 -5.6783
194.439575 81.747 -5.5902
195.848572 81.806 -5.5451
197.267761 81.860 -5.5428
198.697250 81.909 -5.5729
200.137085 81.950 -5.6279
201.587372 81.985 -5.6988
203.048157 82.014 -5.7754
204.519531 82.038 -5.8538
206.001556 82.057 -5.9272
207.494324 82.072 -5.9948
208.997925 82.084 -6.0531
210.512405 82.093 -6.1029
212.037857 82.101 -6.1435
213.574371 82.107 -6.1769
215.122025 82.112 -6.2043
216.680893 82.116 -6.2269
218.251053 82.119 -6.2469
219.832581 82.120 -6.2630
221.425583 82.120 -6.2752
223.030121 82.118 -6.2820
224.646286 82.115 -6.2816
226.274170 82.110 -6.2740
227.913849 82.105 -6.2582
229.565399 82.099 -6.2351
231.228928 82.093 -6.2051
232.904510 82.086 -6.1681
234.592224 82.079 -6.1239
236.292191 82.072 -6.0731
238.004456 82.065 -6.0161
239.729126 82.059 -5.9542
241.466309 82.053 -5.8889
243.216080 82.046 -5.8202
244.978516 82.039 -5.7481
246.753738 82.033 -5.6732
248.541809 82.027 -5.5959
250.342850 82.022 -5.5162
252.156937 82.016 -5.4341
253.984161 82.010 -5.3502
255.824646 82.005 -5.2648
257.678467 82.001 -5.1792
259.545685 81.997 -5.0955
261.426483 81.992 -5.0112
263.320862 81.986 -4.9245
265.229004 81.981 -4.8362
267.150970 81.977 -4.7461
269.086853 81.973 -4.6563
271.036774 81.970 -4.5694
273.000824 81.966 -4.4843
274.979095 81.962 -4.4009
276.971710 81.957 -4.3183
278.978760 81.952 -4.2355
281.000336 81.947 -4.1522
283.036591 81.941 -4.0674
285.087585 81.935 -3.9813
287.153442 81.929 -3.8934
289.234283 81.923 -3.8042
291.330200 81.917 -3.7139
293.441284 81.911 -3.6223
295.567688 81.905 -3.5288
297.709503 81.898 -3.4343
299.866821 81.892 -3.3390
302.039795 81.886 -3.2433
304.228485 81.880 -3.1478
306.433044 81.874 -3.0523
308.653595 81.868 -2.9564
310.890228 81.862 -2.8603
313.143066 81.855 -2.7640
315.412231 81.848 -2.6673
317.697845 81.841 -2.5696
320.000000 81.834 -2.4713
322.318848 81.827 -2.3725
324.654510 81.820 -2.2733
327.007080 81.813 -2.1743
329.376709 81.805 -2.0743
331.763519 81.796 -1.9729
334.167603 81.786 -1.8683
336.589142 81.776 -1.7575
339.028198 81.767 -1.6433
341.484924 81.759 -1.5277
343.959473 81.751 -1.4113
346.451935 81.743 -1.2961
348.962463 81.734 -1.1803
351.491211 81.725 -1.0625
354.038239 81.717 -0.9443
356.603760 81.709 -0.8273
359.187866 81.701 -0.7114
361.790680 81.692 -0.5976
364.412354 81.682 -0.4843
367.053040 81.671 -0.3710
369.712860 81.660 -0.2554
372.391968 81.647 -0.1355
375.090454 81.634 -0.0104
377.808533 81.620 0.1215
380.546265 81.605 0.2606
383.303864 81.590 0.4076
386.081451 81.575 0.5625
388.879150 81.560 0.7264
391.697144 81.546 0.8965
394.535522 81.533 1.0712
397.394501 81.521 1.2485
400.274170 81.509 1.4255
403.174744 81.498 1.6034
406.096313 81.486 1.7825
409.039062 81.474 1.9624
412.003113 81.462 2.1416
414.988647 81.449 2.3244
417.995850 81.434 2.5141
421.024811 81.418 2.7124
424.075714 81.402 2.9224
427.148743 81.386 3.1423
430.244049 81.371 3.3712
433.361786 81.356 3.6092
436.502106 81.341 3.8565
439.665161 81.326 4.1122
442.851166 81.314 4.3760
446.060242 81.302 4.6471
449.292572 81.290 4.9237
452.548340 81.278 5.2081
455.827698 81.267 5.5024
459.130798 81.256 5.8060
462.457855 81.247 6.1187
465.809021 81.238 6.4410
469.184448 81.230 6.7732
472.584381 81.223 7.1149
476.008911 81.219 7.4663
479.458252 81.216 7.8258
482.932617 81.215 8.1921
486.432159 81.216 8.5648
489.957031 81.218 8.9438
493.507477 81.223 9.3278
497.083618 81.230 9.7157
500.685699 81.240 10.1067
504.313873 81.251 10.4998
507.968323 81.265 10.8947
511.649292 81.281 11.2919
515.356934 81.299 11.6887
519.091370 81.321 12.0829
522.852966 81.345 12.4737
526.641724 81.370 12.8595
530.458008 81.398 13.2408
534.301941 81.428 13.6186
538.173706 81.460 13.9898
542.073547 81.496 14.3518
546.001648 81.534 14.7028
549.958191 81.573 15.0398
553.943420 81.613 15.3640
557.957520 81.654 15.6754
562.000671 81.697 15.9740
566.073181 81.740 16.2590
570.175171 81.783 16.5321
574.306885 81.825 16.7944
578.468567 81.868 17.0471
582.660400 81.911 17.2917
586.882568 81.953 17.5292
591.135376 81.994 17.7606
595.419006 82.035 17.9882
599.733643 82.076 18.2150
604.079590 82.117 18.4392
608.456970 82.158 18.6597
612.866089 82.200 18.8773
617.307190 82.242 19.0919
621.780457 82.284 19.3043
626.286133 82.326 19.5152
630.824463 82.369 19.7243
635.395691 82.412 19.9313
640.000000 82.455 20.1363
644.637695 82.499 20.3387
649.309021 82.543 20.5403
654.014160 82.587 20.7425
658.753418 82.632 20.9453
663.527039 82.678 21.1499
668.335205 82.725 21.3543
673.178284 82.773 21.5576
678.056396 82.823 21.7583
682.969849 82.874 21.9550
687.918945 82.928 22.1463
692.903870 82.983 22.3314
697.924927 83.040 22.5084
702.982422 83.098 22.6754
708.076477 83.157 22.8315
713.207520 83.218 22.9756
718.375732 83.280 23.1066
723.581360 83.343 23.2225
728.824707 83.406 23.3237
734.106079 83.468 23.4096
739.425720 83.531 23.4808
744.783936 83.594 23.5374
750.180908 83.656 23.5799
755.617065 83.717 23.6074
761.092529 83.777 23.6230
766.607727 83.835 23.6282
772.162903 83.891 23.6260
777.758301 83.945 23.6198
783.394287 83.998 23.6100
789.071045 84.050 23.5983
794.789001 84.101 23.5850
800.548340 84.151 23.5710
806.349487 84.200 23.5570
812.192627 84.249 23.5448
818.078125 84.297 23.5330
824.006226 84.344 23.5210
829.977295 84.392 23.5090
835.991699 84.440 23.4974
842.049622 84.488 23.4850
848.151428 84.535 23.4707
854.297485 84.583 23.4551
860.488098 84.631 23.4384
866.723572 84.679 23.4201
873.004211 84.726 23.3991
879.330322 84.774 23.3761
885.702332 84.822 23.3512
892.120483 84.870 23.3241
898.585144 84.917 23.2948
905.096680 84.965 23.2631
911.655396 85.012 23.2289
918.261597 85.060 23.1921
924.915710 85.108 23.1524
931.618042 85.156 23.1102
938.368896 85.203 23.0660
945.168762 85.251 23.0192
952.017822 85.299 22.9693
958.916504 85.347 22.9162
965.865234 85.394 22.8599
972.864319 85.442 22.8002
979.914062 85.490 22.7371
987.014954 85.538 22.6703
994.167236 85.585 22.5992
1001.371399 85.632 22.5243
1008.627747 85.679 22.4455
1015.936646 85.726 22.3634
1023.298584 85.771 22.2776
1030.713867 85.816 22.1903
1038.182739 85.860 22.1035
1045.705933 85.903 22.0174
1053.283447 85.946 21.9326
1060.916016 85.990 21.8494
1068.603882 86.033 21.7678
1076.347412 86.076 21.6883
1084.147095 86.119 21.6124
1092.003296 86.162 21.5373
1099.916382 86.207 21.4610
1107.886841 86.253 21.3823
1115.915039 86.298 21.2988
1124.001343 86.344 21.2123
1132.146362 86.389 21.1242
1140.350342 86.435 21.0334
1148.613770 86.481 20.9385
1156.937134 86.526 20.8414
1165.320801 86.570 20.7431
1173.765137 86.614 20.6444
1182.270752 86.658 20.5470
1190.838013 86.702 20.4504
1199.467285 86.746 20.3543
1208.159180 86.790 20.2594
1216.913940 86.834 20.1665
1225.732178 86.878 20.0753
1234.614380 86.923 19.9858
1243.560913 86.968 19.8973
1252.572266 87.014 19.8094
1261.648926 87.060 19.7223
1270.791382 87.106 19.6361
1280.000000 87.153 19.5513
1289.275391 87.200 19.4692
1298.618042 87.248 19.3883
1308.028320 87.297 19.3078
1317.506836 87.348 19.2273
1327.054077 87.399 19.1463
1336.670410 87.451 19.0653
1346.356567 87.504 18.9852
1356.112793 87.559 18.9043
1365.939697 87.615 18.8213
1375.837891 87.674 18.7354
1385.807739 87.733 18.6458
1395.849854 87.795 18.5504
1405.964844 87.859 18.4475
1416.152954 87.926 18.3344
1426.415039 87.993 18.2079
1436.751465 88.062 18.0676
1447.162720 88.133 17.9126
1457.649414 88.205 17.7407
1468.212158 88.278 17.5490
1478.851440 88.351 17.3378
1489.567871 88.423 17.1052
1500.361816 88.494 16.8550
1511.234131 88.563 16.5905
1522.185059 88.632 16.3123
1533.215454 88.699 16.0215
1544.325806 88.766 15.7194
1555.516602 88.830 15.4069
1566.788574 88.892 15.0864
1578.142090 88.952 14.7601
1589.578003 89.011 14.4294
1601.096680 89.068 14.0965
1612.698975 89.124 13.7614
1624.385254 89.178 13.4247
1636.156250 89.232 13.0875
1648.012451 89.284 12.7508
1659.954590 89.336 12.4152
1671.983398 89.387 12.0820
1684.099243 89.437 11.7504
1696.302856 89.487 11.4199
1708.594971 89.537 11.0905
1720.976196 89.587 10.7618
1733.447144 89.637 10.4334
1746.008423 89.686 10.1045
1758.660645 89.736 9.7754
1771.404663 89.785 9.4459
1784.240967 89.835 9.1164
1797.170288 89.884 8.7868
1810.193359 89.933 8.4573
1823.310791 89.982 8.1282
1836.523193 90.032 7.7993
1849.831421 90.082 7.4708
1863.236084 90.132 7.1425
1876.737793 90.183 6.8144
1890.337524 90.234 6.4864
1904.035645 90.285 6.1587
1917.833008 90.338 5.8303
1931.730469 90.391 5.5007
1945.728638 90.445 5.1694
1959.828125 90.499 4.8358
1974.029907 90.555 4.4994
1988.334473 90.612 4.1602
2002.742798 90.670 3.8174
2017.255493 90.728 3.4708
2031.873291 90.788 3.1194
2046.597168 90.850 2.7626
2061.427734 90.913 2.3986
2076.365479 90.977 2.0257
2091.411865 91.042 1.6436
2106.566895 91.108 1.2520
2121.832031 91.175 0.8497
2137.207764 91.243 0.4352
2152.694824 91.312 0.0087
2168.294189 91.381 -0.4300
2184.006592 91.450 -0.8809
2199.832764 91.520 -1.3440
2215.773682 91.590 -1.8190
2231.830078 91.660 -2.3062
2248.002686 91.730 -2.8049
2264.292725 91.801 -3.3139
2280.700684 91.872 -3.8347
2297.227539 91.943 -4.3685
2313.874268 92.015 -4.9157
2330.641602 92.086 -5.4771
2347.530273 92.158 -6.0525
2364.541504 92.229 -6.6422
2381.676025 92.301 -7.2462
2398.934570 92.371 -7.8652
2416.318359 92.442 -8.4981
2433.827881 92.512 -9.1449
2451.464355 92.581 -9.8042
2469.228760 92.648 -10.4749
2487.121826 92.716 -11.1570
2505.144531 92.784 -11.8499
2523.297852 92.852 -12.5558
2541.582764 92.920 -13.2770
2560.000000 92.987 -14.0127
2578.550781 93.052 -14.7626
2597.236084 93.118 -15.5274
2616.056641 93.183 -16.3074
2635.013672 93.249 -17.1046
2654.108154 93.313 -17.9220
2673.340820 93.376 -18.7573
2692.713135 93.436 -19.6095
2712.225586 93.495 -20.4779
2731.879395 93.553 -21.3614
2751.675781 93.609 -22.2598
2771.615479 93.662 -23.1732
2791.699707 93.714 -24.0999
2811.929688 93.763 -25.0377
2832.305908 93.811 -25.9875
2852.830078 93.857 -26.9496
2873.502930 93.901 -27.9237
2894.325439 93.943 -28.9097
2915.298828 93.983 -29.9074
2936.424316 94.020 -30.9168
2957.702881 94.056 -31.9375
2979.135742 94.089 -32.9700
3000.723633 94.120 -34.0124
3022.468262 94.147 -35.0636
3044.370117 94.171 -36.1221
3066.430908 94.193 -37.1869
3088.651611 94.213 -38.2572
3111.033203 94.230 -39.3322
3133.577148 94.244 -40.4109
3156.284180 94.256 -41.4918
3179.156006 94.266 -42.5758
3202.193359 94.274 -43.6626
3225.397949 94.280 -44.7538
3248.770508 94.285 -45.8514
3272.312500 94.288 -46.9550
3296.024902 94.289 -48.0647
3319.909180 94.287 -49.1808
3343.966797 94.283 -50.3044
3368.198486 94.277 -51.4336
3392.605713 94.267 -52.5672
3417.189941 94.255 -53.7047
3441.952393 94.241 -54.8461
3466.894287 94.223 -55.9899
3492.016846 94.202 -57.1352
3517.321289 94.178 -58.2807
3542.809326 94.151 -59.4245
3568.481934 94.122 -60.5667
3594.340576 94.091 -61.7068
3620.386719 94.058 -62.8456
3646.621582 94.022 -63.9834
3673.046387 93.983 -65.1206
3699.662842 93.943 -66.2577
3726.472168 93.900 -67.3938
3753.475586 93.854 -68.5287
3780.675049 93.805 -69.6609
3808.071289 93.754 -70.7892
3835.666016 93.700 -71.9127
3863.460938 93.643 -73.0305
3891.457275 93.583 -74.1417
3919.656250 93.521 -75.2449
3948.059814 93.457 -76.3400
3976.668945 93.391 -77.4262
4005.485596 93.323 -78.5048
4034.510986 93.254 -79.5758
4063.746582 93.182 -80.6409
4093.194336 93.110 -81.7015
4122.855469 93.036 -82.7579
4152.730957 92.960 -83.8113
4182.823730 92.881 -84.8600
4213.133789 92.800 -85.9033
4243.664062 92.716 -86.9391
4274.415527 92.630 -87.9655
4305.389648 92.540 -88.9811
4336.588379 92.449 -89.9840
4368.013184 92.355 -90.9733
4399.665527 92.260 -91.9473
4431.547363 92.162 -92.9064
4463.660156 92.063 -93.8492
4496.005371 91.964 -94.7784
4528.585449 91.863 -95.6964
4561.401367 91.762 -96.6027
4594.455078 91.660 -97.4975
4627.748535 91.558 -98.3817
4661.283203 91.454 -99.2555
4695.060547 91.351 -100.1208
4729.083008 91.245 -100.9808
4763.352051 91.139 -101.8320
4797.869141 91.029 -102.6724
4832.636719 90.918 -103.4999
4867.655762 90.805 -104.3115
4902.928711 90.691 -105.1071
4938.457520 90.575 -105.8866
4974.243652 90.458 -106.6474
5010.289062 90.339 -107.3867
5046.595703 90.220 -108.1054
5083.165527 90.101 -108.8026
5120.000000 89.982 -109.4807
5157.101562 89.862 -110.1417
5194.472168 89.744 -110.7859
5232.113281 89.626 -111.4145
5270.027344 89.509 -112.0270
5308.216309 89.390 -112.6234
5346.681641 89.272 -113.2022
5385.426270 89.153 -113.7621
5424.451172 89.036 -114.3024
5463.758789 88.918 -114.8228
5503.351562 88.801 -115.3216
5543.230957 88.684 -115.7964
5583.399414 88.570 -116.2498
5623.859375 88.457 -116.6834
5664.611816 88.347 -117.0980
5705.660156 88.238 -117.4955
5747.005859 88.132 -117.8751
5788.650879 88.027 -118.2369
5830.597656 87.924 -118.5803
5872.848633 87.823 -118.9046
5915.405762 87.724 -119.2095
5958.271484 87.629 -119.4938
6001.447266 87.537 -119.7587
6044.936523 87.449 -120.0045
6088.740234 87.364 -120.2329
6132.861816 87.285 -120.4445
6177.303223 87.210 -120.6430
6222.066406 87.142 -120.8313
6267.154297 87.079 -121.0121
6312.568359 87.022 -121.1889
6358.312012 86.970 -121.3631
6404.386719 86.924 -121.5364
6450.795898 86.884 -121.7121
6497.541016 86.850 -121.8939
6544.625000 86.822 -122.0830
6592.049805 86.799 -122.2820
6639.818359 86.782 -122.4909
6687.933594 86.770 -122.7096
6736.396973 86.764 -122.9408
6785.211426 86.764 -123.1860
6834.379883 86.770 -123.4476
6883.904785 86.782 -123.7276
6933.788574 86.800 -124.0284
6984.033691 86.824 -124.3519
7034.642578 86.855 -124.7012
7085.618652 86.893 -125.0782
7136.963867 86.938 -125.4879
7188.681152 86.990 -125.9345
7240.773438 87.050 -126.4224
7293.243164 87.116 -126.9554
7346.092773 87.189 -127.5389
7399.325684 87.269 -128.1770
7452.944336 87.358 -128.8783
7506.951172 87.454 -129.6488
7561.350098 87.557 -130.5004
7616.142578 87.668 -131.4429
7671.332031 87.784 -132.4883
7726.921875 87.905 -133.6484
7782.914551 88.028 -134.9330
7839.312500 88.152 -136.3555
7896.119629 88.272 -137.9184
7953.337891 88.386 -139.6311
8010.971191 88.488 -141.4868
8069.021973 88.577 -143.4873
8127.493164 88.649 -145.6154
8186.388672 88.698 -147.8640
8245.710938 88.723 -150.2054
8305.461914 88.720 -152.6174
8365.647461 88.691 -155.0759
8426.267578 88.635 -157.5568
8487.328125 88.553 -160.0370
8548.831055 88.441 -162.4926
8610.779297 88.304 -164.9004
8673.176758 88.140 -167.2338
8736.026367 87.954 -169.4791
8799.331055 87.749 -171.6167
8863.094727 87.526 -173.6386
8927.320312 87.288 -175.5333
8992.010742 87.036 -177.2931
9057.170898 86.775 -178.9062
9122.802734 86.506 179.6263
9188.910156 86.235 178.3102
9255.497070 85.964 177.1379
9322.566406 85.697 176.1082
9390.121094 85.435 175.2094
9458.166016 85.184 174.4350
9526.704102 84.944 173.7693
9595.738281 84.720 173.1994
9665.273438 84.512 172.7104
9735.311523 84.321 172.2888
9805.857422 84.149 171.9169
9876.915039 83.998 171.5780
9948.487305 83.867 171.2557
10020.578125 83.755 170.9331
10093.191406 83.664 170.5949
10166.331055 83.594 170.2277
10240.000000 83.544 169.8094
10314.203125 83.515 169.3191
10388.944336 83.503 168.7400
10464.226562 83.506 168.0521
10540.054688 83.520 167.2442
10616.432617 83.544 166.3000
10693.363281 83.573 165.2149
10770.852539 83.603 163.9731
10848.902344 83.628 162.5898
10927.517578 83.641 161.0652
11006.703125 83.641 159.4301
11086.461914 83.622 157.7051
11166.798828 83.585 155.9220
11247.718750 83.528 154.1108
11329.223633 83.454 152.2983
11411.320312 83.364 150.5205
11494.011719 83.264 148.7803
11577.301758 83.159 147.1013
11661.195312 83.057 145.4571
11745.697266 82.963 143.8417
11830.811523 82.879 142.2169
11916.542969 82.809 140.5536
12002.894531 82.748 138.8169
12089.873047 82.700 136.9711
12177.480469 82.656 134.9887
12265.723633 82.617 132.8278
12354.606445 82.568 130.4961
12444.132812 82.500 127.9697
12534.308594 82.404 125.3027
12625.136719 82.270 122.5204
12716.624023 82.097 119.6870
12808.773438 81.882 116.8533
12901.591797 81.624 114.0854
12995.082031 81.316 111.4459
13089.250000 80.968 108.9967
13184.099609 80.579 106.8145
13279.636719 80.163 104.9170
13375.867188 79.731 103.3539
13472.793945 79.293 102.1062
13570.422852 78.863 101.1856
13668.759766 78.452 100.5490
13767.809570 78.075 100.1786
13867.577148 77.741 100.0095
13968.067383 77.462 99.9936
14069.285156 77.241 100.0615
14171.237305 77.086 100.1514
14273.927734 76.996 100.1930
14377.362305 76.975 100.1212
14481.546875 77.019 99.8590
14586.486328 77.128 99.3312
14692.185547 77.290 98.4671
14798.651367 77.498 97.1902
14905.888672 77.738 95.4427
15013.902344 78.001 93.1520
15122.700195 78.267 90.2870
15232.285156 78.518 86.7823
15342.664062 78.735 82.6689
15453.843750 78.896 77.9253
15565.829102 78.991 72.6420
15678.625000 79.001 66.8600
15792.239258 78.920 60.7091
15906.675781 78.734 54.2810
16021.942383 78.439 47.7325
16138.043945 78.026 41.2082
16254.986328 77.500 34.8373
16372.777344 76.863 28.7701
16491.421875 76.119 23.0892
16610.923828 75.273 17.9146
16731.294922 74.339 13.2832
16852.535156 73.324 9.2767
16974.656250 72.247 5.8817
17097.662109 71.122 3.1130
17221.558594 69.959 0.9672
17346.353516 68.768 -0.5549
17472.052734 67.560 -1.4525
17598.662109 66.350 -1.7213
17726.189453 65.144 -1.3708
17854.640625 63.951 -0.3983
17984.021484 62.784 1.1627
18114.341797 61.650 3.3209
18245.605469 60.573 5.9519
18377.820312 59.576 8.9745
18510.994141 58.669 12.2664
18645.132812 57.867 15.7092
18780.242188 57.172 19.2080
18916.332031 56.595 22.6605
19053.408203 56.123 25.9708
19191.476562 55.763 29.0067
19330.546875 55.473 31.7748
19470.623047 55.213 34.2201
19611.714844 54.982 36.3973
19753.830078 54.771 38.3330
19896.974609 54.570 40.0581
