* Measurement data measured by REW V5.20.13
* Source: C:\Users\kurin\Desktop\Targets and Curves\Resolve\Img\Files\Hexa 5128.csv
* Format: Comma/Tab/Space delimited data
* Dated: Jul 25, 2023 12:42:43 AM
* REW Settings:
*  C-weighting compensation: Off
*  Target level: 75.0 dB
* Note: ; Measurement imported from C:\Users\kurin\Desktop\Targets and Curves\Resolve\Img\Files\Hexa 5128.csv Format: Comma/Tab/Space delimited data 468 values loaded, 21 Hz to 19,939 Hz 
* Measurement: Hexa 5128
* Smoothing: None
* Frequency Step: 1/96 octave
* Start Frequency: 20.885 Hz
*
* Freq(Hz) SPL(dB)
20.885475 91.159
21.036821 91.142
21.189262 91.124
21.342808 91.105
21.497467 91.087
21.653246 91.070
21.810154 91.054
21.968201 91.038
22.127390 91.022
22.287735 91.008
22.449242 90.998
22.611917 90.989
22.775772 90.980
22.940815 90.969
23.107054 90.955
23.274498 90.939
23.443153 90.918
23.613033 90.892
23.784142 90.861
23.956491 90.826
24.130091 90.787
24.304947 90.747
24.481071 90.706
24.658470 90.666
24.837156 90.628
25.017136 90.590
25.198421 90.554
25.381020 90.521
25.564941 90.495
25.750195 90.473
25.936790 90.452
26.124741 90.430
26.314051 90.409
26.504732 90.390
26.696796 90.371
26.890253 90.349
27.085112 90.325
27.281382 90.304
27.479073 90.287
27.678198 90.270
27.878765 90.253
28.080786 90.236
28.284271 90.219
28.489231 90.202
28.695675 90.182
28.903616 90.158
29.113064 90.132
29.324028 90.104
29.536524 90.076
29.750557 90.052
29.966141 90.028
30.183289 90.002
30.402010 89.973
30.622314 89.947
30.844217 89.926
31.067726 89.904
31.292856 89.879
31.519617 89.854
31.748020 89.827
31.978081 89.800
32.209808 89.775
32.443211 89.753
32.678310 89.733
32.915108 89.718
33.153625 89.705
33.393871 89.692
33.635857 89.678
33.879597 89.662
34.125103 89.642
34.372387 89.616
34.621464 89.581
34.872345 89.543
35.125042 89.504
35.379574 89.464
35.635948 89.425
35.894180 89.385
36.154285 89.348
36.416275 89.314
36.680161 89.279
36.945961 89.243
37.213688 89.204
37.483353 89.161
37.754974 89.117
38.028561 89.078
38.304131 89.046
38.581699 89.023
38.861279 89.011
39.142883 89.002
39.426529 88.990
39.712231 88.977
40.000000 88.966
40.289856 88.956
40.581814 88.942
40.875885 88.921
41.172089 88.897
41.470440 88.871
41.770950 88.844
42.073643 88.818
42.378525 88.791
42.685616 88.763
42.994934 88.733
43.306492 88.704
43.620308 88.678
43.936401 88.651
44.254780 88.616
44.575470 88.576
44.898483 88.534
45.223835 88.491
45.551544 88.454
45.881630 88.427
46.214108 88.402
46.548996 88.372
46.886307 88.343
47.226067 88.318
47.568283 88.300
47.912983 88.282
48.260181 88.264
48.609894 88.245
48.962143 88.223
49.316940 88.201
49.674313 88.177
50.034271 88.154
50.396843 88.133
50.762039 88.118
51.129883 88.098
51.500389 88.064
51.873581 88.029
52.249481 88.005
52.628101 87.988
53.009464 87.964
53.393593 87.931
53.780506 87.896
54.170223 87.860
54.562763 87.827
54.958145 87.801
55.356396 87.778
55.757530 87.752
56.161572 87.722
56.568542 87.693
56.978462 87.666
57.391350 87.639
57.807232 87.609
58.226128 87.577
58.648056 87.545
59.073048 87.513
59.501114 87.485
59.932281 87.462
60.366577 87.439
60.804020 87.412
61.244629 87.386
61.688435 87.359
62.135452 87.332
62.585712 87.306
63.039234 87.282
63.496040 87.255
63.956161 87.226
64.419617 87.196
64.886421 87.169
65.356621 87.142
65.830215 87.114
66.307251 87.084
66.787743 87.055
67.271713 87.028
67.759193 87.002
68.250206 86.976
68.744774 86.951
69.242928 86.926
69.744690 86.901
70.250084 86.877
70.759148 86.855
71.271896 86.833
71.788361 86.812
72.308571 86.790
72.832550 86.763
73.360321 86.732
73.891922 86.704
74.427376 86.677
74.966705 86.650
75.509949 86.620
76.057121 86.590
76.608261 86.564
77.163399 86.540
77.722557 86.512
78.285767 86.482
78.853058 86.453
79.424461 86.426
80.000000 86.400
80.579712 86.376
81.163628 86.353
81.751770 86.328
82.344177 86.303
82.940880 86.278
83.541901 86.253
84.147285 86.228
84.757050 86.202
85.371231 86.175
85.989868 86.147
86.612984 86.118
87.240616 86.092
87.872803 86.069
88.509560 86.045
89.150940 86.017
89.796967 85.989
90.447670 85.960
91.103088 85.931
91.763260 85.906
92.428215 85.883
93.097992 85.858
93.772614 85.829
94.452133 85.798
95.136566 85.771
95.825966 85.745
96.520363 85.716
97.219788 85.686
97.924286 85.658
98.633881 85.634
99.348625 85.612
100.068542 85.587
100.793686 85.561
101.524078 85.537
102.259766 85.513
103.000778 85.491
103.747162 85.471
104.498962 85.451
105.256203 85.431
106.018929 85.410
106.787186 85.389
107.561012 85.367
108.340446 85.345
109.125526 85.325
109.916290 85.305
110.712791 85.286
111.515060 85.267
112.323143 85.248
113.137085 85.227
113.956924 85.205
114.782700 85.182
115.614464 85.158
116.452255 85.134
117.296112 85.111
118.146095 85.085
119.002228 85.060
119.864563 85.037
120.733154 85.016
121.608040 84.993
122.489258 84.968
123.376869 84.942
124.270905 84.917
125.171425 84.892
126.078468 84.868
126.992081 84.842
127.912323 84.816
128.839233 84.787
129.772842 84.760
130.713242 84.736
131.660431 84.713
132.614502 84.690
133.575485 84.667
134.543427 84.639
135.518387 84.609
136.500412 84.581
137.489548 84.557
138.485855 84.534
139.489380 84.507
140.500168 84.478
141.518295 84.449
142.543793 84.421
143.576721 84.394
144.617142 84.367
145.665100 84.340
146.720642 84.314
147.783844 84.287
148.854752 84.262
149.933411 84.237
151.019897 84.210
152.114243 84.180
153.216522 84.151
154.326797 84.126
155.445114 84.101
156.571533 84.070
157.706116 84.038
158.848923 84.011
160.000000 83.986
161.159424 83.959
162.327255 83.926
163.503540 83.893
164.688354 83.866
165.881760 83.839
167.083801 83.811
168.294571 83.781
169.514099 83.751
170.742462 83.721
171.979736 83.692
173.225967 83.663
174.481232 83.635
175.745605 83.608
177.019119 83.582
178.301880 83.554
179.593933 83.526
180.895340 83.498
182.206177 83.472
183.526520 83.448
184.856430 83.425
186.195984 83.403
187.545227 83.383
188.904266 83.365
190.273132 83.353
191.651932 83.348
193.040726 83.344
194.439575 83.328
195.848572 83.312
197.267761 83.303
198.697250 83.302
200.137085 83.306
201.587372 83.314
203.048157 83.326
204.519531 83.341
206.001556 83.359
207.494324 83.383
208.997925 83.411
210.512405 83.446
212.037857 83.486
213.574371 83.534
215.122025 83.591
216.680893 83.653
218.251053 83.720
219.832581 83.789
221.425583 83.862
223.030121 83.936
224.646286 84.009
226.274170 84.078
227.913849 84.146
229.565399 84.212
231.228928 84.276
232.904510 84.334
234.592224 84.387
236.292191 84.437
238.004456 84.482
239.729126 84.522
241.466309 84.553
243.216080 84.580
244.978516 84.606
246.753738 84.630
248.541809 84.644
250.342850 84.650
252.156937 84.651
253.984161 84.654
255.824646 84.655
257.678467 84.651
259.545685 84.646
261.426483 84.643
263.320862 84.640
265.229004 84.634
267.150970 84.619
269.086853 84.602
271.036774 84.586
273.000824 84.570
274.979095 84.554
276.971710 84.536
278.978760 84.519
281.000336 84.502
283.036591 84.485
285.087585 84.468
287.153442 84.450
289.234283 84.430
291.330200 84.408
293.441284 84.387
295.567688 84.368
297.709503 84.349
299.866821 84.326
302.039795 84.302
304.228485 84.279
306.433044 84.257
308.653595 84.236
310.890228 84.216
313.143066 84.196
315.412231 84.175
317.697845 84.155
320.000000 84.135
322.318848 84.114
324.654510 84.093
327.007080 84.070
329.376709 84.051
331.763519 84.035
334.167603 84.020
336.589142 83.998
339.028198 83.975
341.484924 83.959
343.959473 83.945
346.451935 83.928
348.962463 83.906
351.491211 83.884
354.038239 83.867
356.603760 83.850
359.187866 83.832
361.790680 83.813
364.412354 83.794
367.053040 83.775
369.712860 83.756
372.391968 83.737
375.090454 83.719
377.808533 83.702
380.546265 83.687
383.303864 83.671
386.081451 83.656
388.879150 83.640
391.697144 83.622
394.535522 83.605
397.394501 83.590
400.274170 83.577
403.174744 83.564
406.096313 83.551
409.039062 83.538
412.003113 83.524
414.988647 83.510
417.995850 83.495
421.024811 83.479
424.075714 83.462
427.148743 83.444
430.244049 83.428
433.361786 83.412
436.502106 83.396
439.665161 83.377
442.851166 83.358
446.060242 83.340
449.292572 83.321
452.548340 83.300
455.827698 83.277
459.130798 83.257
462.457855 83.242
465.809021 83.227
469.184448 83.208
472.584381 83.191
476.008911 83.180
479.458252 83.171
482.932617 83.159
486.432159 83.142
489.957031 83.128
493.507477 83.126
497.083618 83.125
500.685699 83.119
504.313873 83.111
507.968323 83.106
511.649292 83.107
515.356934 83.112
519.091370 83.119
522.852966 83.128
526.641724 83.133
530.458008 83.139
534.301941 83.152
538.173706 83.173
542.073547 83.196
546.001648 83.222
549.958191 83.250
553.943420 83.280
557.957520 83.312
562.000671 83.345
566.073181 83.378
570.175171 83.411
574.306885 83.446
578.468567 83.480
582.660400 83.513
586.882568 83.546
591.135376 83.579
595.419006 83.611
599.733643 83.646
604.079590 83.681
608.456970 83.713
612.866089 83.740
617.307190 83.766
621.780457 83.796
626.286133 83.828
630.824463 83.859
635.395691 83.891
640.000000 83.921
644.637695 83.951
649.309021 83.981
654.014160 84.014
658.753418 84.047
663.527039 84.078
668.335205 84.107
673.178284 84.137
678.056396 84.168
682.969849 84.200
687.918945 84.233
692.903870 84.266
697.924927 84.298
702.982422 84.331
708.076477 84.365
713.207520 84.401
718.375732 84.438
723.581360 84.474
728.824707 84.510
734.106079 84.544
739.425720 84.578
744.783936 84.615
750.180908 84.654
755.617065 84.694
761.092529 84.733
766.607727 84.772
772.162903 84.810
777.758301 84.848
783.394287 84.886
789.071045 84.925
794.789001 84.964
800.548340 85.001
806.349487 85.039
812.192627 85.078
818.078125 85.117
824.006226 85.159
829.977295 85.201
835.991699 85.242
842.049622 85.279
848.151428 85.316
854.297485 85.355
860.488098 85.395
866.723572 85.437
873.004211 85.479
879.330322 85.519
885.702332 85.556
892.120483 85.594
898.585144 85.635
905.096680 85.676
911.655396 85.717
918.261597 85.757
924.915710 85.797
931.618042 85.838
938.368896 85.880
945.168762 85.925
952.017822 85.972
958.916504 86.024
965.865234 86.075
972.864319 86.114
979.914062 86.147
987.014954 86.179
994.167236 86.215
1001.371399 86.253
1008.627747 86.298
1015.936646 86.344
1023.298584 86.387
1030.713867 86.431
1038.182739 86.480
1045.705933 86.534
1053.283447 86.586
1060.916016 86.629
1068.603882 86.673
1076.347412 86.724
1084.147095 86.777
1092.003296 86.827
1099.916382 86.873
1107.886841 86.917
1115.915039 86.960
1124.001343 87.003
1132.146362 87.050
1140.350342 87.098
1148.613770 87.146
1156.937134 87.193
1165.320801 87.244
1173.765137 87.298
1182.270752 87.350
1190.838013 87.397
1199.467285 87.442
1208.159180 87.489
1216.913940 87.536
1225.732178 87.582
1234.614380 87.628
1243.560913 87.673
1252.572266 87.716
1261.648926 87.760
1270.791382 87.806
1280.000000 87.851
1289.275391 87.894
1298.618042 87.934
1308.028320 87.975
1317.506836 88.017
1327.054077 88.060
1336.670410 88.100
1346.356567 88.141
1356.112793 88.182
1365.939697 88.225
1375.837891 88.268
1385.807739 88.313
1395.849854 88.355
1405.964844 88.394
1416.152954 88.430
1426.415039 88.467
1436.751465 88.505
1447.162720 88.546
1457.649414 88.590
1468.212158 88.633
1478.851440 88.671
1489.567871 88.708
1500.361816 88.746
1511.234131 88.785
1522.185059 88.827
1533.215454 88.869
1544.325806 88.910
1555.516602 88.948
1566.788574 88.985
1578.142090 89.025
1589.578003 89.066
1601.096680 89.107
1612.698975 89.148
1624.385254 89.189
1636.156250 89.231
1648.012451 89.271
1659.954590 89.303
1671.983398 89.335
1684.099243 89.369
1696.302856 89.407
1708.594971 89.453
1720.976196 89.505
1733.447144 89.555
1746.008423 89.594
1758.660645 89.636
1771.404663 89.690
1784.240967 89.749
1797.170288 89.806
1810.193359 89.859
1823.310791 89.911
1836.523193 89.963
1849.831421 90.014
1863.236084 90.064
1876.737793 90.114
1890.337524 90.168
1904.035645 90.222
1917.833008 90.270
1931.730469 90.310
1945.728638 90.357
1959.828125 90.423
1974.029907 90.498
1988.334473 90.582
2002.742798 90.666
2017.255493 90.733
2031.873291 90.780
2046.597168 90.829
2061.427734 90.891
2076.365479 90.957
2091.411865 91.027
2106.566895 91.098
2121.832031 91.168
2137.207764 91.238
2152.694824 91.310
2168.294189 91.385
2184.006592 91.461
2199.832764 91.540
2215.773682 91.620
2231.830078 91.701
2248.002686 91.782
2264.292725 91.865
2280.700684 91.949
2297.227539 92.034
2313.874268 92.120
2330.641602 92.206
2347.530273 92.296
2364.541504 92.387
2381.676025 92.478
2398.934570 92.568
2416.318359 92.660
2433.827881 92.753
2451.464355 92.848
2469.228760 92.948
2487.121826 93.050
2505.144531 93.152
2523.297852 93.252
2541.582764 93.351
2560.000000 93.447
2578.550781 93.545
2597.236084 93.649
2616.056641 93.754
2635.013672 93.857
2654.108154 93.957
2673.340820 94.057
2692.713135 94.159
2712.225586 94.261
2731.879395 94.360
2751.675781 94.458
2771.615479 94.554
2791.699707 94.648
2811.929688 94.741
2832.305908 94.832
2852.830078 94.920
2873.502930 95.000
2894.325439 95.076
2915.298828 95.150
2936.424316 95.220
2957.702881 95.284
2979.135742 95.342
3000.723633 95.396
3022.468262 95.446
3044.370117 95.489
3066.430908 95.523
3088.651611 95.551
3111.033203 95.575
3133.577148 95.596
3156.284180 95.611
3179.156006 95.622
3202.193359 95.628
3225.397949 95.631
3248.770508 95.627
3272.312500 95.615
3296.024902 95.594
3319.909180 95.560
3343.966797 95.516
3368.198486 95.472
3392.605713 95.437
3417.189941 95.403
3441.952393 95.369
3466.894287 95.331
3492.016846 95.283
3517.321289 95.225
3542.809326 95.164
3568.481934 95.101
3594.340576 95.035
3620.386719 94.962
3646.621582 94.883
3673.046387 94.801
3699.662842 94.715
3726.472168 94.626
3753.475586 94.533
3780.675049 94.436
3808.071289 94.332
3835.666016 94.224
3863.460938 94.115
3891.457275 94.001
3919.656250 93.877
3948.059814 93.746
3976.668945 93.612
4005.485596 93.493
4034.510986 93.424
4063.746582 93.362
4093.194336 93.269
4122.855469 93.151
4152.730957 93.030
4182.823730 92.914
4213.133789 92.808
4243.664062 92.714
4274.415527 92.623
4305.389648 92.531
4336.588379 92.441
4368.013184 92.356
4399.665527 92.276
4431.547363 92.198
4463.660156 92.126
4496.005371 92.060
4528.585449 92.002
4561.401367 91.948
4594.455078 91.893
4627.748535 91.840
4661.283203 91.792
4695.060547 91.748
4729.083008 91.709
4763.352051 91.675
4797.869141 91.644
4832.636719 91.613
4867.655762 91.581
4902.928711 91.551
4938.457520 91.521
4974.243652 91.494
5010.289062 91.471
5046.595703 91.448
5083.165527 91.424
5120.000000 91.398
5157.101562 91.368
5194.472168 91.336
5232.113281 91.305
5270.027344 91.275
5308.216309 91.246
5346.681641 91.215
5385.426270 91.183
5424.451172 91.149
5463.758789 91.114
5503.351562 91.078
5543.230957 91.040
5583.399414 91.002
5623.859375 90.965
5664.611816 90.927
5705.660156 90.888
5747.005859 90.851
5788.650879 90.819
5830.597656 90.791
5872.848633 90.764
5915.405762 90.736
5958.271484 90.700
6001.447266 90.646
6044.936523 90.594
6088.740234 90.568
6132.861816 90.555
6177.303223 90.539
6222.066406 90.517
6267.154297 90.495
6312.568359 90.475
6358.312012 90.457
6404.386719 90.442
6450.795898 90.429
6497.541016 90.412
6544.625000 90.396
6592.049805 90.386
6639.818359 90.385
6687.933594 90.387
6736.396973 90.387
6785.211426 90.387
6834.379883 90.387
6883.904785 90.387
6933.788574 90.387
6984.033691 90.386
7034.642578 90.387
7085.618652 90.391
7136.963867 90.397
7188.681152 90.408
7240.773438 90.420
7293.243164 90.421
7346.092773 90.412
7399.325684 90.398
7452.944336 90.383
7506.951172 90.370
7561.350098 90.375
7616.142578 90.378
7671.332031 90.360
7726.921875 90.320
7782.914551 90.268
7839.312500 90.208
7896.119629 90.134
7953.337891 90.044
8010.971191 89.943
8069.021973 89.839
8127.493164 89.730
8186.388672 89.606
8245.710938 89.469
8305.461914 89.328
8365.647461 89.185
8426.267578 89.036
8487.328125 88.885
8548.831055 88.749
8610.779297 88.602
8673.176758 88.416
8736.026367 88.193
8799.331055 87.981
8863.094727 87.837
8927.320312 87.711
8992.010742 87.582
9057.170898 87.442
9122.802734 87.290
9188.910156 87.147
9255.497070 87.019
9322.566406 86.895
9390.121094 86.777
9458.166016 86.674
9526.704102 86.587
9595.738281 86.513
9665.273438 86.449
9735.311523 86.397
9805.857422 86.355
9876.915039 86.328
9948.487305 86.320
10020.578125 86.331
10093.191406 86.366
10166.331055 86.426
10240.000000 86.501
10314.203125 86.585
10388.944336 86.681
10464.226562 86.789
10540.054688 86.912
10616.432617 87.071
10693.363281 87.266
10770.852539 87.466
10848.902344 87.657
10927.517578 87.841
11006.703125 88.020
11086.461914 88.203
11166.798828 88.373
11247.718750 88.523
11329.223633 88.653
11411.320312 88.760
11494.011719 88.831
11577.301758 88.868
11661.195312 88.875
11745.697266 88.853
11830.811523 88.800
11916.542969 88.707
12002.894531 88.584
12089.873047 88.438
12177.480469 88.269
12265.723633 88.080
12354.606445 87.888
12444.132812 87.663
12534.308594 87.384
12625.136719 87.134
12716.624023 86.863
12808.773438 86.617
12901.591797 86.348
12995.082031 86.077
13089.250000 85.812
13184.099609 85.503
13279.636719 85.191
13375.867188 84.921
13472.793945 84.617
13570.422852 84.301
13668.759766 83.999
13767.809570 83.686
13867.577148 83.416
13968.067383 83.133
14069.285156 82.846
14171.237305 82.578
14273.927734 82.320
14377.362305 82.051
14481.546875 81.830
14586.486328 81.604
14692.185547 81.402
14798.651367 81.232
14905.888672 81.044
15013.902344 80.853
15122.700195 80.678
15232.285156 80.512
15342.664062 80.360
15453.843750 80.227
15565.829102 80.083
15678.625000 79.893
15792.239258 79.820
15906.675781 79.768
16021.942383 79.705
16138.043945 79.666
16254.986328 79.677
16372.777344 79.739
16491.421875 79.871
16610.923828 80.108
16731.294922 80.347
16852.535156 80.685
16974.656250 80.924
17097.662109 81.038
17221.558594 81.045
17346.353516 80.907
17472.052734 80.655
17598.662109 80.295
17726.189453 79.837
17854.640625 79.368
17984.021484 78.896
18114.341797 78.402
18245.605469 77.904
18377.820312 77.443
18510.994141 76.879
18645.132812 76.179
18780.242188 75.492
18916.332031 74.794
19053.408203 73.914
19191.476562 73.007
19330.546875 71.988
19470.623047 70.815
19611.714844 69.784
19753.830078 68.904
19896.974609 67.735
