* Measurement data measured by REW V5.20.13
* Source: C:\Users\kurin\Desktop\Targets and Curves\Resolve\Img\Files\5128\Blessing 3_SPL.txt
* Format: Comma/Tab/Space delimited data
* Dated: Aug 15, 2023 1:18:26 AM
* REW Settings:
*  C-weighting compensation: Off
*  Target level: 75.0 dB
* Note: Measurement imported from C:\Users\kurin\Desktop\Targets and Curves\Resolve\Img\Files\5128\Blessing 3_SPL.txt Format: Comma/Tab/Space delimited data 623 values loaded, 5 Hz to 39,792 Hz log spaced
* Measurement: Blessing 3_SPL
* Smoothing: 1/48 octave
* Frequency Step: 1/96 octave
* Start Frequency: 5.000 Hz
*
* Freq(Hz) SPL(dB) Phase(degrees)
5.000000 91.794 -6.2100
5.036232 91.793 -6.2162
5.072727 91.791 -6.2230
5.109486 91.790 -6.2308
5.146511 91.788 -6.2400
5.183805 91.786 -6.2514
5.221369 91.783 -6.2640
5.259205 91.781 -6.2766
5.297316 91.778 -6.2900
5.335702 91.775 -6.3047
5.374367 91.772 -6.3200
5.413311 91.769 -6.3354
5.452538 91.766 -6.3510
5.492050 91.763 -6.3665
5.531847 91.760 -6.3820
5.571934 91.757 -6.3974
5.612310 91.754 -6.4130
5.652979 91.751 -6.4289
5.693943 91.748 -6.4450
5.735204 91.745 -6.4609
5.776763 91.742 -6.4770
5.818624 91.739 -6.4934
5.860788 91.737 -6.5100
5.903258 91.734 -6.5264
5.946035 91.731 -6.5430
5.989123 91.728 -6.5599
6.032523 91.725 -6.5770
6.076237 91.722 -6.5944
6.120268 91.719 -6.6120
6.164618 91.716 -6.6295
6.209289 91.713 -6.6470
6.254284 91.710 -6.6644
6.299605 91.707 -6.6820
6.345255 91.704 -6.6999
6.391235 91.701 -6.7180
6.437549 91.698 -6.7364
6.484198 91.695 -6.7550
6.531185 91.692 -6.7735
6.578513 91.689 -6.7920
6.626183 91.686 -6.8104
6.674199 91.683 -6.8290
6.722563 91.681 -6.8484
6.771278 91.678 -6.8680
6.820345 91.675 -6.8869
6.869768 91.672 -6.9060
6.919549 91.669 -6.9259
6.969691 91.666 -6.9460
7.020196 91.663 -6.9660
7.071068 91.660 -6.9860
7.122308 91.657 -7.0059
7.173919 91.654 -7.0260
7.225904 91.651 -7.0469
7.278266 91.648 -7.0680
7.331007 91.645 -7.0884
7.384131 91.642 -7.1090
7.437639 91.639 -7.1304
7.491535 91.636 -7.1520
7.545822 91.633 -7.1734
7.600502 91.630 -7.1950
7.655579 91.628 -7.2169
7.711054 91.625 -7.2390
7.766932 91.622 -7.2609
7.823214 91.619 -7.2830
7.879904 91.616 -7.3054
7.937005 91.613 -7.3280
7.994520 91.610 -7.3509
8.052452 91.607 -7.3740
8.110803 91.604 -7.3974
8.169578 91.601 -7.4210
8.228777 91.598 -7.4444
8.288406 91.595 -7.4680
8.348468 91.592 -7.4919
8.408964 91.589 -7.5160
8.469899 91.586 -7.5404
8.531276 91.583 -7.5650
8.593097 91.580 -7.5894
8.655366 91.577 -7.6140
8.718086 91.574 -7.6388
8.781260 91.571 -7.6640
8.844893 91.569 -7.6899
8.908987 91.566 -7.7160
8.973545 91.563 -7.7414
9.038571 91.560 -7.7670
9.104069 91.557 -7.7934
9.170040 91.554 -7.8200
9.236490 91.551 -7.8464
9.303422 91.548 -7.8730
9.370838 91.545 -7.9004
9.438744 91.542 -7.9280
9.507140 91.539 -7.9554
9.576033 91.536 -7.9830
9.645425 91.533 -8.0109
9.715320 91.530 -8.0390
9.785721 91.527 -8.0674
9.856632 91.524 -8.0960
9.928058 91.521 -8.1249
10.000000 91.518 -8.1540
10.072464 91.516 -8.1828
10.145453 91.513 -8.2120
10.218971 91.510 -8.2419
10.293022 91.507 -8.2720
10.367610 91.504 -8.3019
10.442738 91.501 -8.3320
10.518411 91.498 -8.3629
10.594631 91.495 -8.3940
10.671404 91.492 -8.4249
10.748734 91.489 -8.4560
10.826623 91.486 -8.4879
10.905077 91.483 -8.5200
10.984100 91.480 -8.5518
11.063695 91.477 -8.5840
11.143867 91.474 -8.6168
11.224621 91.471 -8.6500
11.305959 91.468 -8.6834
11.387886 91.465 -8.7170
11.470407 91.462 -8.7504
11.553527 91.459 -8.7840
11.637249 91.457 -8.8183
11.721577 91.454 -8.8530
11.806517 91.451 -8.8878
11.892071 91.448 -8.9230
11.978246 91.445 -8.9584
12.065045 91.442 -8.9940
12.152473 91.439 -9.0299
12.240536 91.436 -9.0660
12.329235 91.433 -9.1023
12.418578 91.430 -9.1390
12.508568 91.427 -9.1763
12.599211 91.424 -9.2140
12.690510 91.421 -9.2518
12.782471 91.418 -9.2900
12.875097 91.415 -9.3283
12.968395 91.412 -9.3670
13.062370 91.409 -9.4059
13.157025 91.406 -9.4450
13.252366 91.404 -9.4843
13.348398 91.401 -9.5240
13.445127 91.398 -9.5643
13.542556 91.395 -9.6050
13.640691 91.392 -9.6458
13.739536 91.389 -9.6870
13.839099 91.386 -9.7289
13.939383 91.383 -9.7710
14.040393 91.380 -9.8128
14.142136 91.377 -9.8550
14.244616 91.374 -9.8983
14.347837 91.371 -9.9420
14.451808 91.368 -9.9854
14.556532 91.365 -10.0290
14.662014 91.362 -10.0732
14.768262 91.359 -10.1179
14.875278 91.356 -10.1633
14.983070 91.353 -10.2090
15.091644 91.350 -10.2548
15.201005 91.347 -10.3010
15.311157 91.345 -10.3478
15.422109 91.342 -10.3950
15.533863 91.339 -10.4423
15.646428 91.336 -10.4900
15.759809 91.333 -10.5383
15.874010 91.330 -10.5870
15.989040 91.327 -10.6358
16.104904 91.324 -10.6850
16.221605 91.321 -10.7348
16.339155 91.318 -10.7849
16.457554 91.315 -10.8353
16.576813 91.312 -10.8860
16.696936 91.309 -10.9368
16.817928 91.306 -10.9880
16.939798 91.303 -11.0398
17.062551 91.300 -11.0919
17.186193 91.297 -11.1443
17.310732 91.294 -11.1970
17.436172 91.292 -11.2499
17.562521 91.289 -11.3030
17.689787 91.286 -11.3559
17.817974 91.283 -11.4089
17.947090 91.280 -11.4624
18.077143 91.277 -11.5160
18.208138 91.274 -11.5695
18.340080 91.271 -11.6229
18.472980 91.268 -11.6766
18.606844 91.265 -11.7300
18.741676 91.262 -11.7823
18.877487 91.259 -11.8339
19.014280 91.256 -11.8851
19.152065 91.253 -11.9349
19.290850 91.250 -11.9826
19.430639 91.247 -12.0280
19.571442 91.244 -12.0707
19.713264 91.242 -12.1100
19.856115 91.240 -12.1445
20.000000 91.239 -12.1750
20.144928 91.239 -12.2012
20.290907 91.241 -12.2250
20.437943 91.245 -12.2466
20.586044 91.251 -12.2710
20.735220 91.260 -12.3016
20.885475 91.272 -12.3429
21.036821 91.287 -12.3997
21.189262 91.304 -12.4749
21.342808 91.322 -12.5723
21.497467 91.340 -12.6938
21.653246 91.359 -12.8430
21.810154 91.377 -13.0187
21.968201 91.393 -13.2230
22.127390 91.405 -13.4497
22.287735 91.412 -13.6964
22.449242 91.414 -13.9548
22.611917 91.411 -14.2180
22.775772 91.404 -14.4797
22.940815 91.391 -14.7330
23.107054 91.374 -14.9727
23.274498 91.353 -15.1913
23.443153 91.330 -15.3887
23.613033 91.306 -15.5611
23.784142 91.281 -15.7119
23.956491 91.258 -15.8409
24.130091 91.236 -15.9549
24.304947 91.218 -16.0586
24.481071 91.201 -16.1569
24.658470 91.186 -16.2562
24.837156 91.172 -16.3569
25.017136 91.159 -16.4614
25.198421 91.147 -16.5699
25.381020 91.134 -16.6849
25.564941 91.121 -16.8019
25.750195 91.105 -16.9179
25.936790 91.089 -17.0309
26.124741 91.073 -17.1370
26.314051 91.057 -17.2379
26.504732 91.041 -17.3339
26.696796 91.025 -17.4249
26.890253 91.009 -17.5094
27.085112 90.994 -17.5909
27.281382 90.982 -17.6713
27.479073 90.971 -17.7539
27.678198 90.961 -17.8428
27.878765 90.951 -17.9369
28.080786 90.940 -18.0372
28.284271 90.929 -18.1409
28.489231 90.918 -18.2456
28.695675 90.906 -18.3509
28.903616 90.894 -18.4550
29.113064 90.882 -18.5589
29.324028 90.870 -18.6621
29.536524 90.859 -18.7659
29.750557 90.849 -18.8702
29.966141 90.839 -18.9789
30.183289 90.831 -19.0950
30.402010 90.823 -19.2208
30.622314 90.815 -19.3610
30.844217 90.806 -19.5118
31.067726 90.795 -19.6726
31.292856 90.782 -19.8387
31.519617 90.766 -20.0068
31.748020 90.747 -20.1728
31.978081 90.726 -20.3329
32.209808 90.703 -20.4838
32.443211 90.678 -20.6206
32.678310 90.653 -20.7448
32.915108 90.629 -20.8552
33.153625 90.605 -20.9559
33.393871 90.582 -21.0497
33.635857 90.561 -21.1389
33.879597 90.542 -21.2253
34.125103 90.524 -21.3119
34.372387 90.507 -21.4020
34.621464 90.491 -21.4969
34.872345 90.476 -21.5992
35.125042 90.460 -21.7079
35.379574 90.444 -21.8228
35.635948 90.427 -21.9429
35.894180 90.410 -22.0677
36.154285 90.391 -22.1948
36.416275 90.371 -22.3217
36.680161 90.350 -22.4478
36.945961 90.329 -22.5723
37.213688 90.307 -22.6938
37.483353 90.283 -22.8113
37.754974 90.259 -22.9238
38.028561 90.235 -23.0287
38.304131 90.212 -23.1299
38.581699 90.190 -23.2298
38.861279 90.169 -23.3298
39.142883 90.148 -23.4317
39.426529 90.127 -23.5369
39.712231 90.107 -23.6470
40.000000 90.086 -23.7628
40.289856 90.065 -23.8862
40.581814 90.044 -24.0158
40.875885 90.021 -24.1518
41.172089 89.997 -24.2918
41.470440 89.970 -24.4352
41.770950 89.941 -24.5768
42.073643 89.908 -24.7127
42.378525 89.873 -24.8378
42.685616 89.835 -24.9469
42.994934 89.796 -25.0369
43.306492 89.755 -25.1030
43.620308 89.713 -25.1450
43.936401 89.673 -25.1591
44.254780 89.636 -25.1510
44.575470 89.602 -25.1230
44.898483 89.572 -25.0821
45.223835 89.547 -25.0337
45.551544 89.527 -24.9851
45.881630 89.512 -24.9428
46.214108 89.501 -24.9140
46.548996 89.495 -24.9077
46.886307 89.491 -24.9250
47.226067 89.489 -24.9699
47.568283 89.487 -25.0419
47.912983 89.485 -25.1425
48.260181 89.481 -25.2688
48.609894 89.475 -25.4202
48.962143 89.465 -25.5907
49.316940 89.452 -25.7758
49.674313 89.434 -25.9697
50.034271 89.412 -26.1661
50.396843 89.386 -26.3617
50.762039 89.357 -26.5522
51.129883 89.325 -26.7337
51.500389 89.288 -26.9015
51.873581 89.249 -27.0538
52.249481 89.209 -27.1858
52.628101 89.169 -27.3008
53.009464 89.129 -27.4003
53.393593 89.088 -27.4849
53.780506 89.048 -27.5550
54.170223 89.008 -27.6119
54.562763 88.970 -27.6564
54.958145 88.933 -27.6910
55.356396 88.898 -27.7179
55.757530 88.864 -27.7390
56.161572 88.832 -27.7554
56.568542 88.802 -27.7710
56.978462 88.775 -27.7893
57.391350 88.749 -27.8130
57.807232 88.725 -27.8461
58.226128 88.701 -27.8879
58.648056 88.677 -27.9393
59.073048 88.653 -27.9999
59.501114 88.629 -28.0702
59.932281 88.604 -28.1479
60.366577 88.577 -28.2322
60.804020 88.548 -28.3189
61.244629 88.517 -28.4042
61.688435 88.485 -28.4859
62.135452 88.451 -28.5598
62.585712 88.417 -28.6269
63.039234 88.383 -28.6864
63.496040 88.348 -28.7389
63.956161 88.314 -28.7840
64.419617 88.280 -28.8239
64.886421 88.248 -28.8604
65.356621 88.216 -28.8949
65.830215 88.185 -28.9294
66.307251 88.155 -28.9649
66.787743 88.125 -29.0036
67.271713 88.096 -29.0449
67.759193 88.067 -29.0890
68.250206 88.038 -29.1359
68.744774 88.009 -29.1856
69.242928 87.980 -29.2389
69.744690 87.951 -29.2966
70.250084 87.921 -29.3589
70.759148 87.892 -29.4259
71.271896 87.862 -29.4979
71.788361 87.832 -29.5755
72.308571 87.800 -29.6578
72.832550 87.767 -29.7455
73.360321 87.733 -29.8348
73.891922 87.696 -29.9230
74.427376 87.658 -30.0088
74.966705 87.619 -30.0905
75.509949 87.578 -30.1669
76.057121 87.536 -30.2363
76.608261 87.492 -30.2979
77.163399 87.448 -30.3499
77.722557 87.403 -30.3939
78.285767 87.359 -30.4308
78.853058 87.314 -30.4609
79.424461 87.270 -30.4850
80.000000 87.226 -30.5030
80.579712 87.181 -30.5152
81.163628 87.136 -30.5210
81.751770 87.091 -30.5191
82.344177 87.047 -30.5110
82.940880 87.003 -30.4977
83.541901 86.960 -30.4790
84.147285 86.917 -30.4547
84.757050 86.875 -30.4261
85.371231 86.835 -30.3928
85.989868 86.796 -30.3591
86.612984 86.759 -30.3287
87.240616 86.722 -30.3030
87.872803 86.686 -30.2840
88.509560 86.651 -30.2730
89.150940 86.617 -30.2727
89.796967 86.582 -30.2820
90.447670 86.545 -30.3019
91.103088 86.507 -30.3279
91.763260 86.467 -30.3568
92.428215 86.424 -30.3859
93.097992 86.379 -30.4133
93.772614 86.332 -30.4350
94.452133 86.282 -30.4467
95.136566 86.231 -30.4470
95.825966 86.179 -30.4315
96.520363 86.127 -30.4041
97.219788 86.076 -30.3667
97.924286 86.026 -30.3211
98.633881 85.976 -30.2692
99.348625 85.927 -30.2131
100.068542 85.879 -30.1554
100.793686 85.832 -30.0971
101.524078 85.785 -30.0410
102.259766 85.737 -29.9851
103.000778 85.689 -29.9287
103.747162 85.640 -29.8711
104.498962 85.590 -29.8116
105.256203 85.540 -29.7501
106.018929 85.490 -29.6865
106.787186 85.439 -29.6201
107.561012 85.387 -29.5506
108.340446 85.333 -29.4771
109.125526 85.279 -29.3984
109.916290 85.224 -29.3152
110.712791 85.169 -29.2289
111.515060 85.112 -29.1362
112.323143 85.053 -29.0348
113.137085 84.993 -28.9223
113.956924 84.932 -28.7951
114.782700 84.869 -28.6544
115.614464 84.807 -28.5003
116.452255 84.744 -28.3313
117.296112 84.680 -28.1457
118.146095 84.617 -27.9444
119.002228 84.555 -27.7271
119.864563 84.494 -27.4966
120.733154 84.434 -27.2559
121.608040 84.375 -27.0046
122.489258 84.316 -26.7434
123.376869 84.258 -26.4717
124.270905 84.201 -26.1890
125.171425 84.144 -25.8956
126.078468 84.088 -25.5919
126.992081 84.033 -25.2767
127.912323 83.978 -24.9492
128.839233 83.924 -24.6087
129.772842 83.871 -24.2543
130.713242 83.820 -23.8868
131.660431 83.770 -23.5062
132.614502 83.721 -23.1131
133.575485 83.675 -22.7079
134.543427 83.630 -22.2918
135.518387 83.588 -21.8662
136.500412 83.547 -21.4308
137.489548 83.508 -20.9864
138.485855 83.471 -20.5322
139.489380 83.436 -20.0680
140.500168 83.403 -19.5930
141.518295 83.372 -19.1060
142.543793 83.344 -18.6073
143.576721 83.319 -18.0959
144.617142 83.298 -17.5742
145.665100 83.281 -17.0431
146.720642 83.268 -16.5055
147.783844 83.260 -15.9627
148.854752 83.257 -15.4204
149.933411 83.260 -14.8834
151.019897 83.268 -14.3553
152.114243 83.281 -13.8407
153.216522 83.298 -13.3414
154.326797 83.319 -12.8611
155.445114 83.344 -12.3990
156.571533 83.371 -11.9556
157.706116 83.401 -11.5310
158.848923 83.434 -11.1248
160.000000 83.470 -10.7389
161.159424 83.509 -10.3740
162.327255 83.551 -10.0337
163.503540 83.596 -9.7199
164.688354 83.645 -9.4386
165.881760 83.697 -9.1950
167.083801 83.752 -8.9935
168.294571 83.806 -8.8408
169.514099 83.860 -8.7342
170.742462 83.911 -8.6750
171.979736 83.959 -8.6580
173.225967 84.002 -8.6815
174.481232 84.040 -8.7368
175.745605 84.070 -8.8177
177.019119 84.094 -8.9157
178.301880 84.111 -9.0223
179.593933 84.123 -9.1327
180.895340 84.129 -9.2402
182.206177 84.130 -9.3418
183.526520 84.126 -9.4326
184.856430 84.119 -9.5118
186.195984 84.109 -9.5774
187.545227 84.096 -9.6289
188.904266 84.080 -9.6658
190.273132 84.062 -9.6860
191.651932 84.042 -9.6861
193.040726 84.021 -9.6691
194.439575 84.001 -9.6357
195.848572 83.981 -9.5882
197.267761 83.961 -9.5283
198.697250 83.941 -9.4582
200.137085 83.922 -9.3793
201.587372 83.904 -9.2952
203.048157 83.887 -9.2104
204.519531 83.871 -9.1243
206.001556 83.853 -9.0390
207.494324 83.835 -8.9512
208.997925 83.816 -8.8579
210.512405 83.796 -8.7592
212.037857 83.776 -8.6548
213.574371 83.755 -8.5433
215.122025 83.733 -8.4235
216.680893 83.710 -8.2944
218.251053 83.688 -8.1535
219.832581 83.667 -8.0034
221.425583 83.647 -7.8456
223.030121 83.627 -7.6814
224.646286 83.608 -7.5132
226.274170 83.590 -7.3405
227.913849 83.573 -7.1631
229.565399 83.556 -6.9825
231.228928 83.541 -6.7995
232.904510 83.526 -6.6146
234.592224 83.512 -6.4283
236.292191 83.498 -6.2415
238.004456 83.485 -6.0548
239.729126 83.473 -5.8685
241.466309 83.461 -5.6834
243.216080 83.448 -5.4985
244.978516 83.435 -5.3130
246.753738 83.423 -5.1265
248.541809 83.411 -4.9390
250.342850 83.399 -4.7495
252.156937 83.386 -4.5576
253.984161 83.373 -4.3615
255.824646 83.360 -4.1595
257.678467 83.347 -3.9515
259.545685 83.335 -3.7368
261.426483 83.323 -3.5166
263.320862 83.313 -3.2911
265.229004 83.304 -3.0626
267.150970 83.297 -2.8333
269.086853 83.291 -2.6037
271.036774 83.286 -2.3742
273.000824 83.282 -2.1477
274.979095 83.280 -1.9272
276.971710 83.278 -1.7126
278.978760 83.277 -1.5054
281.000336 83.276 -1.3045
283.036591 83.275 -1.1104
285.087585 83.273 -0.9206
287.153442 83.270 -0.7337
289.234283 83.265 -0.5465
291.330200 83.260 -0.3553
293.441284 83.254 -0.1605
295.567688 83.249 0.0382
297.709503 83.243 0.2415
299.866821 83.237 0.4502
302.039795 83.231 0.6634
304.228485 83.227 0.8813
306.433044 83.224 1.1014
308.653595 83.222 1.3213
310.890228 83.220 1.5404
313.143066 83.219 1.7570
315.412231 83.219 1.9714
317.697845 83.219 2.1834
320.000000 83.219 2.3934
322.318848 83.219 2.6014
324.654510 83.219 2.8083
327.007080 83.219 3.0151
329.376709 83.219 3.2214
331.763519 83.219 3.4269
334.167603 83.219 3.6323
336.589142 83.219 3.8383
339.028198 83.219 4.0444
341.484924 83.219 4.2502
343.959473 83.219 4.4564
346.451935 83.219 4.6636
348.962463 83.219 4.8714
351.491211 83.219 5.0795
354.038239 83.219 5.2884
356.603760 83.219 5.4988
359.187866 83.219 5.7104
361.790680 83.219 5.9228
364.412354 83.219 6.1364
367.053040 83.219 6.3511
369.712860 83.219 6.5673
372.391968 83.219 6.7855
375.090454 83.219 7.0054
377.808533 83.219 7.2268
380.546265 83.219 7.4503
383.303864 83.219 7.6766
386.081451 83.219 7.9053
388.879150 83.219 8.1362
391.697144 83.219 8.3703
394.535522 83.219 8.6087
397.394501 83.219 8.8513
400.274170 83.219 9.0986
403.174744 83.220 9.3502
406.096313 83.222 9.6066
409.039062 83.224 9.8662
412.003113 83.227 10.1280
414.988647 83.231 10.3902
417.995850 83.237 10.6500
421.024811 83.243 10.9082
424.075714 83.249 11.1644
427.148743 83.254 11.4192
430.244049 83.260 11.6724
433.361786 83.265 11.9252
436.502106 83.269 12.1775
439.665161 83.273 12.4332
442.851166 83.275 12.6956
446.060242 83.276 12.9661
449.292572 83.277 13.2471
452.548340 83.278 13.5391
455.827698 83.280 13.8442
459.130798 83.282 14.1610
462.457855 83.286 14.4891
465.809021 83.291 14.8269
469.184448 83.298 15.1727
472.584381 83.306 15.5259
476.008911 83.316 15.8861
479.458252 83.329 16.2508
482.932617 83.344 16.6176
486.432159 83.361 16.9858
489.957031 83.379 17.3535
493.507477 83.399 17.7229
497.083618 83.419 18.0962
500.685699 83.441 18.4718
504.313873 83.466 18.8492
507.968323 83.493 19.2268
511.649292 83.522 19.6018
515.356934 83.553 19.9758
519.091370 83.585 20.3504
522.852966 83.620 20.7228
526.641724 83.658 21.0914
530.458008 83.698 21.4538
534.301941 83.741 21.8072
538.173706 83.786 22.1509
542.073547 83.832 22.4840
546.001648 83.881 22.8049
549.958191 83.932 23.1120
553.943420 83.984 23.4041
557.957520 84.037 23.6792
562.000671 84.091 23.9382
566.073181 84.145 24.1805
570.175171 84.199 24.4083
574.306885 84.252 24.6227
578.468567 84.305 24.8253
582.660400 84.357 25.0181
586.882568 84.409 25.2014
591.135376 84.461 25.3762
595.419006 84.512 25.5424
599.733643 84.562 25.7005
604.079590 84.612 25.8505
608.456970 84.662 25.9928
612.866089 84.711 26.1276
617.307190 84.759 26.2544
621.780457 84.807 26.3746
626.286133 84.853 26.4886
630.824463 84.898 26.5986
635.395691 84.941 26.7070
640.000000 84.984 26.8136
644.637695 85.026 26.9196
649.309021 85.068 27.0246
654.014160 85.109 27.1280
658.753418 85.149 27.2316
663.527039 85.188 27.3368
668.335205 85.226 27.4446
673.178284 85.264 27.5567
678.056396 85.301 27.6726
682.969849 85.338 27.7925
687.918945 85.375 27.9166
692.903870 85.412 28.0449
697.924927 85.449 28.1785
702.982422 85.486 28.3194
708.076477 85.524 28.4655
713.207520 85.564 28.6166
718.375732 85.605 28.7695
723.581360 85.648 28.9204
728.824707 85.693 29.0695
734.106079 85.737 29.2156
739.425720 85.783 29.3585
744.783936 85.830 29.4983
750.180908 85.879 29.6325
755.617065 85.928 29.7591
761.092529 85.979 29.8776
766.607727 86.030 29.9867
772.162903 86.081 30.0877
777.758301 86.131 30.1806
783.394287 86.181 30.2667
789.071045 86.230 30.3472
794.789001 86.280 30.4227
800.548340 86.329 30.4939
806.349487 86.378 30.5618
812.192627 86.426 30.6274
818.078125 86.473 30.6918
824.006226 86.520 30.7566
829.977295 86.567 30.8208
835.991699 86.615 30.8838
842.049622 86.663 30.9448
848.151428 86.711 31.0021
854.297485 86.759 31.0568
860.488098 86.807 31.1099
866.723572 86.855 31.1598
873.004211 86.903 31.2043
879.330322 86.951 31.2459
885.702332 86.998 31.2854
892.120483 87.044 31.3249
898.585144 87.090 31.3666
905.096680 87.136 31.4098
911.655396 87.182 31.4547
918.261597 87.229 31.5008
924.915710 87.276 31.5482
931.618042 87.323 31.5958
938.368896 87.371 31.6430
945.168762 87.420 31.6888
952.017822 87.469 31.7321
958.916504 87.519 31.7729
965.865234 87.569 31.8107
972.864319 87.620 31.8459
979.914062 87.671 31.8789
987.014954 87.722 31.9089
994.167236 87.773 31.9348
1001.371399 87.825 31.9579
1008.627747 87.877 31.9793
1015.936646 87.929 31.9979
1023.298584 87.982 32.0138
1030.713867 88.036 32.0250
1038.182739 88.090 32.0292
1045.705933 88.144 32.0280
1053.283447 88.197 32.0219
1060.916016 88.251 32.0121
1068.603882 88.304 31.9999
1076.347412 88.357 31.9851
1084.147095 88.410 31.9678
1092.003296 88.464 31.9481
1099.916382 88.517 31.9259
1107.886841 88.571 31.9011
1115.915039 88.625 31.8740
1124.001343 88.679 31.8431
1132.146362 88.734 31.8068
1140.350342 88.789 31.7662
1148.613770 88.842 31.7220
1156.937134 88.896 31.6742
1165.320801 88.950 31.6230
1173.765137 89.005 31.5683
1182.270752 89.058 31.5096
1190.838013 89.112 31.4483
1199.467285 89.165 31.3858
1208.159180 89.219 31.3213
1216.913940 89.272 31.2549
1225.732178 89.326 31.1853
1234.614380 89.380 31.1102
1243.560913 89.434 31.0323
1252.572266 89.486 30.9539
1261.648926 89.538 30.8743
1270.791382 89.591 30.7939
1280.000000 89.645 30.7113
1289.275391 89.698 30.6247
1298.618042 89.752 30.5354
1308.028320 89.805 30.4443
1317.506836 89.858 30.3504
1327.054077 89.912 30.2529
1336.670410 89.966 30.1514
1346.356567 90.019 30.0445
1356.112793 90.072 29.9344
1365.939697 90.123 29.8229
1375.837891 90.175 29.7105
1385.807739 90.226 29.5982
1395.849854 90.278 29.4854
1405.964844 90.329 29.3716
1416.152954 90.380 29.2574
1426.415039 90.431 29.1433
1436.751465 90.482 29.0294
1447.162720 90.532 28.9161
1457.649414 90.583 28.8035
1468.212158 90.634 28.6922
1478.851440 90.685 28.5814
1489.567871 90.736 28.4700
1500.361816 90.788 28.3584
1511.234131 90.840 28.2472
1522.185059 90.892 28.1355
1533.215454 90.945 28.0231
1544.325806 90.999 27.9085
1555.516602 91.053 27.7900
1566.788574 91.107 27.6685
1578.142090 91.161 27.5441
1589.578003 91.215 27.4185
1601.096680 91.268 27.2938
1612.698975 91.321 27.1695
1624.385254 91.375 27.0455
1636.156250 91.429 26.9225
1648.012451 91.483 26.8010
1659.954590 91.537 26.6814
1671.983398 91.592 26.5653
1684.099243 91.648 26.4505
1696.302856 91.704 26.3356
1708.594971 91.762 26.2205
1720.976196 91.820 26.1047
1733.447144 91.880 25.9875
1746.008423 91.941 25.8684
1758.660645 92.003 25.7465
1771.404663 92.065 25.6206
1784.240967 92.128 25.4915
1797.170288 92.191 25.3597
1810.193359 92.256 25.2255
1823.310791 92.320 25.0893
1836.523193 92.386 24.9515
1849.831421 92.452 24.8129
1863.236084 92.519 24.6736
1876.737793 92.587 24.5342
1890.337524 92.656 24.3946
1904.035645 92.726 24.2561
1917.833008 92.798 24.1156
1931.730469 92.873 23.9710
1945.728638 92.950 23.8207
1959.828125 93.028 23.6622
1974.029907 93.108 23.4957
1988.334473 93.189 23.3209
2002.742798 93.272 23.1368
2017.255493 93.356 22.9422
2031.873291 93.441 22.7378
2046.597168 93.527 22.5241
2061.427734 93.614 22.3010
2076.365479 93.702 22.0688
2091.411865 93.793 21.8270
2106.566895 93.883 21.5753
2121.832031 93.976 21.3131
2137.207764 94.069 21.0408
2152.694824 94.165 20.7562
2168.294189 94.262 20.4568
2184.006592 94.361 20.1435
2199.832764 94.459 19.8160
2215.773682 94.559 19.4744
2231.830078 94.660 19.1199
2248.002686 94.764 18.7496
2264.292725 94.868 18.3604
2280.700684 94.974 17.9538
2297.227539 95.079 17.5309
2313.874268 95.186 17.0898
2330.641602 95.295 16.6301
2347.530273 95.406 16.1491
2364.541504 95.516 15.6437
2381.676025 95.627 15.1145
2398.934570 95.739 14.5613
2416.318359 95.851 13.9837
2433.827881 95.964 13.3807
2451.464355 96.076 12.7527
2469.228760 96.187 12.1004
2487.121826 96.299 11.4220
2505.144531 96.411 10.7164
2523.297852 96.522 9.9824
2541.582764 96.633 9.2181
2560.000000 96.743 8.4246
2578.550781 96.850 7.6030
2597.236084 96.957 6.7520
2616.056641 97.061 5.8705
2635.013672 97.165 4.9589
2654.108154 97.265 4.0167
2673.340820 97.364 3.0453
2692.713135 97.458 2.0456
2712.225586 97.550 1.0189
2731.879395 97.637 -0.0332
2751.675781 97.722 -1.1110
2771.615479 97.803 -2.2142
2791.699707 97.881 -3.3429
2811.929688 97.954 -4.4983
2832.305908 98.023 -5.6774
2852.830078 98.086 -6.8781
2873.502930 98.144 -8.0996
2894.325439 98.197 -9.3413
2915.298828 98.245 -10.6002
2936.424316 98.287 -11.8750
2957.702881 98.322 -13.1614
2979.135742 98.350 -14.4553
3000.723633 98.372 -15.7553
3022.468262 98.389 -17.0593
3044.370117 98.400 -18.3650
3066.430908 98.404 -19.6709
3088.651611 98.402 -20.9742
3111.033203 98.394 -22.2714
3133.577148 98.381 -23.5629
3156.284180 98.363 -24.8484
3179.156006 98.339 -26.1259
3202.193359 98.309 -27.3945
3225.397949 98.272 -28.6501
3248.770508 98.230 -29.8890
3272.312500 98.181 -31.1086
3296.024902 98.128 -32.3058
3319.909180 98.069 -33.4786
3343.966797 98.006 -34.6247
3368.198486 97.938 -35.7418
3392.605713 97.866 -36.8265
3417.189941 97.790 -37.8792
3441.952393 97.712 -38.8988
3466.894287 97.632 -39.8856
3492.016846 97.550 -40.8399
3517.321289 97.466 -41.7618
3542.809326 97.381 -42.6512
3568.481934 97.295 -43.5091
3594.340576 97.209 -44.3363
3620.386719 97.122 -45.1333
3646.621582 97.037 -45.9002
3673.046387 96.951 -46.6395
3699.662842 96.867 -47.3530
3726.472168 96.784 -48.0429
3753.475586 96.703 -48.7115
3780.675049 96.623 -49.3601
3808.071289 96.545 -49.9901
3835.666016 96.467 -50.6031
3863.460938 96.392 -51.2012
3891.457275 96.318 -51.7843
3919.656250 96.245 -52.3532
3948.059814 96.173 -52.9075
3976.668945 96.104 -53.4467
4005.485596 96.035 -53.9715
4034.510986 95.968 -54.4819
4063.746582 95.903 -54.9797
4093.194336 95.841 -55.4653
4122.855469 95.781 -55.9417
4152.730957 95.724 -56.4113
4182.823730 95.670 -56.8758
4213.133789 95.619 -57.3377
4243.664062 95.570 -57.7978
4274.415527 95.523 -58.2575
4305.389648 95.478 -58.7178
4336.588379 95.435 -59.1797
4368.013184 95.394 -59.6438
4399.665527 95.355 -60.1107
4431.547363 95.317 -60.5807
4463.660156 95.281 -61.0541
4496.005371 95.246 -61.5316
4528.585449 95.213 -62.0138
4561.401367 95.181 -62.5007
4594.455078 95.151 -62.9926
4627.748535 95.121 -63.4896
4661.283203 95.093 -63.9917
4695.060547 95.065 -64.4985
4729.083008 95.038 -65.0097
4763.352051 95.012 -65.5255
4797.869141 94.988 -66.0460
4832.636719 94.964 -66.5714
4867.655762 94.941 -67.1025
4902.928711 94.918 -67.6374
4938.457520 94.896 -68.1743
4974.243652 94.874 -68.7124
5010.289062 94.854 -69.2511
5046.595703 94.834 -69.7883
5083.165527 94.816 -70.3226
5120.000000 94.799 -70.8514
5157.101562 94.784 -71.3706
5194.472168 94.772 -71.8835
5232.113281 94.767 -72.3891
5270.027344 94.768 -72.8964
5308.216309 94.777 -73.4103
5346.681641 94.794 -73.9423
5385.426270 94.821 -74.4996
5424.451172 94.858 -75.0999
5463.758789 94.907 -75.7573
5503.351562 94.966 -76.4902
5543.230957 95.033 -77.3169
5583.399414 95.106 -78.2521
5623.859375 95.183 -79.3144
5664.611816 95.260 -80.5098
5705.660156 95.332 -81.8526
5747.005859 95.396 -83.3360
5788.650879 95.444 -84.9644
5830.597656 95.475 -86.7177
5872.848633 95.483 -88.5872
5915.405762 95.465 -90.5417
5958.271484 95.418 -92.5592
6001.447266 95.340 -94.6034
6044.936523 95.230 -96.6428
6088.740234 95.088 -98.6421
6132.861816 94.914 -100.5644
6177.303223 94.712 -102.3832
6222.066406 94.484 -104.0640
6267.154297 94.234 -105.5937
6312.568359 93.966 -106.9497
6358.312012 93.683 -108.1266
6404.386719 93.392 -109.1094
6450.795898 93.096 -109.9044
6497.541016 92.800 -110.5081
6544.625000 92.510 -110.9343
6592.049805 92.230 -111.1896
6639.818359 91.962 -111.2918
6687.933594 91.711 -111.2526
6736.396973 91.480 -111.0971
6785.211426 91.273 -110.8453
6834.379883 91.090 -110.5238
6883.904785 90.932 -110.1578
6933.788574 90.801 -109.7710
6984.033691 90.695 -109.3883
7034.642578 90.614 -109.0307
7085.618652 90.556 -108.7229
7136.963867 90.517 -108.4790
7188.681152 90.496 -108.3194
7240.773438 90.489 -108.2501
7293.243164 90.493 -108.2834
7346.092773 90.505 -108.4210
7399.325684 90.521 -108.6695
7452.944336 90.540 -109.0259
7506.951172 90.558 -109.4922
7561.350098 90.573 -110.0608
7616.142578 90.582 -110.7290
7671.332031 90.582 -111.4849
7726.921875 90.572 -112.3212
7782.914551 90.550 -113.2212
7839.312500 90.513 -114.1719
7896.119629 90.462 -115.1557
7953.337891 90.396 -116.1560
8010.971191 90.314 -117.1577
8069.021973 90.218 -118.1449
8127.493164 90.109 -119.1040
8186.388672 89.985 -120.0197
8245.710938 89.850 -120.8816
8305.461914 89.704 -121.6767
8365.647461 89.549 -122.3984
8426.267578 89.388 -123.0365
8487.328125 89.222 -123.5893
8548.831055 89.053 -124.0522
8610.779297 88.883 -124.4243
8673.176758 88.714 -124.7016
8736.026367 88.548 -124.8882
8799.331055 88.387 -124.9843
8863.094727 88.235 -124.9981
8927.320312 88.093 -124.9353
8992.010742 87.962 -124.8039
9057.170898 87.842 -124.6109
9122.802734 87.737 -124.3654
9188.910156 87.646 -124.0750
9255.497070 87.572 -123.7508
9322.566406 87.515 -123.4027
9390.121094 87.476 -123.0419
9458.166016 87.456 -122.6780
9526.704102 87.455 -122.3268
9595.738281 87.475 -122.0018
9665.273438 87.516 -121.7194
9735.311523 87.576 -121.4948
9805.857422 87.656 -121.3446
9876.915039 87.754 -121.2848
9948.487305 87.868 -121.3314
10020.578125 87.998 -121.5022
10093.191406 88.140 -121.8080
10166.331055 88.292 -122.2632
10240.000000 88.449 -122.8743
10314.203125 88.610 -123.6537
10388.944336 88.770 -124.5981
10464.226562 88.925 -125.7112
10540.054688 89.071 -126.9840
10616.432617 89.206 -128.4143
10693.363281 89.327 -129.9862
10770.852539 89.431 -131.6906
10848.902344 89.517 -133.5059
10927.517578 89.580 -135.4144
11006.703125 89.623 -137.3961
11086.461914 89.644 -139.4306
11166.798828 89.643 -141.5004
11247.718750 89.621 -143.5860
11329.223633 89.579 -145.6733
11411.320312 89.519 -147.7437
11494.011719 89.441 -149.7920
11577.301758 89.349 -151.8074
11661.195312 89.244 -153.7881
11745.697266 89.126 -155.7283
11830.811523 88.998 -157.6288
11916.542969 88.860 -159.4877
12002.894531 88.715 -161.3070
12089.873047 88.562 -163.0876
12177.480469 88.403 -164.8312
12265.723633 88.237 -166.5417
12354.606445 88.064 -168.2141
12444.132812 87.883 -169.8454
12534.308594 87.696 -171.4335
12625.136719 87.504 -172.9739
12716.624023 87.308 -174.4702
12808.773438 87.109 -175.9230
12901.591797 86.908 -177.3371
12995.082031 86.706 -178.7151
13089.250000 86.502 179.9357
13184.099609 86.298 178.6089
13279.636719 86.093 177.2997
13375.867188 85.888 176.0006
13472.793945 85.679 174.7143
13570.422852 85.466 173.4376
13668.759766 85.246 172.1804
13767.809570 85.020 170.9465
13867.577148 84.786 169.7508
13968.067383 84.544 168.6053
14069.285156 84.294 167.5220
14171.237305 84.038 166.5144
14273.927734 83.777 165.5897
14377.362305 83.514 164.7604
14481.546875 83.252 164.0226
14586.486328 82.995 163.3812
14692.185547 82.745 162.8220
14798.651367 82.507 162.3389
14905.888672 82.282 161.9133
15013.902344 82.073 161.5325
15122.700195 81.882 161.1730
15232.285156 81.711 160.8146
15342.664062 81.558 160.4344
15453.843750 81.423 160.0081
15565.829102 81.305 159.5198
15678.625000 81.201 158.9504
15792.239258 81.108 158.2869
15906.675781 81.026 157.5114
16021.942383 80.950 156.6191
16138.043945 80.876 155.5979
16254.986328 80.801 154.4520
16372.777344 80.722 153.1792
16491.421875 80.635 151.7870
16610.923828 80.538 150.2786
16731.294922 80.429 148.6656
16852.535156 80.304 146.9569
16974.656250 80.162 145.1661
17097.662109 80.002 143.3079
17221.558594 79.824 141.3888
17346.353516 79.628 139.4187
17472.052734 79.412 137.4014
17598.662109 79.176 135.3410
17726.189453 78.918 133.2462
17854.640625 78.636 131.1212
17984.021484 78.327 128.9839
18114.341797 77.990 126.8351
18245.605469 77.618 124.7298
18377.820312 77.204 122.6974
18510.994141 76.748 120.8163
18645.132812 76.246 119.1514
18780.242188 75.703 117.7745
18916.332031 75.115 116.7720
19053.408203 74.499 116.1662
19191.476562 73.862 116.0301
19330.546875 73.225 116.2985
19470.623047 72.609 116.9575
19611.714844 72.024 117.9228
19753.830078 71.489 119.1360
19896.974609 71.011 120.5054
