* Measurement data measured by REW V5.20.13
* Source: C:\Users\kurin\Desktop\Targets and Curves\Resolve\Img\Files\Soft_Ears_Studio_4_SPL.txt
* Format: Comma/Tab/Space delimited data
* Dated: Aug 15, 2023 12:38:59 AM
* REW Settings:
*  C-weighting compensation: Off
*  Target level: 75.0 dB
* Note: ; Measurement imported from C:\Users\kurin\Desktop\Targets and Curves\Resolve\Img\Files\Soft_Ears_Studio_4_SPL.txt Format: Comma/Tab/Space delimited data 623 values loaded, 5 Hz to 39,792 Hz log spaced 
* Measurement: Soft_Ears_Studio_4_SPL
* Smoothing: 1/48 octave
* Frequency Step: 1/96 octave
* Start Frequency: 5.000 Hz
*
* Freq(Hz) SPL(dB) Phase(degrees)
5.000000 86.212 -0.7410
5.036232 86.212 -0.7424
5.072727 86.212 -0.7440
5.109486 86.212 -0.7463
5.146511 86.212 -0.7490
5.183805 86.212 -0.7519
5.221369 86.211 -0.7550
5.259205 86.211 -0.7584
5.297316 86.211 -0.7620
5.335702 86.211 -0.7654
5.374367 86.211 -0.7690
5.413311 86.211 -0.7729
5.452538 86.211 -0.7770
5.492050 86.211 -0.7810
5.531847 86.210 -0.7850
5.571934 86.210 -0.7890
5.612310 86.210 -0.7930
5.652979 86.210 -0.7969
5.693943 86.210 -0.8010
5.735204 86.210 -0.8055
5.776763 86.209 -0.8100
5.818624 86.209 -0.8141
5.860788 86.209 -0.8180
5.903258 86.209 -0.8219
5.946035 86.209 -0.8260
5.989123 86.209 -0.8304
6.032523 86.208 -0.8350
6.076237 86.208 -0.8395
6.120268 86.208 -0.8440
6.164618 86.208 -0.8485
6.209289 86.208 -0.8530
6.254284 86.208 -0.8575
6.299605 86.207 -0.8620
6.345255 86.207 -0.8665
6.391235 86.207 -0.8710
6.437549 86.207 -0.8754
6.484198 86.207 -0.8800
6.531185 86.207 -0.8850
6.578513 86.206 -0.8900
6.626183 86.206 -0.8945
6.674199 86.206 -0.8990
6.722563 86.206 -0.9039
6.771278 86.206 -0.9090
6.820345 86.206 -0.9140
6.869768 86.205 -0.9190
6.919549 86.205 -0.9240
6.969691 86.205 -0.9290
7.020196 86.205 -0.9340
7.071068 86.205 -0.9390
7.122308 86.205 -0.9440
7.173919 86.204 -0.9490
7.225904 86.204 -0.9539
7.278266 86.204 -0.9590
7.331007 86.204 -0.9644
7.384131 86.204 -0.9700
7.437639 86.204 -0.9755
7.491535 86.204 -0.9810
7.545822 86.204 -0.9865
7.600502 86.203 -0.9920
7.655579 86.203 -0.9975
7.711054 86.203 -1.0030
7.766932 86.203 -1.0085
7.823214 86.203 -1.0140
7.879904 86.203 -1.0194
7.937005 86.202 -1.0250
7.994520 86.202 -1.0310
8.052452 86.202 -1.0370
8.110803 86.202 -1.0425
8.169578 86.202 -1.0480
8.228777 86.201 -1.0539
8.288406 86.201 -1.0600
8.348468 86.201 -1.0660
8.408964 86.201 -1.0720
8.469899 86.201 -1.0779
8.531276 86.201 -1.0840
8.593097 86.201 -1.0905
8.655366 86.200 -1.0970
8.718086 86.200 -1.1030
8.781260 86.200 -1.1090
8.844893 86.200 -1.1154
8.908987 86.200 -1.1220
8.973545 86.200 -1.1285
9.038571 86.199 -1.1350
9.104069 86.199 -1.1414
9.170040 86.199 -1.1480
9.236490 86.199 -1.1550
9.303422 86.199 -1.1620
9.370838 86.199 -1.1685
9.438744 86.198 -1.1750
9.507140 86.198 -1.1819
9.576033 86.198 -1.1890
9.645425 86.198 -1.1960
9.715320 86.198 -1.2030
9.785721 86.198 -1.2100
9.856632 86.197 -1.2170
9.928058 86.197 -1.2239
10.000000 86.197 -1.2310
10.072464 86.197 -1.2384
10.145453 86.197 -1.2460
10.218971 86.197 -1.2535
10.293022 86.196 -1.2610
10.367610 86.196 -1.2685
10.442738 86.196 -1.2760
10.518411 86.196 -1.2835
10.594631 86.196 -1.2910
10.671404 86.196 -1.2984
10.748734 86.196 -1.3060
10.826623 86.196 -1.3139
10.905077 86.195 -1.3220
10.984100 86.195 -1.3300
11.063695 86.195 -1.3380
11.143867 86.195 -1.3459
11.224621 86.195 -1.3540
11.305959 86.195 -1.3625
11.387886 86.194 -1.3710
11.470407 86.194 -1.3790
11.553527 86.194 -1.3870
11.637249 86.194 -1.3954
11.721577 86.194 -1.4040
11.806517 86.194 -1.4130
11.892071 86.193 -1.4220
11.978246 86.193 -1.4305
12.065045 86.193 -1.4390
12.152473 86.193 -1.4479
12.240536 86.193 -1.4570
12.329235 86.193 -1.4660
12.418578 86.192 -1.4750
12.508568 86.192 -1.4839
12.599211 86.192 -1.4930
12.690510 86.192 -1.5024
12.782471 86.192 -1.5120
12.875097 86.192 -1.5214
12.968395 86.191 -1.5310
13.062370 86.191 -1.5410
13.157025 86.191 -1.5510
13.252366 86.191 -1.5605
13.348398 86.191 -1.5700
13.445127 86.191 -1.5799
13.542556 86.190 -1.5900
13.640691 86.190 -1.6004
13.739536 86.190 -1.6110
13.839099 86.190 -1.6215
13.939383 86.190 -1.6320
14.040393 86.190 -1.6424
14.142136 86.189 -1.6530
14.244616 86.189 -1.6639
14.347837 86.189 -1.6750
14.451808 86.189 -1.6859
14.556532 86.189 -1.6970
14.662014 86.189 -1.7084
14.768262 86.189 -1.7200
14.875278 86.189 -1.7314
14.983070 86.188 -1.7430
15.091644 86.188 -1.7554
15.201005 86.188 -1.7680
15.311157 86.188 -1.7805
15.422109 86.188 -1.7930
15.533863 86.188 -1.8054
15.646428 86.187 -1.8180
15.759809 86.187 -1.8314
15.874010 86.187 -1.8450
15.989040 86.187 -1.8584
16.104904 86.187 -1.8720
16.221605 86.187 -1.8863
16.339155 86.186 -1.9010
16.457554 86.186 -1.9159
16.576813 86.186 -1.9310
16.696936 86.186 -1.9464
16.817928 86.186 -1.9620
16.939798 86.186 -1.9777
17.062551 86.185 -1.9940
17.186193 86.185 -2.0112
17.310732 86.185 -2.0290
17.436172 86.185 -2.0471
17.562521 86.185 -2.0660
17.689787 86.185 -2.0860
17.817974 86.184 -2.1070
17.947090 86.184 -2.1285
18.077143 86.184 -2.1510
18.208138 86.184 -2.1747
18.340080 86.184 -2.2000
18.472980 86.184 -2.2273
18.606844 86.183 -2.2570
18.741676 86.183 -2.2890
18.877487 86.183 -2.3250
19.014280 86.183 -2.3660
19.152065 86.183 -2.4129
19.290850 86.182 -2.4670
19.430639 86.180 -2.5280
19.571442 86.176 -2.5976
19.713264 86.170 -2.6709
19.856115 86.160 -2.7469
20.000000 86.147 -2.8159
20.144928 86.129 -2.8698
20.290907 86.108 -2.9040
20.437943 86.086 -2.9109
20.586044 86.063 -2.8920
20.735220 86.041 -2.8452
20.885475 86.020 -2.7741
21.036821 86.002 -2.6784
21.189262 85.988 -2.5681
21.342808 85.980 -2.4512
21.497467 85.976 -2.3341
21.653246 85.975 -2.2264
21.810154 85.977 -2.1281
21.968201 85.980 -2.0447
22.127390 85.982 -1.9701
22.287735 85.983 -1.9025
22.449242 85.982 -1.8341
22.611917 85.980 -1.7568
22.775772 85.977 -1.6691
22.940815 85.975 -1.5650
23.107054 85.976 -1.4492
23.274498 85.980 -1.3217
23.443153 85.987 -1.1912
23.613033 86.000 -1.0636
23.784142 86.017 -0.9461
23.956491 86.037 -0.8480
24.130091 86.060 -0.7691
24.304947 86.083 -0.7132
24.481071 86.106 -0.6770
24.658470 86.128 -0.6609
24.837156 86.148 -0.6580
25.017136 86.165 -0.6637
25.198421 86.180 -0.6720
25.381020 86.194 -0.6748
25.564941 86.207 -0.6730
25.750195 86.221 -0.6631
25.936790 86.236 -0.6500
26.124741 86.254 -0.6353
26.314051 86.275 -0.6260
26.504732 86.298 -0.6286
26.696796 86.323 -0.6460
26.890253 86.349 -0.6842
27.085112 86.375 -0.7399
27.281382 86.399 -0.8121
27.479073 86.423 -0.8999
27.678198 86.446 -1.0025
27.878765 86.467 -1.1178
28.080786 86.486 -1.2448
28.284271 86.503 -1.3798
28.489231 86.518 -1.5182
28.695675 86.531 -1.6618
28.903616 86.544 -1.8105
29.113064 86.556 -1.9648
29.324028 86.565 -2.1263
29.536524 86.572 -2.2918
29.750557 86.577 -2.4593
29.966141 86.579 -2.6268
30.183289 86.579 -2.7921
30.402010 86.577 -2.9538
30.622314 86.572 -3.1106
30.844217 86.565 -3.2608
31.067726 86.557 -3.4037
31.292856 86.546 -3.5358
31.519617 86.532 -3.6552
31.748020 86.516 -3.7569
31.978081 86.499 -3.8360
32.209808 86.480 -3.8899
32.443211 86.461 -3.9143
32.678310 86.442 -3.9090
32.915108 86.426 -3.8696
33.153625 86.414 -3.8051
33.393871 86.409 -3.7179
33.635857 86.411 -3.6231
33.879597 86.422 -3.5330
34.125103 86.439 -3.4581
34.372387 86.462 -3.4119
34.621464 86.489 -3.3980
34.872345 86.519 -3.4261
35.125042 86.549 -3.4919
35.379574 86.576 -3.5979
35.635948 86.601 -3.7338
35.894180 86.621 -3.8930
36.154285 86.637 -4.0667
36.416275 86.648 -4.2454
36.680161 86.656 -4.4257
36.945961 86.661 -4.6015
37.213688 86.664 -4.7727
37.483353 86.665 -4.9369
37.754974 86.666 -5.0958
38.028561 86.667 -5.2494
38.304131 86.667 -5.3998
38.581699 86.667 -5.5482
38.861279 86.667 -5.6968
39.142883 86.667 -5.8478
39.426529 86.667 -6.0018
39.712231 86.666 -6.1599
40.000000 86.664 -6.3218
40.289856 86.661 -6.4885
40.581814 86.657 -6.6568
40.875885 86.650 -6.8251
41.172089 86.641 -6.9888
41.470440 86.630 -7.1418
41.770950 86.618 -7.2858
42.073643 86.607 -7.4202
42.378525 86.595 -7.5458
42.685616 86.583 -7.6623
42.994934 86.572 -7.7718
43.306492 86.562 -7.8742
43.620308 86.554 -7.9758
43.936401 86.549 -8.0828
44.254780 86.544 -8.1958
44.575470 86.539 -8.3180
44.898483 86.533 -8.4478
45.223835 86.527 -8.5846
45.551544 86.520 -8.7278
45.881630 86.512 -8.8775
46.214108 86.502 -9.0308
46.548996 86.490 -9.1866
46.886307 86.476 -9.3398
47.226067 86.459 -9.4848
47.568283 86.440 -9.6208
47.912983 86.421 -9.7440
48.260181 86.402 -9.8568
48.609894 86.383 -9.9600
48.962143 86.364 -10.0549
49.316940 86.346 -10.1418
49.674313 86.329 -10.2239
50.034271 86.314 -10.3029
50.396843 86.300 -10.3829
50.762039 86.287 -10.4686
51.129883 86.275 -10.5598
51.500389 86.262 -10.6598
51.873581 86.248 -10.7628
52.249481 86.231 -10.8659
52.628101 86.213 -10.9648
53.009464 86.194 -11.0544
53.393593 86.174 -11.1349
53.780506 86.155 -11.2037
54.170223 86.136 -11.2639
54.562763 86.119 -11.3162
54.958145 86.103 -11.3649
55.356396 86.090 -11.4129
55.757530 86.078 -11.4649
56.161572 86.069 -11.5260
56.568542 86.061 -11.5979
56.978462 86.053 -11.6851
57.391350 86.044 -11.7838
57.807232 86.033 -11.8927
58.226128 86.020 -12.0088
58.648056 86.007 -12.1298
59.073048 85.991 -12.2518
59.501114 85.972 -12.3715
59.932281 85.950 -12.4848
60.366577 85.927 -12.5857
60.804020 85.904 -12.6769
61.244629 85.881 -12.7579
61.688435 85.859 -12.8319
62.135452 85.838 -12.9018
62.585712 85.817 -12.9679
63.039234 85.796 -13.0300
63.496040 85.776 -13.0919
63.956161 85.758 -13.1576
64.419617 85.740 -13.2259
64.886421 85.720 -13.2980
65.356621 85.699 -13.3709
65.830215 85.678 -13.4417
66.307251 85.657 -13.5109
66.787743 85.635 -13.5782
67.271713 85.612 -13.6419
67.759193 85.588 -13.6998
68.250206 85.564 -13.7519
68.744774 85.541 -13.7960
69.242928 85.518 -13.8359
69.744690 85.497 -13.8747
70.250084 85.476 -13.9119
70.759148 85.455 -13.9477
71.271896 85.434 -13.9829
71.788361 85.415 -14.0169
72.308571 85.397 -14.0549
72.832550 85.381 -14.1021
73.360321 85.365 -14.1579
73.891922 85.348 -14.2238
74.427376 85.330 -14.2988
74.966705 85.312 -14.3832
75.509949 85.292 -14.4748
76.057121 85.269 -14.5736
76.608261 85.244 -14.6738
77.163399 85.216 -14.7715
77.722557 85.184 -14.8608
78.285767 85.149 -14.9351
78.853058 85.112 -14.9929
79.424461 85.075 -15.0296
80.000000 85.038 -15.0490
80.579712 85.002 -15.0524
81.163628 84.968 -15.0430
81.751770 84.935 -15.0228
82.344177 84.904 -14.9961
82.940880 84.876 -14.9662
83.541901 84.850 -14.9381
84.147285 84.826 -14.9180
84.757050 84.802 -14.9040
85.371231 84.778 -14.8973
85.989868 84.753 -14.8950
86.612984 84.727 -14.8956
87.240616 84.699 -14.8960
87.872803 84.671 -14.8921
88.509560 84.642 -14.8850
89.150940 84.613 -14.8751
89.796967 84.584 -14.8600
90.447670 84.552 -14.8374
91.103088 84.520 -14.8071
91.763260 84.489 -14.7666
92.428215 84.460 -14.7211
93.097992 84.432 -14.6756
93.772614 84.405 -14.6281
94.452133 84.376 -14.5793
95.136566 84.346 -14.5261
95.825966 84.317 -14.4653
96.520363 84.288 -14.3982
97.219788 84.260 -14.3244
97.924286 84.233 -14.2462
98.633881 84.207 -14.1655
99.348625 84.182 -14.0832
100.068542 84.158 -14.0006
100.793686 84.135 -13.9182
101.524078 84.112 -13.8361
102.259766 84.090 -13.7562
103.000778 84.070 -13.6805
103.747162 84.050 -13.6081
104.498962 84.028 -13.5397
105.256203 84.006 -13.4721
106.018929 83.984 -13.4026
106.787186 83.962 -13.3311
107.561012 83.940 -13.2566
108.340446 83.918 -13.1801
109.125526 83.898 -13.1016
109.916290 83.878 -13.0241
110.712791 83.859 -12.9510
111.515060 83.841 -12.8821
112.323143 83.823 -12.8186
113.137085 83.805 -12.7611
113.956924 83.787 -12.7111
114.782700 83.769 -12.6681
115.614464 83.750 -12.6331
116.452255 83.729 -12.6031
117.296112 83.706 -12.5754
118.146095 83.682 -12.5491
119.002228 83.657 -12.5233
119.864563 83.629 -12.4941
120.733154 83.598 -12.4575
121.608040 83.565 -12.4121
122.489258 83.533 -12.3538
123.376869 83.501 -12.2862
124.270905 83.468 -12.2117
125.171425 83.435 -12.1292
126.078468 83.402 -12.0368
126.992081 83.369 -11.9392
127.912323 83.338 -11.8406
128.839233 83.306 -11.7402
129.772842 83.273 -11.6400
130.713242 83.238 -11.5362
131.660431 83.202 -11.4269
132.614502 83.165 -11.3084
133.575485 83.125 -11.1788
134.543427 83.083 -11.0313
135.518387 83.038 -10.8589
136.500412 82.993 -10.6604
137.489548 82.950 -10.4303
138.485855 82.909 -10.1747
139.489380 82.870 -9.8961
140.500168 82.835 -9.5997
141.518295 82.805 -9.2882
142.543793 82.780 -8.9708
143.576721 82.760 -8.6561
144.617142 82.744 -8.3477
145.665100 82.731 -8.0526
146.720642 82.719 -7.7698
147.783844 82.709 -7.5014
148.854752 82.699 -7.2447
149.933411 82.688 -6.9994
151.019897 82.675 -6.7596
152.114243 82.661 -6.5210
153.216522 82.646 -6.2787
154.326797 82.629 -6.0277
155.445114 82.610 -5.7646
156.571533 82.591 -5.4840
157.706116 82.572 -5.1867
158.848923 82.555 -4.8716
160.000000 82.539 -4.5398
161.159424 82.525 -4.1917
162.327255 82.514 -3.8278
163.503540 82.506 -3.4472
164.688354 82.501 -3.0548
165.881760 82.502 -2.6540
167.083801 82.507 -2.2491
168.294571 82.516 -1.8451
169.514099 82.530 -1.4430
170.742462 82.548 -1.0440
171.979736 82.571 -0.6520
173.225967 82.599 -0.2698
174.481232 82.632 0.0972
175.745605 82.670 0.4435
177.019119 82.713 0.7652
178.301880 82.759 1.0574
179.593933 82.809 1.3174
180.895340 82.861 1.5416
182.206177 82.914 1.7286
183.526520 82.968 1.8743
184.856430 83.022 1.9828
186.195984 83.073 2.0542
187.545227 83.121 2.0959
188.904266 83.165 2.1143
190.273132 83.207 2.1120
191.651932 83.246 2.0936
193.040726 83.282 2.0601
194.439575 83.316 2.0137
195.848572 83.347 1.9552
197.267761 83.376 1.8858
198.697250 83.403 1.8062
200.137085 83.427 1.7173
201.587372 83.449 1.6202
203.048157 83.468 1.5154
204.519531 83.483 1.4053
206.001556 83.495 1.2915
207.494324 83.504 1.1783
208.997925 83.509 1.0703
210.512405 83.512 0.9682
212.037857 83.514 0.8752
213.574371 83.514 0.7882
215.122025 83.513 0.7050
216.680893 83.510 0.6262
218.251053 83.506 0.5514
219.832581 83.501 0.4812
221.425583 83.494 0.4159
223.030121 83.486 0.3561
224.646286 83.476 0.3020
226.274170 83.465 0.2551
227.913849 83.452 0.2170
229.565399 83.438 0.1881
231.228928 83.424 0.1702
232.904510 83.409 0.1610
234.592224 83.394 0.1589
236.292191 83.379 0.1640
238.004456 83.363 0.1756
239.729126 83.347 0.1939
241.466309 83.331 0.2181
243.216080 83.314 0.2499
244.978516 83.295 0.2905
246.753738 83.276 0.3418
248.541809 83.257 0.4070
250.342850 83.238 0.4838
252.156937 83.221 0.5717
253.984161 83.204 0.6687
255.824646 83.189 0.7725
257.678467 83.174 0.8827
259.545685 83.160 0.9993
261.426483 83.148 1.1197
263.320862 83.138 1.2422
265.229004 83.130 1.3637
267.150970 83.122 1.4796
269.086853 83.115 1.5917
271.036774 83.108 1.6999
273.000824 83.101 1.8047
274.979095 83.094 1.9055
276.971710 83.086 2.0047
278.978760 83.077 2.1030
281.000336 83.067 2.2047
283.036591 83.055 2.3144
285.087585 83.042 2.4316
287.153442 83.030 2.5577
289.234283 83.019 2.6926
291.330200 83.007 2.8371
293.441284 82.996 2.9906
295.567688 82.986 3.1547
297.709503 82.979 3.3236
299.866821 82.975 3.4920
302.039795 82.973 3.6585
304.228485 82.971 3.8194
306.433044 82.970 3.9756
308.653595 82.970 4.1263
310.890228 82.970 4.2726
313.143066 82.970 4.4147
315.412231 82.970 4.5536
317.697845 82.970 4.6902
320.000000 82.970 4.8246
322.318848 82.970 4.9570
324.654510 82.970 5.0876
327.007080 82.970 5.2168
329.376709 82.970 5.3446
331.763519 82.970 5.4710
334.167603 82.970 5.5956
336.589142 82.970 5.7178
339.028198 82.970 5.8377
341.484924 82.969 5.9548
343.959473 82.968 6.0697
346.451935 82.967 6.1822
348.962463 82.965 6.2937
351.491211 82.962 6.4046
354.038239 82.957 6.5177
356.603760 82.951 6.6359
359.187866 82.945 6.7586
361.790680 82.939 6.8862
364.412354 82.932 7.0186
367.053040 82.925 7.1556
369.712860 82.917 7.2985
372.391968 82.909 7.4490
375.090454 82.901 7.6065
377.808533 82.893 7.7718
380.546265 82.886 7.9435
383.303864 82.879 8.1202
386.081451 82.873 8.3025
388.879150 82.867 8.4903
391.697144 82.861 8.6834
394.535522 82.856 8.8822
397.394501 82.853 9.0844
400.274170 82.851 9.2881
403.174744 82.850 9.4924
406.096313 82.849 9.6955
409.039062 82.848 9.8984
412.003113 82.848 10.1008
414.988647 82.848 10.3033
417.995850 82.848 10.5063
421.024811 82.848 10.7104
424.075714 82.848 10.9163
427.148743 82.848 11.1243
430.244049 82.848 11.3345
433.361786 82.848 11.5473
436.502106 82.848 11.7631
439.665161 82.848 11.9823
442.851166 82.848 12.2052
446.060242 82.848 12.4323
449.292572 82.848 12.6638
452.548340 82.848 12.9003
455.827698 82.848 13.1421
459.130798 82.848 13.3902
462.457855 82.848 13.6451
465.809021 82.848 13.9082
469.184448 82.848 14.1803
472.584381 82.848 14.4631
476.008911 82.849 14.7584
479.458252 82.850 15.0670
482.932617 82.852 15.3904
486.432159 82.856 15.7279
489.957031 82.862 16.0804
493.507477 82.871 16.4439
497.083618 82.884 16.8154
500.685699 82.901 17.1918
504.313873 82.920 17.5683
507.968323 82.943 17.9458
511.649292 82.968 18.3248
515.356934 82.996 18.7008
519.091370 83.029 19.0698
522.852966 83.066 19.4298
526.641724 83.104 19.7775
530.458008 83.145 20.1129
534.301941 83.189 20.4357
538.173706 83.235 20.7440
542.073547 83.283 21.0365
546.001648 83.332 21.3111
549.958191 83.383 21.5649
553.943420 83.435 21.7993
557.957520 83.486 22.0141
562.000671 83.537 22.2114
566.073181 83.587 22.3927
570.175171 83.636 22.5595
574.306885 83.685 22.7123
578.468567 83.733 22.8545
582.660400 83.778 22.9900
586.882568 83.822 23.1176
591.135376 83.867 23.2371
595.419006 83.912 23.3486
599.733643 83.954 23.4503
604.079590 83.994 23.5477
608.456970 84.031 23.6462
612.866089 84.068 23.7447
617.307190 84.105 23.8427
621.780457 84.141 23.9427
626.286133 84.174 24.0459
630.824463 84.206 24.1546
635.395691 84.239 24.2730
640.000000 84.272 24.3966
644.637695 84.305 24.5217
649.309021 84.339 24.6505
654.014160 84.372 24.7847
658.753418 84.406 24.9225
663.527039 84.442 25.0635
668.335205 84.479 25.2055
673.178284 84.516 25.3457
678.056396 84.553 25.4865
682.969849 84.590 25.6301
687.918945 84.629 25.7745
692.903870 84.669 25.9189
697.924927 84.710 26.0625
702.982422 84.752 26.2046
708.076477 84.796 26.3435
713.207520 84.841 26.4775
718.375732 84.887 26.6056
723.581360 84.934 26.7259
728.824707 84.981 26.8396
734.106079 85.029 26.9478
739.425720 85.077 27.0487
744.783936 85.126 27.1404
750.180908 85.176 27.2237
755.617065 85.224 27.2979
761.092529 85.273 27.3648
766.607727 85.321 27.4265
772.162903 85.370 27.4818
777.758301 85.419 27.5293
783.394287 85.467 27.5709
789.071045 85.514 27.6074
794.789001 85.560 27.6399
800.548340 85.606 27.6700
806.349487 85.651 27.6969
812.192627 85.696 27.7201
818.078125 85.741 27.7399
824.006226 85.785 27.7560
829.977295 85.828 27.7700
835.991699 85.870 27.7828
842.049622 85.912 27.7959
848.151428 85.953 27.8111
854.297485 85.993 27.8279
860.488098 86.034 27.8466
866.723572 86.074 27.8679
873.004211 86.113 27.8928
879.330322 86.152 27.9209
885.702332 86.193 27.9527
892.120483 86.234 27.9859
898.585144 86.275 28.0178
905.096680 86.317 28.0499
911.655396 86.358 28.0824
918.261597 86.400 28.1159
924.915710 86.442 28.1514
931.618042 86.485 28.1879
938.368896 86.528 28.2240
945.168762 86.571 28.2609
952.017822 86.615 28.3000
958.916504 86.660 28.3389
965.865234 86.706 28.3756
972.864319 86.754 28.4089
979.914062 86.802 28.4363
987.014954 86.850 28.4599
994.167236 86.898 28.4809
1001.371399 86.946 28.4989
1008.627747 86.995 28.5138
1015.936646 87.044 28.5260
1023.298584 87.093 28.5352
1030.713867 87.142 28.5430
1038.182739 87.191 28.5518
1045.705933 87.242 28.5590
1053.283447 87.293 28.5622
1060.916016 87.345 28.5620
1068.603882 87.397 28.5579
1076.347412 87.449 28.5500
1084.147095 87.502 28.5387
1092.003296 87.555 28.5231
1099.916382 87.608 28.5019
1107.886841 87.662 28.4761
1115.915039 87.716 28.4458
1124.001343 87.770 28.4121
1132.146362 87.823 28.3771
1140.350342 87.877 28.3392
1148.613770 87.933 28.2977
1156.937134 87.989 28.2512
1165.320801 88.044 28.1965
1173.765137 88.099 28.1373
1182.270752 88.153 28.0768
1190.838013 88.208 28.0133
1199.467285 88.264 27.9465
1208.159180 88.321 27.8753
1216.913940 88.377 27.7979
1225.732178 88.433 27.7163
1234.614380 88.489 27.6329
1243.560913 88.545 27.5453
1252.572266 88.602 27.4518
1261.648926 88.659 27.3534
1270.791382 88.714 27.2500
1280.000000 88.769 27.1434
1289.275391 88.825 27.0358
1298.618042 88.881 26.9255
1308.028320 88.936 26.8115
1317.506836 88.992 26.6945
1327.054077 89.048 26.5752
1336.670410 89.104 26.4525
1346.356567 89.161 26.3259
1356.112793 89.218 26.1945
1365.939697 89.274 26.0564
1375.837891 89.330 25.9136
1385.807739 89.385 25.7670
1395.849854 89.441 25.6176
1405.964844 89.496 25.4663
1416.152954 89.550 25.3136
1426.415039 89.603 25.1602
1436.751465 89.657 25.0066
1447.162720 89.711 24.8537
1457.649414 89.765 24.7006
1468.212158 89.819 24.5466
1478.851440 89.873 24.3926
1489.567871 89.927 24.2402
1500.361816 89.982 24.0866
1511.234131 90.039 23.9294
1522.185059 90.096 23.7687
1533.215454 90.152 23.6029
1544.325806 90.208 23.4347
1555.516602 90.263 23.2668
1566.788574 90.319 23.0977
1578.142090 90.376 22.9271
1589.578003 90.433 22.7547
1601.096680 90.490 22.5793
1612.698975 90.547 22.4037
1624.385254 90.603 22.2311
1636.156250 90.660 22.0598
1648.012451 90.719 21.8896
1659.954590 90.779 21.7186
1671.983398 90.839 21.5453
1684.099243 90.901 21.3678
1696.302856 90.964 21.1835
1708.594971 91.029 20.9929
1720.976196 91.093 20.7942
1733.447144 91.157 20.5909
1746.008423 91.220 20.3856
1758.660645 91.283 20.1789
1771.404663 91.347 19.9718
1784.240967 91.412 19.7648
1797.170288 91.477 19.5588
1810.193359 91.543 19.3538
1823.310791 91.610 19.1515
1836.523193 91.679 18.9488
1849.831421 91.751 18.7445
1863.236084 91.825 18.5350
1876.737793 91.901 18.3165
1890.337524 91.979 18.0880
1904.035645 92.058 17.8469
1917.833008 92.139 17.5940
1931.730469 92.221 17.3292
1945.728638 92.304 17.0532
1959.828125 92.387 16.7665
1974.029907 92.472 16.4693
1988.334473 92.557 16.1623
2002.742798 92.643 15.8443
2017.255493 92.731 15.5143
2031.873291 92.821 15.1724
2046.597168 92.911 14.8184
2061.427734 93.002 14.4517
2076.365479 93.094 14.0721
2091.411865 93.189 13.6767
2106.566895 93.285 13.2625
2121.832031 93.382 12.8288
2137.207764 93.479 12.3737
2152.694824 93.578 11.8989
2168.294189 93.676 11.4059
2184.006592 93.774 10.8944
2199.832764 93.872 10.3647
2215.773682 93.971 9.8163
2231.830078 94.069 9.2490
2248.002686 94.169 8.6625
2264.292725 94.269 8.0569
2280.700684 94.370 7.4307
2297.227539 94.471 6.7837
2313.874268 94.573 6.1128
2330.641602 94.675 5.4159
2347.530273 94.778 4.6902
2364.541504 94.881 3.9320
2381.676025 94.984 3.1417
2398.934570 95.085 2.3181
2416.318359 95.185 1.4619
2433.827881 95.283 0.5735
2451.464355 95.379 -0.3471
2469.228760 95.472 -1.2998
2487.121826 95.563 -2.2837
2505.144531 95.650 -3.2987
2523.297852 95.735 -4.3432
2541.582764 95.815 -5.4151
2560.000000 95.892 -6.5151
2578.550781 95.965 -7.6436
2597.236084 96.034 -8.7986
2616.056641 96.097 -9.9794
2635.013672 96.155 -11.1829
2654.108154 96.208 -12.4059
2673.340820 96.256 -13.6475
2692.713135 96.298 -14.9061
2712.225586 96.335 -16.1810
2731.879395 96.367 -17.4715
2751.675781 96.393 -18.7769
2771.615479 96.413 -20.0966
2791.699707 96.428 -21.4291
2811.929688 96.436 -22.7736
2832.305908 96.437 -24.1276
2852.830078 96.431 -25.4898
2873.502930 96.417 -26.8550
2894.325439 96.395 -28.2190
2915.298828 96.365 -29.5778
2936.424316 96.328 -30.9279
2957.702881 96.282 -32.2642
2979.135742 96.228 -33.5825
3000.723633 96.166 -34.8774
3022.468262 96.097 -36.1431
3044.370117 96.020 -37.3764
3066.430908 95.939 -38.5724
3088.651611 95.851 -39.7309
3111.033203 95.760 -40.8504
3133.577148 95.663 -41.9290
3156.284180 95.563 -42.9633
3179.156006 95.460 -43.9554
3202.193359 95.357 -44.9052
3225.397949 95.252 -45.8158
3248.770508 95.147 -46.6896
3272.312500 95.040 -47.5283
3296.024902 94.935 -48.3337
3319.909180 94.829 -49.1075
3343.966797 94.723 -49.8518
3368.198486 94.618 -50.5667
3392.605713 94.512 -51.2527
3417.189941 94.407 -51.9100
3441.952393 94.303 -52.5388
3466.894287 94.198 -53.1394
3492.016846 94.095 -53.7118
3517.321289 93.993 -54.2575
3542.809326 93.893 -54.7776
3568.481934 93.794 -55.2728
3594.340576 93.697 -55.7440
3620.386719 93.601 -56.1919
3646.621582 93.509 -56.6173
3673.046387 93.418 -57.0211
3699.662842 93.330 -57.4040
3726.472168 93.244 -57.7684
3753.475586 93.162 -58.1168
3780.675049 93.083 -58.4495
3808.071289 93.007 -58.7674
3835.666016 92.933 -59.0716
3863.460938 92.864 -59.3631
3891.457275 92.797 -59.6437
3919.656250 92.734 -59.9150
3948.059814 92.674 -60.1778
3976.668945 92.618 -60.4329
4005.485596 92.566 -60.6818
4034.510986 92.518 -60.9251
4063.746582 92.473 -61.1659
4093.194336 92.434 -61.4064
4122.855469 92.399 -61.6498
4152.730957 92.369 -61.8995
4182.823730 92.342 -62.1568
4213.133789 92.320 -62.4236
4243.664062 92.301 -62.7017
4274.415527 92.286 -62.9926
4305.389648 92.275 -63.2975
4336.588379 92.267 -63.6179
4368.013184 92.263 -63.9544
4399.665527 92.262 -64.3064
4431.547363 92.265 -64.6791
4463.660156 92.273 -65.0758
4496.005371 92.285 -65.5008
4528.585449 92.300 -65.9583
4561.401367 92.319 -66.4516
4594.455078 92.341 -66.9837
4627.748535 92.366 -67.5591
4661.283203 92.392 -68.1833
4695.060547 92.418 -68.8556
4729.083008 92.444 -69.5769
4763.352051 92.469 -70.3472
4797.869141 92.492 -71.1667
4832.636719 92.514 -72.0365
4867.655762 92.533 -72.9582
4902.928711 92.548 -73.9311
4938.457520 92.559 -74.9556
4974.243652 92.564 -76.0298
5010.289062 92.563 -77.1534
5046.595703 92.554 -78.3220
5083.165527 92.536 -79.5340
5120.000000 92.508 -80.7808
5157.101562 92.469 -82.0563
5194.472168 92.419 -83.3516
5232.113281 92.357 -84.6584
5270.027344 92.282 -85.9684
5308.216309 92.196 -87.2740
5346.681641 92.097 -88.5657
5385.426270 91.985 -89.8342
5424.451172 91.863 -91.0720
5463.758789 91.729 -92.2701
5503.351562 91.586 -93.4245
5543.230957 91.433 -94.5313
5583.399414 91.271 -95.5820
5623.859375 91.099 -96.5680
5664.611816 90.921 -97.4857
5705.660156 90.737 -98.3275
5747.005859 90.549 -99.0962
5788.650879 90.359 -99.7924
5830.597656 90.166 -100.4140
5872.848633 89.971 -100.9591
5915.405762 89.776 -101.4288
5958.271484 89.583 -101.8223
6001.447266 89.392 -102.1425
6044.936523 89.204 -102.3916
6088.740234 89.020 -102.5703
6132.861816 88.841 -102.6782
6177.303223 88.668 -102.7209
6222.066406 88.504 -102.7016
6267.154297 88.349 -102.6275
6312.568359 88.202 -102.5043
6358.312012 88.067 -102.3399
6404.386719 87.943 -102.1402
6450.795898 87.833 -101.9162
6497.541016 87.735 -101.6783
6544.625000 87.649 -101.4342
6592.049805 87.576 -101.1927
6639.818359 87.514 -100.9612
6687.933594 87.465 -100.7476
6736.396973 87.426 -100.5589
6785.211426 87.398 -100.4033
6834.379883 87.380 -100.2845
6883.904785 87.370 -100.2068
6933.788574 87.368 -100.1770
6984.033691 87.375 -100.2022
7034.642578 87.388 -100.2854
7085.618652 87.406 -100.4328
7136.963867 87.427 -100.6428
7188.681152 87.450 -100.9142
7240.773438 87.476 -101.2521
7293.243164 87.505 -101.6607
7346.092773 87.534 -102.1414
7399.325684 87.561 -102.6996
7452.944336 87.584 -103.3277
7506.951172 87.601 -104.0212
7561.350098 87.611 -104.7760
7616.142578 87.615 -105.5887
7671.332031 87.611 -106.4514
7726.921875 87.596 -107.3601
7782.914551 87.569 -108.2991
7839.312500 87.531 -109.2544
7896.119629 87.481 -110.2179
7953.337891 87.422 -111.1787
8010.971191 87.352 -112.1310
8069.021973 87.273 -113.0669
8127.493164 87.185 -113.9812
8186.388672 87.089 -114.8672
8245.710938 86.985 -115.7216
8305.461914 86.875 -116.5401
8365.647461 86.759 -117.3190
8426.267578 86.636 -118.0542
8487.328125 86.508 -118.7415
8548.831055 86.376 -119.3754
8610.779297 86.242 -119.9551
8673.176758 86.105 -120.4777
8736.026367 85.968 -120.9436
8799.331055 85.831 -121.3513
8863.094727 85.695 -121.7033
8927.320312 85.561 -122.0005
8992.010742 85.431 -122.2458
9057.170898 85.306 -122.4415
9122.802734 85.186 -122.5913
9188.910156 85.071 -122.6982
9255.497070 84.963 -122.7667
9322.566406 84.862 -122.8019
9390.121094 84.768 -122.8061
9458.166016 84.682 -122.7808
9526.704102 84.605 -122.7333
9595.738281 84.539 -122.6681
9665.273438 84.483 -122.5954
9735.311523 84.438 -122.5244
9805.857422 84.403 -122.4623
9876.915039 84.378 -122.4167
9948.487305 84.363 -122.3950
10020.578125 84.357 -122.4075
10093.191406 84.357 -122.4537
10166.331055 84.362 -122.5391
10240.000000 84.371 -122.6563
10314.203125 84.381 -122.8029
10388.944336 84.394 -122.9692
10464.226562 84.408 -123.1464
10540.054688 84.426 -123.3289
10616.432617 84.448 -123.5056
10693.363281 84.478 -123.6839
10770.852539 84.519 -123.8602
10848.902344 84.575 -124.0578
10927.517578 84.648 -124.2900
11006.703125 84.736 -124.5842
11086.461914 84.842 -124.9648
11166.798828 84.959 -125.4539
11247.718750 85.088 -126.0795
11329.223633 85.221 -126.8486
11411.320312 85.354 -127.7831
11494.011719 85.479 -128.8657
11577.301758 85.591 -130.0971
11661.195312 85.688 -131.4462
11745.697266 85.763 -132.8939
11830.811523 85.819 -134.4057
11916.542969 85.851 -135.9515
12002.894531 85.862 -137.4985
12089.873047 85.852 -139.0096
12177.480469 85.827 -140.4669
12265.723633 85.791 -141.8407
12354.606445 85.747 -143.1302
12444.132812 85.701 -144.3214
12534.308594 85.659 -145.4263
12625.136719 85.627 -146.4439
12716.624023 85.608 -147.4001
12808.773438 85.608 -148.3095
12901.591797 85.628 -149.2049
12995.082031 85.673 -150.1115
13089.250000 85.742 -151.0670
13184.099609 85.836 -152.1070
13279.636719 85.953 -153.2637
13375.867188 86.090 -154.5729
13472.793945 86.243 -156.0600
13570.422852 86.409 -157.7570
13668.759766 86.580 -159.6798
13767.809570 86.751 -161.8558
13867.577148 86.915 -164.2832
13968.067383 87.064 -166.9767
14069.285156 87.191 -169.9146
14171.237305 87.290 -173.0936
14273.927734 87.355 -176.4727
14377.362305 87.379 179.9744
14481.546875 87.361 176.2962
14586.486328 87.298 172.5350
14692.185547 87.191 168.7371
14798.651367 87.036 164.9504
14905.888672 86.837 161.2155
15013.902344 86.596 157.5833
15122.700195 86.320 154.0706
15232.285156 86.013 150.7107
15342.664062 85.681 147.5040
15453.843750 85.326 144.4643
15565.829102 84.955 141.5842
15678.625000 84.574 138.8677
15792.239258 84.187 136.2936
15906.675781 83.799 133.8492
16021.942383 83.410 131.5124
16138.043945 83.024 129.2644
16254.986328 82.642 127.0815
16372.777344 82.266 124.9412
16491.421875 81.895 122.8217
16610.923828 81.529 120.6996
16731.294922 81.166 118.5576
16852.535156 80.804 116.3738
16974.656250 80.438 114.1387
17097.662109 80.068 111.8342
17221.558594 79.686 109.4646
17346.353516 79.289 107.0218
17472.052734 78.871 104.5253
17598.662109 78.427 101.9789
17726.189453 77.953 99.4218
17854.640625 77.441 96.8784
17984.021484 76.890 94.3975
18114.341797 76.298 92.0171
18245.605469 75.663 89.7950
18377.820312 74.980 87.7715
18510.994141 74.247 86.0380
18645.132812 73.458 84.6747
18780.242188 72.624 83.7576
18916.332031 71.750 83.3884
19053.408203 70.851 83.5693
19191.476562 69.936 84.3559
19330.546875 69.025 85.6893
19470.623047 68.130 87.5670
19611.714844 67.281 89.8738
19753.830078 66.505 92.5380
19896.974609 65.816 95.4260
