* Measurement data measured by REW V5.20.13
* Source: C:\Users\kurin\Desktop\Targets and Curves\Resolve\Img\Files\Thieaudio_Oracle_MKI_5128_SPL.txt
* Format: Comma/Tab/Space delimited data
* Dated: Aug 15, 2023 12:43:22 AM
* REW Settings:
*  C-weighting compensation: Off
*  Target level: 75.0 dB
* Note: ; Measurement imported from C:\Users\kurin\Desktop\Targets and Curves\Resolve\Img\Files\Thieaudio_Oracle_MKI_5128_SPL.txt Format: Comma/Tab/Space delimited data 623 values loaded, 5 Hz to 39,792 Hz log spaced 
* Measurement: Thieaudio_Oracle_MKI_5128_S
* Smoothing: 1/48 octave
* Frequency Step: 1/96 octave
* Start Frequency: 5.000 Hz
*
* Freq(Hz) SPL(dB) Phase(degrees)
5.000000 97.764 -7.9980
5.036232 97.762 -8.0024
5.072727 97.760 -8.0070
5.109486 97.757 -8.0121
5.146511 97.754 -8.0180
5.183805 97.751 -8.0256
5.221369 97.747 -8.0340
5.259205 97.743 -8.0427
5.297316 97.738 -8.0520
5.335702 97.733 -8.0623
5.374367 97.729 -8.0730
5.413311 97.725 -8.0835
5.452538 97.720 -8.0940
5.492050 97.715 -8.1044
5.531847 97.711 -8.1150
5.571934 97.707 -8.1259
5.612310 97.702 -8.1370
5.652979 97.697 -8.1480
5.693943 97.692 -8.1590
5.735204 97.687 -8.1699
5.776763 97.683 -8.1810
5.818624 97.679 -8.1924
5.860788 97.674 -8.2040
5.903258 97.670 -8.2154
5.946035 97.665 -8.2270
5.989123 97.660 -8.2390
6.032523 97.655 -8.2510
6.076237 97.650 -8.2624
6.120268 97.646 -8.2740
6.164618 97.642 -8.2864
6.209289 97.637 -8.2990
6.254284 97.633 -8.3110
6.299605 97.628 -8.3230
6.345255 97.623 -8.3354
6.391235 97.618 -8.3480
6.437549 97.613 -8.3604
6.484198 97.609 -8.3730
6.531185 97.604 -8.3859
6.578513 97.600 -8.3990
6.626183 97.596 -8.4120
6.674199 97.591 -8.4250
6.722563 97.587 -8.4379
6.771278 97.582 -8.4510
6.820345 97.577 -8.4644
6.869768 97.572 -8.4780
6.919549 97.567 -8.4914
6.969691 97.563 -8.5050
7.020196 97.559 -8.5189
7.071068 97.554 -8.5330
7.122308 97.550 -8.5469
7.173919 97.545 -8.5610
7.225904 97.540 -8.5754
7.278266 97.535 -8.5900
7.331007 97.530 -8.6045
7.384131 97.526 -8.6190
7.437639 97.521 -8.6334
7.491535 97.517 -8.6480
7.545822 97.513 -8.6629
7.600502 97.508 -8.6780
7.655579 97.503 -8.6929
7.711054 97.498 -8.7080
7.766932 97.493 -8.7234
7.823214 97.489 -8.7390
7.879904 97.485 -8.7544
7.937005 97.480 -8.7700
7.994520 97.476 -8.7859
8.052452 97.471 -8.8020
8.110803 97.467 -8.8179
8.169578 97.462 -8.8340
8.228777 97.457 -8.8504
8.288406 97.452 -8.8670
8.348468 97.447 -8.8834
8.408964 97.443 -8.9000
8.469899 97.438 -8.9169
8.531276 97.434 -8.9340
8.593097 97.430 -8.9509
8.655366 97.425 -8.9680
8.718086 97.420 -8.9854
8.781260 97.415 -9.0030
8.844893 97.410 -9.0204
8.908987 97.406 -9.0380
8.973545 97.402 -9.0559
9.038571 97.397 -9.0740
9.104069 97.393 -9.0924
9.170040 97.388 -9.1110
9.236490 97.383 -9.1295
9.303422 97.378 -9.1480
9.370838 97.373 -9.1664
9.438744 97.369 -9.1850
9.507140 97.365 -9.2044
9.576033 97.360 -9.2240
9.645425 97.356 -9.2429
9.715320 97.351 -9.2620
9.785721 97.346 -9.2819
9.856632 97.341 -9.3020
9.928058 97.336 -9.3219
10.000000 97.332 -9.3420
10.072464 97.327 -9.3624
10.145453 97.323 -9.3830
10.218971 97.319 -9.4034
10.293022 97.314 -9.4240
10.367610 97.310 -9.4449
10.442738 97.305 -9.4660
10.518411 97.300 -9.4869
10.594631 97.295 -9.5080
10.671404 97.290 -9.5299
10.748734 97.286 -9.5520
10.826623 97.282 -9.5740
10.905077 97.277 -9.5960
10.984100 97.273 -9.6179
11.063695 97.268 -9.6400
11.143867 97.263 -9.6629
11.224621 97.258 -9.6860
11.305959 97.253 -9.7089
11.387886 97.249 -9.7320
11.470407 97.244 -9.7554
11.553527 97.240 -9.7790
11.637249 97.236 -9.8024
11.721577 97.231 -9.8260
11.806517 97.226 -9.8504
11.892071 97.221 -9.8750
11.978246 97.216 -9.8994
12.065045 97.212 -9.9240
12.152473 97.208 -9.9489
12.240536 97.203 -9.9740
12.329235 97.199 -9.9994
12.418578 97.194 -10.0250
12.508568 97.190 -10.0509
12.599211 97.185 -10.0770
12.690510 97.180 -10.1029
12.782471 97.175 -10.1290
12.875097 97.170 -10.1553
12.968395 97.166 -10.1820
13.062370 97.161 -10.2094
13.157025 97.157 -10.2370
13.252366 97.153 -10.2644
13.348398 97.148 -10.2920
13.445127 97.143 -10.3198
13.542556 97.138 -10.3480
13.640691 97.133 -10.3764
13.739536 97.129 -10.4050
13.839099 97.125 -10.4334
13.939383 97.120 -10.4620
14.040393 97.116 -10.4913
14.142136 97.111 -10.5210
14.244616 97.106 -10.5509
14.347837 97.101 -10.5810
14.451808 97.096 -10.6114
14.556532 97.092 -10.6420
14.662014 97.088 -10.6729
14.768262 97.083 -10.7040
14.875278 97.079 -10.7353
14.983070 97.074 -10.7670
15.091644 97.070 -10.7988
15.201005 97.065 -10.8310
15.311157 97.060 -10.8634
15.422109 97.055 -10.8960
15.533863 97.050 -10.9289
15.646428 97.046 -10.9620
15.759809 97.042 -10.9954
15.874010 97.037 -11.0290
15.989040 97.033 -11.0628
16.104904 97.028 -11.0970
16.221605 97.023 -11.1318
16.339155 97.018 -11.1670
16.457554 97.013 -11.2019
16.576813 97.009 -11.2370
16.696936 97.005 -11.2723
16.817928 97.000 -11.3080
16.939798 96.996 -11.3443
17.062551 96.991 -11.3810
17.186193 96.986 -11.4174
17.310732 96.981 -11.4540
17.436172 96.976 -11.4909
17.562521 96.972 -11.5280
17.689787 96.967 -11.5649
17.817974 96.963 -11.6020
17.947090 96.959 -11.6394
18.077143 96.954 -11.6770
18.208138 96.950 -11.7145
18.340080 96.945 -11.7520
18.472980 96.940 -11.7892
18.606844 96.935 -11.8260
18.741676 96.930 -11.8620
18.877487 96.926 -11.8970
19.014280 96.921 -11.9303
19.152065 96.917 -11.9620
19.290850 96.913 -11.9917
19.430639 96.909 -12.0200
19.571442 96.906 -12.0462
19.713264 96.904 -12.0730
19.856115 96.904 -12.1016
20.000000 96.906 -12.1360
20.144928 96.908 -12.1806
20.290907 96.911 -12.2349
20.437943 96.914 -12.3003
20.586044 96.916 -12.3749
20.735220 96.917 -12.4592
20.885475 96.916 -12.5489
21.036821 96.913 -12.6409
21.189262 96.909 -12.7329
21.342808 96.904 -12.8209
21.497467 96.898 -12.9059
21.653246 96.892 -12.9874
21.810154 96.885 -13.0659
21.968201 96.878 -13.1413
22.127390 96.872 -13.2149
22.287735 96.866 -13.2884
22.449242 96.860 -13.3609
22.611917 96.853 -13.4329
22.775772 96.846 -13.5029
22.940815 96.839 -13.5692
23.107054 96.832 -13.6329
23.274498 96.826 -13.6942
23.443153 96.821 -13.7539
23.613033 96.816 -13.8117
23.784142 96.812 -13.8709
23.956491 96.811 -13.9337
24.130091 96.811 -14.0039
24.304947 96.812 -14.0867
24.481071 96.813 -14.1809
24.658470 96.813 -14.2869
24.837156 96.813 -14.4048
25.017136 96.812 -14.5351
25.198421 96.810 -14.6768
25.381020 96.806 -14.8305
25.564941 96.800 -14.9918
25.750195 96.790 -15.1583
25.936790 96.777 -15.3248
26.124741 96.761 -15.4870
26.314051 96.741 -15.6398
26.504732 96.718 -15.7772
26.696796 96.694 -15.8979
26.890253 96.669 -15.9980
27.085112 96.643 -16.0789
27.281382 96.617 -16.1397
27.479073 96.593 -16.1830
27.678198 96.571 -16.2087
27.878765 96.551 -16.2240
28.080786 96.536 -16.2345
28.284271 96.523 -16.2450
28.489231 96.513 -16.2621
28.695675 96.505 -16.2860
28.903616 96.497 -16.3181
29.113064 96.491 -16.3609
29.324028 96.487 -16.4179
29.536524 96.483 -16.4869
29.750557 96.476 -16.5685
29.966141 96.468 -16.6579
30.183289 96.459 -16.7506
30.402010 96.448 -16.8459
30.622314 96.436 -16.9434
30.844217 96.422 -17.0379
31.067726 96.405 -17.1238
31.292856 96.388 -17.2009
31.519617 96.372 -17.2649
31.748020 96.356 -17.3219
31.978081 96.342 -17.3766
32.209808 96.330 -17.4299
32.443211 96.318 -17.4838
32.678310 96.307 -17.5409
32.915108 96.299 -17.6043
33.153625 96.291 -17.6749
33.393871 96.282 -17.7564
33.635857 96.271 -17.8439
33.879597 96.259 -17.9336
34.125103 96.247 -18.0249
34.372387 96.234 -18.1156
34.621464 96.220 -18.2059
34.872345 96.206 -18.2956
35.125042 96.192 -18.3839
35.379574 96.177 -18.4688
35.635948 96.162 -18.5539
35.894180 96.148 -18.6413
36.154285 96.135 -18.7329
36.416275 96.122 -18.8318
36.680161 96.107 -18.9358
36.945961 96.091 -19.0455
37.213688 96.072 -19.1558
37.483353 96.051 -19.2638
37.754974 96.028 -19.3649
38.028561 96.002 -19.4541
38.304131 95.975 -19.5289
38.581699 95.947 -19.5842
38.861279 95.920 -19.6230
39.142883 95.895 -19.6449
39.426529 95.872 -19.6550
39.712231 95.851 -19.6561
40.000000 95.833 -19.6550
40.289856 95.819 -19.6584
40.581814 95.808 -19.6690
40.875885 95.797 -19.6926
41.172089 95.787 -19.7269
41.470440 95.777 -19.7730
41.770950 95.766 -19.8269
42.073643 95.753 -19.8865
42.378525 95.738 -19.9469
42.685616 95.722 -20.0026
42.994934 95.706 -20.0539
43.306492 95.691 -20.0981
43.620308 95.676 -20.1399
43.936401 95.663 -20.1824
44.254780 95.652 -20.2279
44.575470 95.641 -20.2799
44.898483 95.631 -20.3389
45.223835 95.622 -20.4061
45.551544 95.612 -20.4829
45.881630 95.602 -20.5729
46.214108 95.591 -20.6708
46.548996 95.576 -20.7751
46.886307 95.558 -20.8788
47.226067 95.538 -20.9745
47.568283 95.517 -21.0629
47.912983 95.496 -21.1432
48.260181 95.474 -21.2129
48.609894 95.450 -21.2677
48.962143 95.427 -21.3109
49.316940 95.407 -21.3421
49.674313 95.389 -21.3690
50.034271 95.374 -21.3993
50.396843 95.361 -21.4329
50.762039 95.348 -21.4720
51.129883 95.336 -21.5179
51.500389 95.326 -21.5727
51.873581 95.316 -21.6369
52.249481 95.305 -21.7127
52.628101 95.294 -21.7969
53.009464 95.282 -21.8869
53.393593 95.269 -21.9818
53.780506 95.255 -22.0793
54.170223 95.240 -22.1808
54.562763 95.226 -22.2879
54.958145 95.210 -22.3988
55.356396 95.192 -22.5139
55.757530 95.172 -22.6288
56.161572 95.151 -22.7392
56.568542 95.129 -22.8458
56.978462 95.107 -22.9487
57.391350 95.083 -23.0458
57.807232 95.058 -23.1356
58.226128 95.032 -23.2169
58.648056 95.007 -23.2856
59.073048 94.983 -23.3489
59.501114 94.962 -23.4116
59.932281 94.942 -23.4759
60.366577 94.922 -23.5458
60.804020 94.902 -23.6199
61.244629 94.883 -23.6975
61.688435 94.863 -23.7799
62.135452 94.843 -23.8683
62.585712 94.823 -23.9618
63.039234 94.802 -24.0607
63.496040 94.780 -24.1618
63.956161 94.756 -24.2628
64.419617 94.730 -24.3618
64.886421 94.704 -24.4566
65.356621 94.677 -24.5469
65.830215 94.649 -24.6315
66.307251 94.621 -24.7108
66.787743 94.593 -24.7832
67.271713 94.566 -24.8529
67.759193 94.540 -24.9237
68.250206 94.515 -24.9959
68.744774 94.488 -25.0712
69.242928 94.461 -25.1479
69.744690 94.434 -25.2240
70.250084 94.407 -25.3009
70.759148 94.380 -25.3802
71.271896 94.351 -25.4589
71.788361 94.320 -25.5354
72.308571 94.288 -25.6069
72.832550 94.256 -25.6690
73.360321 94.224 -25.7249
73.891922 94.193 -25.7765
74.427376 94.162 -25.8239
74.966705 94.131 -25.8670
75.509949 94.101 -25.9089
76.057121 94.073 -25.9525
76.608261 94.046 -25.9989
77.163399 94.018 -26.0509
77.722557 93.989 -26.1069
78.285767 93.961 -26.1661
78.853058 93.932 -26.2289
79.424461 93.903 -26.2956
80.000000 93.872 -26.3649
80.579712 93.840 -26.4363
81.163628 93.806 -26.5069
81.751770 93.771 -26.5739
82.344177 93.734 -26.6359
82.940880 93.696 -26.6903
83.541901 93.657 -26.7369
84.147285 93.618 -26.7742
84.757050 93.578 -26.8030
85.371231 93.538 -26.8232
85.989868 93.498 -26.8350
86.612984 93.459 -26.8375
87.240616 93.421 -26.8340
87.872803 93.383 -26.8279
88.509560 93.346 -26.8180
89.150940 93.309 -26.8048
89.796967 93.272 -26.7870
90.447670 93.235 -26.7627
91.103088 93.199 -26.7351
91.763260 93.165 -26.7059
92.428215 93.132 -26.6771
93.097992 93.099 -26.6510
93.772614 93.067 -26.6270
94.452133 93.035 -26.6052
95.136566 93.003 -26.5860
95.825966 92.970 -26.5710
96.520363 92.937 -26.5570
97.219788 92.903 -26.5427
97.924286 92.868 -26.5250
98.633881 92.832 -26.5007
99.348625 92.795 -26.4691
100.068542 92.759 -26.4272
100.793686 92.723 -26.3781
101.524078 92.689 -26.3221
102.259766 92.657 -26.2651
103.000778 92.627 -26.2134
103.747162 92.599 -26.1671
104.498962 92.571 -26.1283
105.256203 92.543 -26.0971
106.018929 92.516 -26.0745
106.787186 92.488 -26.0600
107.561012 92.459 -26.0546
108.340446 92.428 -26.0550
109.125526 92.396 -26.0584
109.916290 92.363 -26.0650
110.712791 92.329 -26.0742
111.515060 92.294 -26.0850
112.323143 92.256 -26.0973
113.137085 92.215 -26.1070
113.956924 92.173 -26.1108
114.782700 92.129 -26.1060
115.614464 92.082 -26.0897
116.452255 92.034 -26.0601
117.296112 91.985 -26.0134
118.146095 91.935 -25.9521
119.002228 91.886 -25.8764
119.864563 91.838 -25.7892
120.733154 91.791 -25.6930
121.608040 91.745 -25.5902
122.489258 91.700 -25.4850
123.376869 91.654 -25.3753
124.270905 91.608 -25.2608
125.171425 91.561 -25.1402
126.078468 91.514 -25.0121
126.992081 91.467 -24.8763
127.912323 91.419 -24.7343
128.839233 91.370 -24.5793
129.772842 91.318 -24.4049
130.713242 91.265 -24.2114
131.660431 91.216 -23.9951
132.614502 91.169 -23.7617
133.575485 91.122 -23.5162
134.543427 91.077 -23.2565
135.518387 91.034 -22.9808
136.500412 90.993 -22.6926
137.489548 90.956 -22.3937
138.485855 90.921 -22.0878
139.489380 90.889 -21.7793
140.500168 90.859 -21.4667
141.518295 90.831 -21.1496
142.543793 90.805 -20.8288
143.576721 90.782 -20.5047
144.617142 90.761 -20.1777
145.665100 90.742 -19.8486
146.720642 90.725 -19.5169
147.783844 90.711 -19.1817
148.854752 90.700 -18.8459
149.933411 90.692 -18.5115
151.019897 90.687 -18.1808
152.114243 90.686 -17.8570
153.216522 90.687 -17.5399
154.326797 90.691 -17.2297
155.445114 90.697 -16.9287
156.571533 90.707 -16.6390
157.706116 90.719 -16.3606
158.848923 90.733 -16.0935
160.000000 90.750 -15.8406
161.159424 90.771 -15.6022
162.327255 90.796 -15.3865
163.503540 90.824 -15.2016
164.688354 90.854 -15.0473
165.881760 90.884 -14.9275
167.083801 90.913 -14.8382
168.294571 90.941 -14.7772
169.514099 90.967 -14.7431
170.742462 90.992 -14.7339
171.979736 91.016 -14.7489
173.225967 91.037 -14.7883
174.481232 91.056 -14.8468
175.745605 91.070 -14.9199
177.019119 91.082 -15.0068
178.301880 91.092 -15.1039
179.593933 91.100 -15.2147
180.895340 91.107 -15.3426
182.206177 91.110 -15.4846
183.526520 91.108 -15.6404
184.856430 91.102 -15.8056
186.195984 91.092 -15.9772
187.545227 91.078 -16.1506
188.904266 91.057 -16.3232
190.273132 91.031 -16.4866
191.651932 91.000 -16.6321
193.040726 90.965 -16.7587
194.439575 90.927 -16.8628
195.848572 90.887 -16.9428
197.267761 90.844 -16.9950
198.697250 90.801 -17.0220
200.137085 90.759 -17.0227
201.587372 90.719 -17.0051
203.048157 90.682 -16.9750
204.519531 90.646 -16.9371
206.001556 90.612 -16.8976
207.494324 90.578 -16.8571
208.997925 90.545 -16.8187
210.512405 90.511 -16.7811
212.037857 90.476 -16.7450
213.574371 90.440 -16.7071
215.122025 90.402 -16.6660
216.680893 90.363 -16.6171
218.251053 90.322 -16.5559
219.832581 90.279 -16.4812
221.425583 90.236 -16.3898
223.030121 90.193 -16.2843
224.646286 90.151 -16.1659
226.274170 90.110 -16.0354
227.913849 90.069 -15.8927
229.565399 90.029 -15.7404
231.228928 89.991 -15.5810
232.904510 89.953 -15.4145
234.592224 89.916 -15.2428
236.292191 89.879 -15.0635
238.004456 89.842 -14.8748
239.729126 89.806 -14.6775
241.466309 89.772 -14.4719
243.216080 89.739 -14.2586
244.978516 89.707 -14.0383
246.753738 89.676 -13.8107
248.541809 89.646 -13.5746
250.342850 89.619 -13.3337
252.156937 89.595 -13.0894
253.984161 89.574 -12.8476
255.824646 89.556 -12.6147
257.678467 89.540 -12.3906
259.545685 89.525 -12.1770
261.426483 89.510 -11.9755
263.320862 89.497 -11.7891
265.229004 89.483 -11.6145
267.150970 89.468 -11.4503
269.086853 89.451 -11.2934
271.036774 89.434 -11.1403
273.000824 89.415 -10.9914
274.979095 89.396 -10.8487
276.971710 89.374 -10.7054
278.978760 89.348 -10.5557
281.000336 89.321 -10.3994
283.036591 89.296 -10.2324
285.087585 89.271 -10.0605
287.153442 89.247 -9.8902
289.234283 89.222 -9.7165
291.330200 89.194 -9.5359
293.441284 89.165 -9.3495
295.567688 89.139 -9.1559
297.709503 89.114 -8.9595
299.866821 89.089 -8.7655
302.039795 89.063 -8.5706
304.228485 89.036 -8.3731
306.433044 89.008 -8.1726
308.653595 88.980 -7.9682
310.890228 88.951 -7.7586
313.143066 88.920 -7.5429
315.412231 88.889 -7.3187
317.697845 88.858 -7.0821
320.000000 88.826 -6.8357
322.318848 88.795 -6.5816
324.654510 88.763 -6.3169
327.007080 88.731 -6.0386
329.376709 88.699 -5.7489
331.763519 88.670 -5.4473
334.167603 88.642 -5.1390
336.589142 88.615 -4.8302
339.028198 88.589 -4.5169
341.484924 88.562 -4.1982
343.959473 88.534 -3.8709
346.451935 88.506 -3.5297
348.962463 88.480 -3.1800
351.491211 88.457 -2.8261
354.038239 88.435 -2.4661
356.603760 88.411 -2.1000
359.187866 88.387 -1.7252
361.790680 88.365 -1.3371
364.412354 88.344 -0.9401
367.053040 88.325 -0.5381
369.712860 88.307 -0.1283
372.391968 88.289 0.2903
375.090454 88.271 0.7187
377.808533 88.256 1.1593
380.546265 88.242 1.6096
383.303864 88.231 2.0678
386.081451 88.222 2.5346
388.879150 88.214 3.0109
391.697144 88.208 3.4945
394.535522 88.206 3.9847
397.394501 88.208 4.4786
400.274170 88.212 4.9729
403.174744 88.218 5.4674
406.096313 88.227 5.9608
409.039062 88.239 6.4535
412.003113 88.253 6.9464
414.988647 88.270 7.4364
417.995850 88.292 7.9225
421.024811 88.317 8.3995
424.075714 88.345 8.8618
427.148743 88.375 9.3106
430.244049 88.407 9.7455
433.361786 88.440 10.1657
436.502106 88.475 10.5703
439.665161 88.512 10.9588
442.851166 88.549 11.3296
446.060242 88.587 11.6849
449.292572 88.624 12.0263
452.548340 88.662 12.3540
455.827698 88.700 12.6683
459.130798 88.737 12.9700
462.457855 88.773 13.2597
465.809021 88.809 13.5391
469.184448 88.843 13.8099
472.584381 88.877 14.0732
476.008911 88.909 14.3295
479.458252 88.940 14.5822
482.932617 88.969 14.8333
486.432159 88.996 15.0872
489.957031 89.021 15.3483
493.507477 89.046 15.6181
497.083618 89.070 15.9004
500.685699 89.095 16.1930
504.313873 89.122 16.4962
507.968323 89.150 16.8070
511.649292 89.180 17.1231
515.356934 89.212 17.4429
519.091370 89.246 17.7650
522.852966 89.283 18.0869
526.641724 89.322 18.4069
530.458008 89.364 18.7220
534.301941 89.408 19.0289
538.173706 89.454 19.3270
542.073547 89.502 19.6151
546.001648 89.553 19.8911
549.958191 89.605 20.1532
553.943420 89.659 20.3992
557.957520 89.715 20.6269
562.000671 89.771 20.8353
566.073181 89.827 21.0222
570.175171 89.882 21.1895
574.306885 89.937 21.3377
578.468567 89.991 21.4686
582.660400 90.042 21.5828
586.882568 90.092 21.6847
591.135376 90.139 21.7777
595.419006 90.184 21.8647
599.733643 90.227 21.9495
604.079590 90.268 22.0327
608.456970 90.307 22.1160
612.866089 90.346 22.1997
617.307190 90.383 22.2850
621.780457 90.420 22.3717
626.286133 90.456 22.4600
630.824463 90.491 22.5507
635.395691 90.525 22.6451
640.000000 90.558 22.7427
644.637695 90.591 22.8427
649.309021 90.624 22.9466
654.014160 90.656 23.0556
658.753418 90.689 23.1696
663.527039 90.721 23.2894
668.335205 90.754 23.4146
673.178284 90.787 23.5456
678.056396 90.822 23.6805
682.969849 90.858 23.8195
687.918945 90.897 23.9575
692.903870 90.938 24.0905
697.924927 90.980 24.2166
702.982422 91.023 24.3330
708.076477 91.068 24.4376
713.207520 91.114 24.5278
718.375732 91.160 24.6028
723.581360 91.205 24.6589
728.824707 91.248 24.7029
734.106079 91.287 24.7385
739.425720 91.325 24.7699
744.783936 91.361 24.8019
750.180908 91.395 24.8359
755.617065 91.427 24.8742
761.092529 91.458 24.9178
766.607727 91.489 24.9694
772.162903 91.520 25.0268
777.758301 91.551 25.0891
783.394287 91.582 25.1548
789.071045 91.614 25.2221
794.789001 91.646 25.2908
800.548340 91.678 25.3589
806.349487 91.709 25.4287
812.192627 91.740 25.5023
818.078125 91.771 25.5787
824.006226 91.803 25.6573
829.977295 91.835 25.7397
835.991699 91.866 25.8277
842.049622 91.897 25.9206
848.151428 91.930 26.0210
854.297485 91.965 26.1216
860.488098 92.003 26.2155
866.723572 92.042 26.3047
873.004211 92.079 26.3879
879.330322 92.117 26.4677
885.702332 92.155 26.5481
892.120483 92.195 26.6237
898.585144 92.236 26.6898
905.096680 92.277 26.7488
911.655396 92.315 26.8004
918.261597 92.353 26.8488
924.915710 92.390 26.8983
931.618042 92.427 26.9478
938.368896 92.464 26.9973
945.168762 92.501 27.0478
952.017822 92.536 27.0995
958.916504 92.571 27.1548
965.865234 92.606 27.2165
972.864319 92.642 27.2827
979.914062 92.678 27.3532
987.014954 92.716 27.4257
994.167236 92.755 27.4982
1001.371399 92.795 27.5707
1008.627747 92.835 27.6428
1015.936646 92.877 27.7137
1023.298584 92.919 27.7833
1030.713867 92.962 27.8488
1038.182739 93.007 27.9067
1045.705933 93.053 27.9588
1053.283447 93.097 28.0048
1060.916016 93.142 28.0478
1068.603882 93.186 28.0919
1076.347412 93.231 28.1338
1084.147095 93.278 28.1714
1092.003296 93.325 28.2059
1099.916382 93.371 28.2380
1107.886841 93.418 28.2669
1115.915039 93.467 28.2934
1124.001343 93.517 28.3129
1132.146362 93.568 28.3197
1140.350342 93.619 28.3180
1148.613770 93.668 28.3108
1156.937134 93.717 28.2971
1165.320801 93.768 28.2767
1173.765137 93.819 28.2501
1182.270752 93.867 28.2165
1190.838013 93.915 28.1792
1199.467285 93.963 28.1427
1208.159180 94.012 28.1032
1216.913940 94.062 28.0589
1225.732178 94.112 28.0072
1234.614380 94.162 27.9444
1243.560913 94.213 27.8723
1252.572266 94.262 27.7912
1261.648926 94.311 27.7024
1270.791382 94.358 27.6070
1280.000000 94.404 27.5054
1289.275391 94.449 27.3974
1298.618042 94.494 27.2855
1308.028320 94.536 27.1710
1317.506836 94.577 27.0565
1327.054077 94.616 26.9466
1336.670410 94.656 26.8364
1346.356567 94.697 26.7219
1356.112793 94.738 26.6044
1365.939697 94.774 26.4829
1375.837891 94.809 26.3615
1385.807739 94.844 26.2447
1395.849854 94.879 26.1304
1405.964844 94.912 26.0171
1416.152954 94.944 25.9084
1426.415039 94.974 25.8072
1436.751465 95.003 25.7143
1447.162720 95.033 25.6322
1457.649414 95.063 25.5583
1468.212158 95.093 25.4906
1478.851440 95.124 25.4302
1489.567871 95.154 25.3792
1500.361816 95.186 25.3332
1511.234131 95.221 25.2892
1522.185059 95.258 25.2452
1533.215454 95.294 25.1980
1544.325806 95.331 25.1482
1555.516602 95.369 25.0952
1566.788574 95.408 25.0392
1578.142090 95.446 24.9796
1589.578003 95.484 24.9183
1601.096680 95.521 24.8576
1612.698975 95.559 24.7963
1624.385254 95.598 24.7336
1636.156250 95.637 24.6703
1648.012451 95.675 24.6062
1659.954590 95.714 24.5422
1671.983398 95.752 24.4800
1684.099243 95.791 24.4173
1696.302856 95.831 24.3516
1708.594971 95.871 24.2853
1720.976196 95.909 24.2182
1733.447144 95.946 24.1553
1746.008423 95.983 24.1016
1758.660645 96.020 24.0562
1771.404663 96.058 24.0210
1784.240967 96.098 23.9921
1797.170288 96.140 23.9667
1810.193359 96.184 23.9431
1823.310791 96.230 23.9185
1836.523193 96.277 23.8931
1849.831421 96.325 23.8674
1863.236084 96.376 23.8372
1876.737793 96.430 23.7986
1890.337524 96.486 23.7512
1904.035645 96.541 23.6930
1917.833008 96.596 23.6253
1931.730469 96.653 23.5481
1945.728638 96.710 23.4634
1959.828125 96.764 23.3720
1974.029907 96.819 23.2774
1988.334473 96.874 23.1842
2002.742798 96.930 23.0894
2017.255493 96.987 22.9906
2031.873291 97.044 22.8904
2046.597168 97.100 22.7892
2061.427734 97.156 22.6904
2076.365479 97.213 22.6001
2091.411865 97.272 22.5114
2106.566895 97.335 22.4200
2121.832031 97.401 22.3234
2137.207764 97.467 22.2172
2152.694824 97.535 22.1025
2168.294189 97.605 21.9795
2184.006592 97.677 21.8466
2199.832764 97.749 21.7027
2215.773682 97.823 21.5467
2231.830078 97.899 21.3769
2248.002686 97.976 21.1938
2264.292725 98.052 20.9967
2280.700684 98.129 20.7869
2297.227539 98.206 20.5651
2313.874268 98.285 20.3320
2330.641602 98.362 20.0888
2347.530273 98.441 19.8351
2364.541504 98.520 19.5708
2381.676025 98.601 19.2953
2398.934570 98.681 19.0082
2416.318359 98.763 18.7084
2433.827881 98.846 18.3955
2451.464355 98.930 18.0664
2469.228760 99.015 17.7171
2487.121826 99.100 17.3496
2505.144531 99.184 16.9640
2523.297852 99.269 16.5619
2541.582764 99.352 16.1465
2560.000000 99.437 15.7130
2578.550781 99.523 15.2564
2597.236084 99.609 14.7802
2616.056641 99.690 14.2857
2635.013672 99.771 13.7742
2654.108154 99.853 13.2500
2673.340820 99.935 12.7054
2692.713135 100.017 12.1323
2712.225586 100.098 11.5368
2731.879395 100.174 10.9216
2751.675781 100.248 10.2900
2771.615479 100.320 9.6481
2791.699707 100.392 8.9900
2811.929688 100.463 8.3098
2832.305908 100.533 7.6123
2852.830078 100.596 6.9006
2873.502930 100.657 6.1742
2894.325439 100.720 5.4341
2915.298828 100.781 4.6785
2936.424316 100.836 3.9037
2957.702881 100.888 3.1155
2979.135742 100.937 2.3193
3000.723633 100.984 1.5125
3022.468262 101.028 0.6928
3044.370117 101.069 -0.1352
3066.430908 101.104 -0.9679
3088.651611 101.136 -1.8042
3111.033203 101.166 -2.6402
3133.577148 101.195 -3.4800
3156.284180 101.221 -4.3281
3179.156006 101.244 -5.1799
3202.193359 101.262 -6.0318
3225.397949 101.277 -6.8859
3248.770508 101.292 -7.7443
3272.312500 101.305 -8.6041
3296.024902 101.311 -9.4646
3319.909180 101.313 -10.3211
3343.966797 101.314 -11.1673
3368.198486 101.312 -12.0070
3392.605713 101.309 -12.8428
3417.189941 101.303 -13.6722
3441.952393 101.295 -14.4930
3466.894287 101.285 -15.3074
3492.016846 101.276 -16.1162
3517.321289 101.266 -16.9203
3542.809326 101.253 -17.7205
3568.481934 101.240 -18.5173
3594.340576 101.227 -19.3085
3620.386719 101.215 -20.1032
3646.621582 101.206 -20.9103
3673.046387 101.196 -21.7281
3699.662842 101.182 -22.5568
3726.472168 101.166 -23.3991
3753.475586 101.153 -24.2545
3780.675049 101.140 -25.1320
3808.071289 101.125 -26.0425
3835.666016 101.106 -26.9805
3863.460938 101.081 -27.9444
3891.457275 101.050 -28.9322
3919.656250 101.015 -29.9427
3948.059814 100.972 -30.9722
3976.668945 100.920 -32.0192
4005.485596 100.859 -33.0758
4034.510986 100.789 -34.1363
4063.746582 100.707 -35.1930
4093.194336 100.615 -36.2394
4122.855469 100.512 -37.2670
4152.730957 100.396 -38.2703
4182.823730 100.268 -39.2335
4213.133789 100.126 -40.1448
4243.664062 99.971 -40.9872
4274.415527 99.803 -41.7432
4305.389648 99.625 -42.4020
4336.588379 99.439 -42.9500
4368.013184 99.247 -43.3783
4399.665527 99.049 -43.6738
4431.547363 98.850 -43.8355
4463.660156 98.654 -43.8535
4496.005371 98.466 -43.7409
4528.585449 98.290 -43.5025
4561.401367 98.129 -43.1539
4594.455078 97.983 -42.7042
4627.748535 97.857 -42.1777
4661.283203 97.757 -41.5935
4695.060547 97.680 -40.9761
4729.083008 97.626 -40.3512
4763.352051 97.593 -39.7349
4797.869141 97.582 -39.1457
4832.636719 97.592 -38.6016
4867.655762 97.621 -38.1240
4902.928711 97.666 -37.7218
4938.457520 97.722 -37.4112
4974.243652 97.787 -37.1908
5010.289062 97.858 -37.0664
5046.595703 97.934 -37.0329
5083.165527 98.010 -37.0889
5120.000000 98.088 -37.2301
5157.101562 98.165 -37.4531
5194.472168 98.241 -37.7543
5232.113281 98.313 -38.1320
5270.027344 98.381 -38.5776
5308.216309 98.442 -39.0838
5346.681641 98.497 -39.6451
5385.426270 98.546 -40.2552
5424.451172 98.589 -40.9087
5463.758789 98.623 -41.6015
5503.351562 98.650 -42.3244
5543.230957 98.667 -43.0684
5583.399414 98.677 -43.8283
5623.859375 98.680 -44.5985
5664.611816 98.674 -45.3712
5705.660156 98.659 -46.1379
5747.005859 98.637 -46.8941
5788.650879 98.611 -47.6326
5830.597656 98.579 -48.3533
5872.848633 98.543 -49.0561
5915.405762 98.501 -49.7346
5958.271484 98.455 -50.3823
6001.447266 98.406 -50.9999
6044.936523 98.358 -51.5844
6088.740234 98.309 -52.1403
6132.861816 98.261 -52.6711
6177.303223 98.213 -53.1765
6222.066406 98.167 -53.6553
6267.154297 98.123 -54.1137
6312.568359 98.085 -54.5541
6358.312012 98.052 -54.9868
6404.386719 98.025 -55.4213
6450.795898 98.002 -55.8627
6497.541016 97.984 -56.3185
6544.625000 97.969 -56.7916
6592.049805 97.958 -57.2851
6639.818359 97.950 -57.8052
6687.933594 97.946 -58.3586
6736.396973 97.945 -58.9469
6785.211426 97.944 -59.5730
6834.379883 97.944 -60.2404
6883.904785 97.945 -60.9513
6933.788574 97.947 -61.7119
6984.033691 97.948 -62.5291
7034.642578 97.947 -63.4044
7085.618652 97.942 -64.3423
7136.963867 97.931 -65.3418
7188.681152 97.914 -66.4066
7240.773438 97.887 -67.5272
7293.243164 97.847 -68.7017
7346.092773 97.792 -69.9109
7399.325684 97.721 -71.1394
7452.944336 97.635 -72.3738
7506.951172 97.535 -73.5982
7561.350098 97.420 -74.8039
7616.142578 97.290 -75.9787
7671.332031 97.147 -77.1172
7726.921875 96.993 -78.2114
7782.914551 96.827 -79.2568
7839.312500 96.650 -80.2491
7896.119629 96.463 -81.1803
7953.337891 96.266 -82.0426
8010.971191 96.059 -82.8300
8069.021973 95.844 -83.5368
8127.493164 95.620 -84.1540
8186.388672 95.389 -84.6731
8245.710938 95.152 -85.0871
8305.461914 94.911 -85.3834
8365.647461 94.670 -85.5693
8426.267578 94.433 -85.6448
8487.328125 94.201 -85.6194
8548.831055 93.974 -85.5002
8610.779297 93.755 -85.2943
8673.176758 93.546 -85.0084
8736.026367 93.347 -84.6511
8799.331055 93.159 -84.2319
8863.094727 92.981 -83.7557
8927.320312 92.814 -83.2271
8992.010742 92.659 -82.6561
9057.170898 92.519 -82.0504
9122.802734 92.392 -81.4214
9188.910156 92.278 -80.7804
9255.497070 92.177 -80.1355
9322.566406 92.089 -79.4933
9390.121094 92.014 -78.8692
9458.166016 91.955 -78.2783
9526.704102 91.905 -77.7288
9595.738281 91.863 -77.2338
9665.273438 91.826 -76.7932
9735.311523 91.793 -76.4115
9805.857422 91.761 -76.0876
9876.915039 91.729 -75.8272
9948.487305 91.691 -75.6140
10020.578125 91.642 -75.4427
10093.191406 91.582 -75.2859
10166.331055 91.509 -75.1261
10240.000000 91.422 -74.9282
10314.203125 91.316 -74.6635
10388.944336 91.197 -74.2941
10464.226562 91.063 -73.7797
10540.054688 90.923 -73.0986
10616.432617 90.782 -72.2145
10693.363281 90.649 -71.1301
10770.852539 90.530 -69.8255
10848.902344 90.438 -68.3316
10927.517578 90.386 -66.6555
11006.703125 90.377 -64.8491
11086.461914 90.421 -62.9465
11166.798828 90.520 -61.0088
11247.718750 90.683 -59.0884
11329.223633 90.904 -57.2452
11411.320312 91.181 -55.5427
11494.011719 91.508 -54.0226
11577.301758 91.879 -52.7377
11661.195312 92.287 -51.7179
11745.697266 92.726 -51.0037
11830.811523 93.186 -50.6152
11916.542969 93.661 -50.5856
12002.894531 94.140 -50.9151
12089.873047 94.614 -51.6202
12177.480469 95.076 -52.6859
12265.723633 95.519 -54.1143
12354.606445 95.935 -55.8716
12444.132812 96.315 -57.9407
12534.308594 96.658 -60.2737
12625.136719 96.960 -62.8323
12716.624023 97.220 -65.5701
12808.773438 97.437 -68.4405
12901.591797 97.615 -71.4050
12995.082031 97.753 -74.4155
13089.250000 97.856 -77.4537
13184.099609 97.929 -80.4846
13279.636719 97.975 -83.5104
13375.867188 97.997 -86.5181
13472.793945 97.997 -89.5190
13570.422852 97.979 -92.5172
13668.759766 97.940 -95.5211
13767.809570 97.880 -98.5438
13867.577148 97.796 -101.5744
13968.067383 97.684 -104.6154
14069.285156 97.543 -107.6399
14171.237305 97.369 -110.6370
14273.927734 97.161 -113.5608
14377.362305 96.914 -116.3756
14481.546875 96.632 -119.0387
14586.486328 96.316 -121.5003
14692.185547 95.975 -123.7456
14798.651367 95.613 -125.7425
14905.888672 95.236 -127.4906
15013.902344 94.851 -128.9687
15122.700195 94.469 -130.2086
15232.285156 94.105 -131.2134
15342.664062 93.764 -132.0483
15453.843750 93.457 -132.7579
15565.829102 93.183 -133.4085
15678.625000 92.948 -134.0624
15792.239258 92.745 -134.7778
15906.675781 92.575 -135.6221
16021.942383 92.427 -136.6300
16138.043945 92.292 -137.8593
16254.986328 92.157 -139.3089
16372.777344 92.013 -141.0181
16491.421875 91.842 -142.9240
16610.923828 91.626 -145.0086
16731.294922 91.362 -147.1743
16852.535156 91.042 -149.3490
16974.656250 90.664 -151.4358
17097.662109 90.223 -153.3477
17221.558594 89.721 -154.9811
17346.353516 89.153 -156.2207
17472.052734 88.539 -157.0147
17598.662109 87.888 -157.2615
17726.189453 87.224 -156.9960
17854.640625 86.567 -156.1859
17984.021484 85.939 -154.9340
18114.341797 85.362 -153.2897
18245.605469 84.851 -151.3844
18377.820312 84.432 -149.3320
18510.994141 84.094 -147.2351
18645.132812 83.838 -145.2181
18780.242188 83.648 -143.3288
18916.332031 83.516 -141.6607
19053.408203 83.419 -140.1987
19191.476562 83.337 -138.9750
19330.546875 83.262 -137.9392
19470.623047 83.182 -137.0669
19611.714844 83.096 -136.3100
19753.830078 82.995 -135.6181
19896.974609 82.890 -134.9738
