* Measurement data measured by REW V5.20.13
* Source: C:\Users\kurin\Desktop\Targets and Curves\Resolve\Img\LETSHOUER_Cadenza_12_5128_SPL.txt
* Format: Comma/Tab/Space delimited data
* Dated: Aug 15, 2023 1:56:23 AM
* REW Settings:
*  C-weighting compensation: Off
*  Target level: 75.0 dB
* Note: Measurement imported from C:\Users\kurin\Desktop\Targets and Curves\Resolve\Img\LETSHOUER_Cadenza_12_5128_SPL.txt Format: Comma/Tab/Space delimited data 623 values loaded, 5 Hz to 39,792 Hz log spaced
* Measurement: LETSHOUER_Cadenza_12_51
* Smoothing: 1/48 octave
* Frequency Step: 1/96 octave
* Start Frequency: 5.000 Hz
*
* Freq(Hz) SPL(dB) Phase(degrees)
5.000000 88.174 -8.7050
5.036232 88.172 -8.7078
5.072727 88.169 -8.7110
5.109486 88.166 -8.7151
5.146511 88.163 -8.7200
5.183805 88.159 -8.7257
5.221369 88.154 -8.7320
5.259205 88.149 -8.7387
5.297316 88.144 -8.7460
5.335702 88.139 -8.7539
5.374367 88.134 -8.7620
5.413311 88.129 -8.7699
5.452538 88.123 -8.7780
5.492050 88.117 -8.7864
5.531847 88.112 -8.7950
5.571934 88.107 -8.8035
5.612310 88.102 -8.8120
5.652979 88.097 -8.8204
5.693943 88.091 -8.8290
5.735204 88.086 -8.8380
5.776763 88.081 -8.8470
5.818624 88.076 -8.8555
5.860788 88.070 -8.8640
5.903258 88.064 -8.8729
5.946035 88.059 -8.8820
5.989123 88.054 -8.8915
6.032523 88.049 -8.9010
6.076237 88.044 -8.9100
6.120268 88.038 -8.9190
6.164618 88.032 -8.9284
6.209289 88.027 -8.9380
6.254284 88.022 -8.9474
6.299605 88.017 -8.9570
6.345255 88.011 -8.9669
6.391235 88.006 -8.9770
6.437549 88.001 -8.9870
6.484198 87.996 -8.9970
6.531185 87.991 -9.0070
6.578513 87.985 -9.0170
6.626183 87.979 -9.0269
6.674199 87.974 -9.0370
6.722563 87.969 -9.0474
6.771278 87.964 -9.0580
6.820345 87.959 -9.0685
6.869768 87.953 -9.0790
6.919549 87.947 -9.0894
6.969691 87.942 -9.1000
7.020196 87.937 -9.1109
7.071068 87.932 -9.1220
7.122308 87.927 -9.1330
7.173919 87.921 -9.1440
7.225904 87.915 -9.1549
7.278266 87.910 -9.1660
7.331007 87.905 -9.1774
7.384131 87.900 -9.1890
7.437639 87.895 -9.2004
7.491535 87.889 -9.2120
7.545822 87.884 -9.2239
7.600502 87.879 -9.2360
7.655579 87.874 -9.2480
7.711054 87.868 -9.2600
7.766932 87.862 -9.2720
7.823214 87.857 -9.2840
7.879904 87.852 -9.2959
7.937005 87.847 -9.3080
7.994520 87.842 -9.3204
8.052452 87.836 -9.3330
8.110803 87.830 -9.3460
8.169578 87.825 -9.3590
8.228777 87.820 -9.3715
8.288406 87.815 -9.3840
8.348468 87.810 -9.3969
8.408964 87.804 -9.4100
8.469899 87.799 -9.4234
8.531276 87.794 -9.4370
8.593097 87.789 -9.4505
8.655366 87.783 -9.4640
8.718086 87.777 -9.4774
8.781260 87.772 -9.4910
8.844893 87.767 -9.5049
8.908987 87.762 -9.5190
8.973545 87.757 -9.5329
9.038571 87.751 -9.5470
9.104069 87.745 -9.5614
9.170040 87.740 -9.5760
9.236490 87.735 -9.5904
9.303422 87.730 -9.6050
9.370838 87.725 -9.6199
9.438744 87.719 -9.6350
9.507140 87.714 -9.6499
9.576033 87.709 -9.6650
9.645425 87.704 -9.6804
9.715320 87.698 -9.6960
9.785721 87.692 -9.7115
9.856632 87.687 -9.7270
9.928058 87.682 -9.7424
10.000000 87.677 -9.7580
10.072464 87.672 -9.7739
10.145453 87.666 -9.7900
10.218971 87.660 -9.8064
10.293022 87.655 -9.8230
10.367610 87.650 -9.8394
10.442738 87.645 -9.8560
10.518411 87.640 -9.8729
10.594631 87.634 -9.8900
10.671404 87.628 -9.9069
10.748734 87.623 -9.9240
10.826623 87.618 -9.9414
10.905077 87.613 -9.9590
10.984100 87.608 -9.9764
11.063695 87.602 -9.9940
11.143867 87.597 -10.0119
11.224621 87.592 -10.0300
11.305959 87.587 -10.0479
11.387886 87.581 -10.0660
11.470407 87.575 -10.0849
11.553527 87.570 -10.1040
11.637249 87.565 -10.1224
11.721577 87.560 -10.1410
11.806517 87.555 -10.1604
11.892071 87.549 -10.1800
11.978246 87.543 -10.1995
12.065045 87.538 -10.2190
12.152473 87.533 -10.2384
12.240536 87.528 -10.2580
12.329235 87.522 -10.2784
12.418578 87.517 -10.2990
12.508568 87.512 -10.3195
12.599211 87.507 -10.3400
12.690510 87.502 -10.3604
12.782471 87.496 -10.3810
12.875097 87.490 -10.4024
12.968395 87.485 -10.4240
13.062370 87.480 -10.4454
13.157025 87.475 -10.4670
13.252366 87.470 -10.4889
13.348398 87.464 -10.5110
13.445127 87.458 -10.5329
13.542556 87.453 -10.5550
13.640691 87.448 -10.5779
13.739536 87.443 -10.6010
13.839099 87.438 -10.6239
13.939383 87.432 -10.6470
14.040393 87.427 -10.6704
14.142136 87.422 -10.6940
14.244616 87.417 -10.7179
14.347837 87.411 -10.7420
14.451808 87.405 -10.7664
14.556532 87.400 -10.7910
14.662014 87.395 -10.8154
14.768262 87.390 -10.8400
14.875278 87.385 -10.8653
14.983070 87.379 -10.8910
15.091644 87.373 -10.9164
15.201005 87.368 -10.9420
15.311157 87.363 -10.9684
15.422109 87.358 -10.9950
15.533863 87.353 -11.0214
15.646428 87.347 -11.0480
15.759809 87.342 -11.0754
15.874010 87.337 -11.1030
15.989040 87.332 -11.1304
16.104904 87.326 -11.1580
16.221605 87.320 -11.1863
16.339155 87.315 -11.2150
16.457554 87.310 -11.2433
16.576813 87.305 -11.2720
16.696936 87.300 -11.3014
16.817928 87.294 -11.3310
16.939798 87.288 -11.3603
17.062551 87.283 -11.3900
17.186193 87.278 -11.4203
17.310732 87.273 -11.4510
17.436172 87.268 -11.4814
17.562521 87.262 -11.5120
17.689787 87.256 -11.5428
17.817974 87.251 -11.5740
17.947090 87.246 -11.6053
18.077143 87.241 -11.6370
18.208138 87.236 -11.6688
18.340080 87.230 -11.7010
18.472980 87.225 -11.7335
18.606844 87.220 -11.7660
18.741676 87.215 -11.7980
18.877487 87.209 -11.8300
19.014280 87.203 -11.8622
19.152065 87.198 -11.8940
19.290850 87.193 -11.9248
19.430639 87.188 -11.9550
19.571442 87.183 -11.9847
19.713264 87.178 -12.0140
19.856115 87.174 -12.0428
20.000000 87.170 -12.0720
20.144928 87.166 -12.1022
20.290907 87.163 -12.1340
20.437943 87.161 -12.1678
20.586044 87.159 -12.2050
20.735220 87.158 -12.2469
20.885475 87.157 -12.2939
21.036821 87.156 -12.3470
21.189262 87.155 -12.4059
21.342808 87.153 -12.4716
21.497467 87.151 -12.5419
21.653246 87.148 -12.6156
21.810154 87.143 -12.6909
21.968201 87.137 -12.7657
22.127390 87.131 -12.8399
22.287735 87.125 -12.9126
22.449242 87.118 -12.9839
22.611917 87.111 -13.0544
22.775772 87.103 -13.1229
22.940815 87.095 -13.1882
23.107054 87.086 -13.2509
23.274498 87.078 -13.3109
23.443153 87.071 -13.3699
23.613033 87.064 -13.4299
23.784142 87.058 -13.4909
23.956491 87.051 -13.5534
24.130091 87.045 -13.6179
24.304947 87.039 -13.6850
24.481071 87.033 -13.7559
24.658470 87.027 -13.8323
24.837156 87.021 -13.9129
25.017136 87.014 -13.9973
25.198421 87.006 -14.0849
25.381020 86.998 -14.1758
25.564941 86.988 -14.2679
25.750195 86.977 -14.3605
25.936790 86.964 -14.4499
26.124741 86.949 -14.5321
26.314051 86.934 -14.6079
26.504732 86.919 -14.6765
26.696796 86.904 -14.7379
26.890253 86.888 -14.7921
27.085112 86.873 -14.8390
27.281382 86.858 -14.8768
27.479073 86.845 -14.9100
27.678198 86.834 -14.9410
27.878765 86.825 -14.9740
28.080786 86.816 -15.0148
28.284271 86.808 -15.0599
28.489231 86.799 -15.1076
28.695675 86.790 -15.1579
28.903616 86.782 -15.2104
29.113064 86.774 -15.2659
29.324028 86.765 -15.3266
29.536524 86.755 -15.3879
29.750557 86.744 -15.4454
29.966141 86.733 -15.5009
30.183289 86.724 -15.5534
30.402010 86.716 -15.6069
30.622314 86.708 -15.6657
30.844217 86.701 -15.7289
31.067726 86.693 -15.7972
31.292856 86.685 -15.8709
31.519617 86.678 -15.9509
31.748020 86.670 -16.0369
31.978081 86.660 -16.1301
32.209808 86.649 -16.2259
32.443211 86.636 -16.3206
32.678310 86.621 -16.4119
32.915108 86.605 -16.4961
33.153625 86.588 -16.5729
33.393871 86.571 -16.6402
33.635857 86.554 -16.6989
33.879597 86.538 -16.7481
34.125103 86.523 -16.7919
34.372387 86.510 -16.8330
34.621464 86.499 -16.8759
34.872345 86.490 -16.9256
35.125042 86.483 -16.9839
35.379574 86.476 -17.0553
35.635948 86.469 -17.1379
35.894180 86.460 -17.2321
36.154285 86.450 -17.3348
36.416275 86.439 -17.4448
36.680161 86.425 -17.5578
36.945961 86.409 -17.6705
37.213688 86.390 -17.7788
37.483353 86.370 -17.8775
37.754974 86.349 -17.9679
38.028561 86.328 -18.0491
38.304131 86.307 -18.1229
38.581699 86.286 -18.1901
38.861279 86.265 -18.2519
39.142883 86.246 -18.3087
39.426529 86.227 -18.3639
39.712231 86.209 -18.4208
40.000000 86.192 -18.4799
40.289856 86.174 -18.5438
40.581814 86.156 -18.6099
40.875885 86.136 -18.6768
41.172089 86.116 -18.7429
41.470440 86.095 -18.8063
41.770950 86.074 -18.8659
42.073643 86.051 -18.9209
42.378525 86.027 -18.9689
42.685616 86.003 -19.0076
42.994934 85.979 -19.0370
43.306492 85.956 -19.0550
43.620308 85.933 -19.0650
43.936401 85.912 -19.0691
44.254780 85.892 -19.0680
44.575470 85.874 -19.0624
44.898483 85.857 -19.0550
45.223835 85.842 -19.0482
45.551544 85.829 -19.0440
45.881630 85.817 -19.0457
46.214108 85.806 -19.0520
46.548996 85.796 -19.0617
46.886307 85.787 -19.0770
47.226067 85.780 -19.0996
47.568283 85.773 -19.1299
47.912983 85.766 -19.1682
48.260181 85.760 -19.2159
48.609894 85.756 -19.2733
48.962143 85.752 -19.3439
49.316940 85.749 -19.4308
49.674313 85.746 -19.5358
50.034271 85.742 -19.6628
50.396843 85.737 -19.8088
50.762039 85.729 -19.9738
51.129883 85.717 -20.1517
51.500389 85.701 -20.3375
51.873581 85.680 -20.5267
52.249481 85.655 -20.7141
52.628101 85.627 -20.8957
53.009464 85.595 -21.0666
53.393593 85.559 -21.2237
53.780506 85.520 -21.3632
54.170223 85.479 -21.4828
54.562763 85.437 -21.5792
54.958145 85.393 -21.6519
55.356396 85.349 -21.6988
55.757530 85.305 -21.7220
56.161572 85.263 -21.7212
56.568542 85.223 -21.7020
56.978462 85.187 -21.6685
57.391350 85.154 -21.6251
57.807232 85.124 -21.5757
58.226128 85.097 -21.5261
58.648056 85.075 -21.4819
59.073048 85.055 -21.4480
59.501114 85.038 -21.4323
59.932281 85.021 -21.4310
60.366577 85.003 -21.4448
60.804020 84.983 -21.4690
61.244629 84.962 -21.4998
61.688435 84.939 -21.5349
62.135452 84.915 -21.5716
62.585712 84.890 -21.6069
63.039234 84.863 -21.6376
63.496040 84.834 -21.6630
63.956161 84.806 -21.6817
64.419617 84.777 -21.6930
64.886421 84.747 -21.6944
65.356621 84.718 -21.6890
65.830215 84.691 -21.6781
66.307251 84.665 -21.6640
66.787743 84.640 -21.6498
67.271713 84.615 -21.6350
67.759193 84.591 -21.6197
68.250206 84.568 -21.6060
68.744774 84.546 -21.5965
69.242928 84.524 -21.5910
69.744690 84.502 -21.5899
70.250084 84.480 -21.5940
70.759148 84.460 -21.6040
71.271896 84.439 -21.6200
71.788361 84.417 -21.6433
72.308571 84.393 -21.6699
72.832550 84.368 -21.6949
73.360321 84.342 -21.7219
73.891922 84.318 -21.7536
74.427376 84.293 -21.7889
74.966705 84.265 -21.8298
75.509949 84.234 -21.8699
76.057121 84.202 -21.9034
76.608261 84.168 -21.9310
77.163399 84.134 -21.9525
77.722557 84.098 -21.9640
78.285767 84.059 -21.9617
78.853058 84.019 -21.9441
79.424461 83.980 -21.9060
80.000000 83.942 -21.8541
80.579712 83.908 -21.7921
81.163628 83.875 -21.7231
81.751770 83.843 -21.6504
82.344177 83.814 -21.5781
82.940880 83.789 -21.5103
83.541901 83.765 -21.4511
84.147285 83.741 -21.4075
84.757050 83.717 -21.3751
85.371231 83.692 -21.3523
85.989868 83.666 -21.3370
86.612984 83.638 -21.3271
87.240616 83.609 -21.3210
87.872803 83.578 -21.3169
88.509560 83.545 -21.3130
89.150940 83.510 -21.3079
89.796967 83.473 -21.2990
90.447670 83.434 -21.2853
91.103088 83.392 -21.2611
91.763260 83.347 -21.2207
92.428215 83.301 -21.1631
93.097992 83.255 -21.0852
93.772614 83.209 -20.9882
94.452133 83.162 -20.8722
95.136566 83.116 -20.7373
95.825966 83.072 -20.5809
96.520363 83.031 -20.4114
97.219788 82.994 -20.2348
97.924286 82.960 -20.0564
98.633881 82.929 -19.8822
99.348625 82.900 -19.7163
100.068542 82.874 -19.5652
100.793686 82.848 -19.4283
101.524078 82.821 -19.3102
102.259766 82.791 -19.2023
103.000778 82.757 -19.0998
103.747162 82.719 -18.9962
104.498962 82.678 -18.8857
105.256203 82.634 -18.7613
106.018929 82.585 -18.6161
106.787186 82.532 -18.4444
107.561012 82.478 -18.2387
108.340446 82.422 -17.9974
109.125526 82.366 -17.7146
109.916290 82.312 -17.3956
110.712791 82.262 -17.0419
111.515060 82.216 -16.6598
112.323143 82.174 -16.2569
113.137085 82.135 -15.8319
113.956924 82.099 -15.3863
114.782700 82.066 -14.9192
115.614464 82.038 -14.4298
116.452255 82.014 -13.9200
117.296112 81.996 -13.3909
118.146095 81.984 -12.8452
119.002228 81.978 -12.2836
119.864563 81.980 -11.7136
120.733154 81.991 -11.1401
121.608040 82.010 -10.5712
122.489258 82.037 -10.0148
123.376869 82.073 -9.4763
124.270905 82.116 -8.9616
125.171425 82.167 -8.4779
126.078468 82.225 -8.0335
126.992081 82.288 -7.6299
127.912323 82.355 -7.2709
128.839233 82.426 -6.9566
129.772842 82.499 -6.6861
130.713242 82.576 -6.4654
131.660431 82.656 -6.3008
132.614502 82.738 -6.1912
133.575485 82.816 -6.1398
134.543427 82.893 -6.1400
135.518387 82.966 -6.1870
136.500412 83.036 -6.2788
137.489548 83.101 -6.4147
138.485855 83.161 -6.5855
139.489380 83.213 -6.7842
140.500168 83.260 -7.0045
141.518295 83.301 -7.2382
142.543793 83.338 -7.4844
143.576721 83.370 -7.7407
144.617142 83.397 -8.0034
145.665100 83.420 -8.2677
146.720642 83.438 -8.5333
147.783844 83.453 -8.7986
148.854752 83.464 -9.0633
149.933411 83.471 -9.3267
151.019897 83.475 -9.5874
152.114243 83.477 -9.8441
153.216522 83.475 -10.0953
154.326797 83.469 -10.3396
155.445114 83.460 -10.5745
156.571533 83.449 -10.7963
157.706116 83.435 -11.0075
158.848923 83.421 -11.2104
160.000000 83.404 -11.4025
161.159424 83.384 -11.5832
162.327255 83.362 -11.7496
163.503540 83.338 -11.8985
164.688354 83.314 -12.0307
165.881760 83.290 -12.1451
167.083801 83.266 -12.2448
168.294571 83.243 -12.3314
169.514099 83.220 -12.4078
170.742462 83.199 -12.4770
171.979736 83.178 -12.5398
173.225967 83.158 -12.5964
174.481232 83.139 -12.6519
175.745605 83.123 -12.7110
177.019119 83.108 -12.7758
178.301880 83.091 -12.8524
179.593933 83.073 -12.9338
180.895340 83.053 -13.0157
182.206177 83.031 -13.0958
183.526520 83.007 -13.1710
184.856430 82.982 -13.2399
186.195984 82.955 -13.3001
187.545227 82.928 -13.3509
188.904266 82.900 -13.3897
190.273132 82.873 -13.4199
191.651932 82.847 -13.4428
193.040726 82.821 -13.4619
194.439575 82.795 -13.4817
195.848572 82.769 -13.5009
197.267761 82.743 -13.5209
198.697250 82.715 -13.5390
200.137085 82.686 -13.5545
201.587372 82.654 -13.5620
203.048157 82.621 -13.5579
204.519531 82.585 -13.5361
206.001556 82.547 -13.4883
207.494324 82.509 -13.4172
208.997925 82.474 -13.3210
210.512405 82.441 -13.2043
212.037857 82.410 -13.0700
213.574371 82.383 -12.9214
215.122025 82.361 -12.7590
216.680893 82.343 -12.5944
218.251053 82.332 -12.4382
219.832581 82.325 -12.2934
221.425583 82.319 -12.1671
223.030121 82.315 -12.0573
224.646286 82.313 -11.9632
226.274170 82.312 -11.8882
227.913849 82.313 -11.8357
229.565399 82.314 -11.8041
231.228928 82.312 -11.7942
232.904510 82.308 -11.8020
234.592224 82.302 -11.8248
236.292191 82.294 -11.8579
238.004456 82.281 -11.8975
239.729126 82.265 -11.9379
241.466309 82.246 -11.9721
243.216080 82.225 -11.9999
244.978516 82.201 -12.0203
246.753738 82.175 -12.0290
248.541809 82.146 -12.0217
250.342850 82.116 -11.9971
252.156937 82.086 -11.9517
253.984161 82.056 -11.8882
255.824646 82.028 -11.8070
257.678467 82.001 -11.7123
259.545685 81.977 -11.6067
261.426483 81.955 -11.4943
263.320862 81.936 -11.3784
265.229004 81.919 -11.2633
267.150970 81.905 -11.1531
269.086853 81.893 -11.0513
271.036774 81.883 -10.9638
273.000824 81.873 -10.8872
274.979095 81.861 -10.8214
276.971710 81.848 -10.7622
278.978760 81.835 -10.7058
281.000336 81.820 -10.6502
283.036591 81.804 -10.5919
285.087585 81.787 -10.5302
287.153442 81.771 -10.4616
289.234283 81.755 -10.3912
291.330200 81.742 -10.3209
293.441284 81.730 -10.2562
295.567688 81.720 -10.2032
297.709503 81.710 -10.1621
299.866821 81.699 -10.1357
302.039795 81.687 -10.1220
304.228485 81.673 -10.1215
306.433044 81.656 -10.1290
308.653595 81.636 -10.1415
310.890228 81.612 -10.1530
313.143066 81.585 -10.1569
315.412231 81.554 -10.1510
317.697845 81.521 -10.1315
320.000000 81.486 -10.0971
322.318848 81.450 -10.0452
324.654510 81.413 -9.9762
327.007080 81.376 -9.8891
329.376709 81.338 -9.7853
331.763519 81.302 -9.6650
334.167603 81.266 -9.5314
336.589142 81.232 -9.3886
339.028198 81.198 -9.2355
341.484924 81.164 -9.0727
343.959473 81.131 -8.8995
346.451935 81.099 -8.7138
348.962463 81.069 -8.5205
351.491211 81.041 -8.3249
354.038239 81.014 -8.1246
356.603760 80.986 -7.9197
359.187866 80.959 -7.7087
361.790680 80.933 -7.4885
364.412354 80.909 -7.2636
367.053040 80.887 -7.0385
369.712860 80.865 -6.8107
372.391968 80.843 -6.5794
375.090454 80.822 -6.3447
377.808533 80.803 -6.1059
380.546265 80.784 -5.8647
383.303864 80.766 -5.6233
386.081451 80.748 -5.3797
388.879150 80.731 -5.1325
391.697144 80.715 -4.8828
394.535522 80.700 -4.6311
397.394501 80.686 -4.3777
400.274170 80.672 -4.1233
403.174744 80.659 -3.8668
406.096313 80.647 -3.6072
409.039062 80.635 -3.3458
412.003113 80.624 -3.0844
414.988647 80.614 -2.8209
417.995850 80.603 -2.5539
421.024811 80.593 -2.2829
424.075714 80.584 -2.0061
427.148743 80.575 -1.7249
430.244049 80.568 -1.4402
433.361786 80.561 -1.1509
436.502106 80.555 -0.8564
439.665161 80.550 -0.5569
442.851166 80.547 -0.2526
446.060242 80.545 0.0560
449.292572 80.545 0.3688
452.548340 80.547 0.6850
455.827698 80.550 1.0048
459.130798 80.556 1.3250
462.457855 80.566 1.6435
465.809021 80.579 1.9570
469.184448 80.593 2.2625
472.584381 80.610 2.5571
476.008911 80.630 2.8380
479.458252 80.653 3.1022
482.932617 80.676 3.3451
486.432159 80.700 3.5683
489.957031 80.723 3.7710
493.507477 80.745 3.9564
497.083618 80.766 4.1268
500.685699 80.784 4.2855
504.313873 80.799 4.4349
507.968323 80.812 4.5805
511.649292 80.822 4.7280
515.356934 80.830 4.8795
519.091370 80.837 5.0393
522.852966 80.843 5.2074
526.641724 80.848 5.3856
530.458008 80.853 5.5724
534.301941 80.859 5.7682
538.173706 80.867 5.9683
542.073547 80.876 6.1688
546.001648 80.886 6.3673
549.958191 80.896 6.5591
553.943420 80.906 6.7474
557.957520 80.914 6.9326
562.000671 80.920 7.1194
566.073181 80.925 7.3108
570.175171 80.928 7.5113
574.306885 80.929 7.7250
578.468567 80.928 7.9562
582.660400 80.927 8.2106
586.882568 80.926 8.4880
591.135376 80.928 8.7925
595.419006 80.933 9.1169
599.733643 80.942 9.4569
604.079590 80.956 9.8078
608.456970 80.973 10.1645
612.866089 80.995 10.5228
617.307190 81.022 10.8780
621.780457 81.054 11.2259
626.286133 81.088 11.5605
630.824463 81.126 11.8820
635.395691 81.166 12.1882
640.000000 81.209 12.4790
644.637695 81.253 12.7537
649.309021 81.298 13.0121
654.014160 81.345 13.2532
658.753418 81.392 13.4793
663.527039 81.438 13.6916
668.335205 81.485 13.8923
673.178284 81.532 14.0842
678.056396 81.579 14.2674
682.969849 81.626 14.4438
687.918945 81.675 14.6114
692.903870 81.725 14.7702
697.924927 81.777 14.9165
702.982422 81.830 15.0474
708.076477 81.884 15.1606
713.207520 81.938 15.2525
718.375732 81.993 15.3238
723.581360 82.046 15.3732
728.824707 82.098 15.4029
734.106079 82.148 15.4123
739.425720 82.195 15.4080
744.783936 82.236 15.3945
750.180908 82.274 15.3781
755.617065 82.310 15.3668
761.092529 82.344 15.3600
766.607727 82.376 15.3596
772.162903 82.407 15.3660
777.758301 82.437 15.3814
783.394287 82.468 15.4019
789.071045 82.500 15.4250
794.789001 82.533 15.4479
800.548340 82.565 15.4662
806.349487 82.597 15.4829
812.192627 82.627 15.4996
818.078125 82.656 15.5169
824.006226 82.685 15.5360
829.977295 82.713 15.5579
835.991699 82.740 15.5835
842.049622 82.766 15.6149
848.151428 82.792 15.6551
854.297485 82.819 15.7028
860.488098 82.846 15.7584
866.723572 82.873 15.8198
873.004211 82.902 15.8848
879.330322 82.932 15.9537
885.702332 82.962 16.0261
892.120483 82.993 16.1027
898.585144 83.024 16.1842
905.096680 83.057 16.2707
911.655396 83.091 16.3630
918.261597 83.128 16.4596
924.915710 83.167 16.5628
931.618042 83.211 16.6627
938.368896 83.260 16.7525
945.168762 83.313 16.8248
952.017822 83.369 16.8696
958.916504 83.427 16.8870
965.865234 83.484 16.8723
972.864319 83.540 16.8292
979.914062 83.593 16.7562
987.014954 83.643 16.6644
994.167236 83.687 16.5607
1001.371399 83.726 16.4564
1008.627747 83.760 16.3641
1015.936646 83.793 16.2863
1023.298584 83.825 16.2317
1030.713867 83.858 16.1941
1038.182739 83.895 16.1756
1045.705933 83.937 16.1601
1053.283447 83.986 16.1381
1060.916016 84.042 16.0913
1068.603882 84.103 15.9980
1076.347412 84.166 15.8577
1084.147095 84.225 15.6574
1092.003296 84.278 15.4129
1099.916382 84.322 15.1294
1107.886841 84.356 14.8263
1115.915039 84.379 14.5187
1124.001343 84.392 14.2240
1132.146362 84.394 13.9619
1140.350342 84.390 13.7417
1148.613770 84.381 13.5819
1156.937134 84.371 13.4753
1165.320801 84.364 13.4263
1173.765137 84.361 13.4190
1182.270752 84.365 13.4432
1190.838013 84.376 13.4858
1199.467285 84.393 13.5318
1208.159180 84.415 13.5758
1216.913940 84.441 13.6072
1225.732178 84.469 13.6279
1234.614380 84.498 13.6362
1243.560913 84.528 13.6340
1252.572266 84.558 13.6221
1261.648926 84.589 13.6021
1270.791382 84.620 13.5761
1280.000000 84.651 13.5441
1289.275391 84.682 13.5065
1298.618042 84.713 13.4642
1308.028320 84.743 13.4184
1317.506836 84.773 13.3692
1327.054077 84.803 13.3172
1336.670410 84.834 13.2622
1346.356567 84.864 13.2045
1356.112793 84.893 13.1442
1365.939697 84.922 13.0809
1375.837891 84.950 13.0173
1385.807739 84.976 12.9549
1395.849854 85.002 12.8962
1405.964844 85.027 12.8446
1416.152954 85.052 12.7992
1426.415039 85.077 12.7599
1436.751465 85.103 12.7271
1447.162720 85.129 12.7017
1457.649414 85.157 12.6811
1468.212158 85.187 12.6651
1478.851440 85.218 12.6481
1489.567871 85.251 12.6239
1500.361816 85.285 12.5941
1511.234131 85.319 12.5576
1522.185059 85.352 12.5162
1533.215454 85.384 12.4701
1544.325806 85.416 12.4232
1555.516602 85.446 12.3788
1566.788574 85.476 12.3392
1578.142090 85.505 12.3077
1589.578003 85.534 12.2841
1601.096680 85.564 12.2694
1612.698975 85.595 12.2620
1624.385254 85.627 12.2616
1636.156250 85.660 12.2660
1648.012451 85.695 12.2733
1659.954590 85.732 12.2830
1671.983398 85.769 12.2933
1684.099243 85.807 12.3049
1696.302856 85.846 12.3171
1708.594971 85.886 12.3319
1720.976196 85.926 12.3512
1733.447144 85.967 12.3749
1746.008423 86.010 12.4042
1758.660645 86.055 12.4379
1771.404663 86.100 12.4752
1784.240967 86.148 12.5158
1797.170288 86.198 12.5598
1810.193359 86.251 12.6048
1823.310791 86.306 12.6488
1836.523193 86.363 12.6918
1849.831421 86.421 12.7330
1863.236084 86.482 12.7728
1876.737793 86.545 12.8123
1890.337524 86.610 12.8498
1904.035645 86.677 12.8834
1917.833008 86.747 12.9149
1931.730469 86.817 12.9454
1945.728638 86.891 12.9749
1959.828125 86.968 13.0042
1974.029907 87.049 13.0309
1988.334473 87.132 13.0533
2002.742798 87.220 13.0699
2017.255493 87.311 13.0800
2031.873291 87.407 13.0800
2046.597168 87.507 13.0665
2061.427734 87.611 13.0382
2076.365479 87.718 12.9932
2091.411865 87.831 12.9293
2106.566895 87.947 12.8447
2121.832031 88.067 12.7365
2137.207764 88.192 12.6017
2152.694824 88.319 12.4397
2168.294189 88.451 12.2509
2184.006592 88.586 12.0291
2199.832764 88.728 11.7683
2215.773682 88.872 11.4673
2231.830078 89.018 11.1235
2248.002686 89.166 10.7347
2264.292725 89.319 10.2999
2280.700684 89.474 9.8132
2297.227539 89.631 9.2683
2313.874268 89.787 8.6656
2330.641602 89.944 8.0048
2347.530273 90.100 7.2822
2364.541504 90.256 6.4949
2381.676025 90.410 5.6410
2398.934570 90.561 4.7165
2416.318359 90.706 3.7256
2433.827881 90.845 2.6699
2451.464355 90.976 1.5538
2469.228760 91.100 0.3804
2487.121826 91.216 -0.8446
2505.144531 91.321 -2.1175
2523.297852 91.416 -3.4299
2541.582764 91.500 -4.7746
2560.000000 91.573 -6.1449
2578.550781 91.635 -7.5334
2597.236084 91.686 -8.9355
2616.056641 91.727 -10.3467
2635.013672 91.757 -11.7590
2654.108154 91.775 -13.1653
2673.340820 91.782 -14.5590
2692.713135 91.780 -15.9323
2712.225586 91.768 -17.2817
2731.879395 91.747 -18.6019
2751.675781 91.719 -19.8901
2771.615479 91.684 -21.1419
2791.699707 91.643 -22.3577
2811.929688 91.598 -23.5359
2832.305908 91.548 -24.6787
2852.830078 91.495 -25.7869
2873.502930 91.438 -26.8634
2894.325439 91.380 -27.9112
2915.298828 91.319 -28.9304
2936.424316 91.255 -29.9229
2957.702881 91.187 -30.8859
2979.135742 91.117 -31.8170
3000.723633 91.044 -32.7171
3022.468262 90.970 -33.5868
3044.370117 90.893 -34.4242
3066.430908 90.815 -35.2282
3088.651611 90.735 -35.9986
3111.033203 90.655 -36.7343
3133.577148 90.575 -37.4377
3156.284180 90.496 -38.1100
3179.156006 90.418 -38.7540
3202.193359 90.341 -39.3717
3225.397949 90.265 -39.9662
3248.770508 90.192 -40.5410
3272.312500 90.120 -41.0975
3296.024902 90.050 -41.6385
3319.909180 89.980 -42.1636
3343.966797 89.912 -42.6727
3368.198486 89.844 -43.1677
3392.605713 89.779 -43.6494
3417.189941 89.716 -44.1208
3441.952393 89.654 -44.5855
3466.894287 89.593 -45.0430
3492.016846 89.532 -45.4941
3517.321289 89.471 -45.9390
3542.809326 89.412 -46.3779
3568.481934 89.353 -46.8110
3594.340576 89.293 -47.2409
3620.386719 89.232 -47.6610
3646.621582 89.168 -48.0672
3673.046387 89.103 -48.4552
3699.662842 89.038 -48.8202
3726.472168 88.971 -49.1605
3753.475586 88.904 -49.4733
3780.675049 88.837 -49.7568
3808.071289 88.772 -50.0078
3835.666016 88.708 -50.2280
3863.460938 88.648 -50.4172
3891.457275 88.590 -50.5783
3919.656250 88.537 -50.7139
3948.059814 88.488 -50.8255
3976.668945 88.444 -50.9149
4005.485596 88.404 -50.9847
4034.510986 88.370 -51.0374
4063.746582 88.342 -51.0758
4093.194336 88.320 -51.1036
4122.855469 88.303 -51.1209
4152.730957 88.291 -51.1283
4182.823730 88.286 -51.1280
4213.133789 88.289 -51.1209
4243.664062 88.299 -51.1120
4274.415527 88.316 -51.1053
4305.389648 88.342 -51.1050
4336.588379 88.376 -51.1145
4368.013184 88.420 -51.1398
4399.665527 88.472 -51.1843
4431.547363 88.534 -51.2585
4463.660156 88.606 -51.3732
4496.005371 88.687 -51.5321
4528.585449 88.772 -51.7425
4561.401367 88.865 -52.0046
4594.455078 88.963 -52.3188
4627.748535 89.068 -52.6920
4661.283203 89.180 -53.1305
4695.060547 89.295 -53.6373
4729.083008 89.415 -54.2167
4763.352051 89.537 -54.8717
4797.869141 89.664 -55.6020
4832.636719 89.793 -56.4216
4867.655762 89.928 -57.3411
4902.928711 90.063 -58.3707
4938.457520 90.197 -59.5254
4974.243652 90.324 -60.8016
5010.289062 90.443 -62.2031
5046.595703 90.550 -63.7231
5083.165527 90.645 -65.3604
5120.000000 90.722 -67.1022
5157.101562 90.778 -68.9450
5194.472168 90.811 -70.8595
5232.113281 90.816 -72.8232
5270.027344 90.795 -74.8120
5308.216309 90.750 -76.8012
5346.681641 90.679 -78.7695
5385.426270 90.581 -80.6963
5424.451172 90.458 -82.5541
5463.758789 90.309 -84.3144
5503.351562 90.139 -85.9593
5543.230957 89.951 -87.4659
5583.399414 89.747 -88.8208
5623.859375 89.528 -90.0046
5664.611816 89.301 -91.0115
5705.660156 89.071 -91.8248
5747.005859 88.843 -92.4582
5788.650879 88.625 -92.9119
5830.597656 88.420 -93.2098
5872.848633 88.234 -93.3651
5915.405762 88.070 -93.4100
5958.271484 87.933 -93.3697
6001.447266 87.824 -93.2785
6044.936523 87.746 -93.1699
6088.740234 87.694 -93.0724
6132.861816 87.670 -93.0200
6177.303223 87.668 -93.0307
6222.066406 87.686 -93.1311
6267.154297 87.721 -93.3297
6312.568359 87.768 -93.6432
6358.312012 87.824 -94.0745
6404.386719 87.886 -94.6333
6450.795898 87.951 -95.3162
6497.541016 88.014 -96.1261
6544.625000 88.073 -97.0531
6592.049805 88.125 -98.0910
6639.818359 88.170 -99.2309
6687.933594 88.205 -100.4650
6736.396973 88.230 -101.7830
6785.211426 88.241 -103.1773
6834.379883 88.238 -104.6324
6883.904785 88.219 -106.1323
6933.788574 88.186 -107.6710
6984.033691 88.141 -109.2404
7034.642578 88.081 -110.8310
7085.618652 88.004 -112.4352
7136.963867 87.911 -114.0390
7188.681152 87.802 -115.6268
7240.773438 87.679 -117.1952
7293.243164 87.543 -118.7386
7346.092773 87.393 -120.2475
7399.325684 87.226 -121.7147
7452.944336 87.044 -123.1271
7506.951172 86.850 -124.4715
7561.350098 86.643 -125.7407
7616.142578 86.425 -126.9260
7671.332031 86.195 -128.0176
7726.921875 85.955 -129.0049
7782.914551 85.707 -129.8818
7839.312500 85.455 -130.6394
7896.119629 85.198 -131.2769
7953.337891 84.940 -131.7891
8010.971191 84.683 -132.1812
8069.021973 84.431 -132.4545
8127.493164 84.185 -132.6164
8186.388672 83.946 -132.6717
8245.710938 83.717 -132.6295
8305.461914 83.500 -132.4974
8365.647461 83.295 -132.2843
8426.267578 83.103 -132.0007
8487.328125 82.923 -131.6500
8548.831055 82.756 -131.2371
8610.779297 82.603 -130.7676
8673.176758 82.466 -130.2460
8736.026367 82.347 -129.6812
8799.331055 82.243 -129.0802
8863.094727 82.157 -128.4524
8927.320312 82.091 -127.8068
8992.010742 82.043 -127.1515
9057.170898 82.014 -126.4937
9122.802734 82.006 -125.8454
9188.910156 82.020 -125.2160
9255.497070 82.055 -124.6201
9322.566406 82.110 -124.0712
9390.121094 82.186 -123.5814
9458.166016 82.281 -123.1628
9526.704102 82.396 -122.8285
9595.738281 82.530 -122.5920
9665.273438 82.681 -122.4644
9735.311523 82.847 -122.4554
9805.857422 83.028 -122.5819
9876.915039 83.225 -122.8594
9948.487305 83.432 -123.3011
10020.578125 83.645 -123.9252
10093.191406 83.861 -124.7321
10166.331055 84.076 -125.7272
10240.000000 84.288 -126.9142
10314.203125 84.494 -128.3034
10388.944336 84.686 -129.8801
10464.226562 84.857 -131.6420
10540.054688 85.007 -133.5611
10616.432617 85.133 -135.6191
10693.363281 85.232 -137.7858
10770.852539 85.301 -140.0392
10848.902344 85.340 -142.3395
10927.517578 85.347 -144.6497
11006.703125 85.326 -146.9397
11086.461914 85.279 -149.1718
11166.798828 85.209 -151.3322
11247.718750 85.123 -153.3947
11329.223633 85.024 -155.3591
11411.320312 84.916 -157.2111
11494.011719 84.807 -158.9687
11577.301758 84.700 -160.6359
11661.195312 84.599 -162.2412
11745.697266 84.508 -163.8055
11830.811523 84.426 -165.3566
11916.542969 84.356 -166.9223
12002.894531 84.292 -168.5230
12089.873047 84.235 -170.1869
12177.480469 84.179 -171.9189
12265.723633 84.120 -173.7379
12354.606445 84.053 -175.6306
12444.132812 83.974 -177.5981
12534.308594 83.880 -179.6160
12625.136719 83.766 178.3253
12716.624023 83.629 176.2708
12808.773438 83.463 174.2534
12901.591797 83.272 172.3206
12995.082031 83.058 170.5244
13089.250000 82.827 168.8858
13184.099609 82.585 167.4454
13279.636719 82.342 166.1949
13375.867188 82.105 165.1529
13472.793945 81.885 164.2795
13570.422852 81.694 163.5640
13668.759766 81.539 162.9376
13767.809570 81.431 162.3500
13867.577148 81.365 161.7338
13968.067383 81.346 161.0204
14069.285156 81.363 160.1614
14171.237305 81.413 159.0906
14273.927734 81.484 157.7925
14377.362305 81.563 156.2233
14481.546875 81.643 154.4030
14586.486328 81.711 152.3240
14692.185547 81.762 150.0280
14798.651367 81.787 147.5353
14905.888672 81.785 144.9036
15013.902344 81.749 142.1806
15122.700195 81.683 139.4167
15232.285156 81.591 136.6718
15342.664062 81.479 133.9662
15453.843750 81.352 131.3478
15565.829102 81.225 128.7937
15678.625000 81.109 126.3231
15792.239258 81.015 123.8564
15906.675781 80.961 121.3600
16021.942383 80.946 118.7149
16138.043945 80.983 115.8330
16254.986328 81.057 112.5872
16372.777344 81.169 108.8474
16491.421875 81.290 104.5327
16610.923828 81.402 99.5089
16731.294922 81.476 93.8081
16852.535156 81.479 87.3849
16974.656250 81.400 80.3424
17097.662109 81.224 72.7006
17221.558594 80.927 64.6696
17346.353516 80.479 56.3713
17472.052734 79.878 48.0957
17598.662109 79.110 40.0949
17726.189453 78.181 32.6075
17854.640625 77.096 25.8713
17984.021484 75.845 20.1395
18114.341797 74.412 15.6909
18245.605469 72.819 12.6855
18377.820312 71.069 11.4246
18510.994141 69.218 11.7634
18645.132812 67.316 13.7516
18780.242188 65.385 17.1025
18916.332031 63.421 21.6414
19053.408203 61.556 27.0741
19191.476562 59.920 33.1591
19330.546875 58.528 39.5660
19470.623047 57.450 45.9467
19611.714844 56.642 52.1100
19753.830078 56.113 57.7388
19896.974609 55.769 62.8645
