* Measurement data measured by REW V5.20.13
* Source: C:\Users\kurin\Desktop\Targets and Curves\Resolve\Img\Files\Focal_Bathys_5128_SPL.txt
* Format: Comma/Tab/Space delimited data
* Dated: Aug 14, 2023 3:46:50 PM
* REW Settings:
*  C-weighting compensation: Off
*  Target level: 75.0 dB
* Note: ; Measurement imported from C:\Users\kurin\Desktop\Targets and Curves\Resolve\Img\Files\Focal_Bathys_5128_SPL.txt Format: Comma/Tab/Space delimited data 623 values loaded, 5 Hz to 39,792 Hz log spaced 
* Measurement: Focal_Bathys_5128_SPL
* Smoothing: 1/48 octave
* Frequency Step: 1/96 octave
* Start Frequency: 5.000 Hz
*
* Freq(Hz) SPL(dB) Phase(degrees)
5.000000 92.302 13.4220
5.036232 92.307 13.4133
5.072727 92.312 13.4040
5.109486 92.318 13.3938
5.146511 92.325 13.3820
5.183805 92.334 13.3672
5.221369 92.343 13.3510
5.259205 92.353 13.3348
5.297316 92.363 13.3180
5.335702 92.374 13.3002
5.374367 92.385 13.2820
5.413311 92.396 13.2641
5.452538 92.407 13.2460
5.492050 92.418 13.2276
5.531847 92.429 13.2090
5.571934 92.440 13.1901
5.612310 92.451 13.1710
5.652979 92.462 13.1520
5.693943 92.473 13.1330
5.735204 92.484 13.1141
5.776763 92.495 13.0950
5.818624 92.506 13.0756
5.860788 92.517 13.0560
5.903258 92.528 13.0361
5.946035 92.539 13.0160
5.989123 92.550 12.9961
6.032523 92.561 12.9760
6.076237 92.571 12.9556
6.120268 92.582 12.9350
6.164618 92.593 12.9146
6.209289 92.604 12.8940
6.254284 92.615 12.8731
6.299605 92.626 12.8520
6.345255 92.637 12.8311
6.391235 92.648 12.8100
6.437549 92.659 12.7886
6.484198 92.670 12.7670
6.531185 92.681 12.7451
6.578513 92.692 12.7230
6.626183 92.703 12.7011
6.674199 92.714 12.6790
6.722563 92.725 12.6566
6.771278 92.736 12.6340
6.820345 92.747 12.6111
6.869768 92.758 12.5880
6.919549 92.769 12.5651
6.969691 92.780 12.5420
7.020196 92.791 12.5186
7.071068 92.802 12.4950
7.122308 92.813 12.4711
7.173919 92.824 12.4470
7.225904 92.835 12.4231
7.278266 92.846 12.3990
7.331007 92.857 12.3746
7.384131 92.868 12.3500
7.437639 92.879 12.3251
7.491535 92.890 12.3000
7.545822 92.901 12.2746
7.600502 92.912 12.2490
7.655579 92.923 12.2236
7.711054 92.934 12.1980
7.766932 92.945 12.1721
7.823214 92.956 12.1460
7.879904 92.967 12.1196
7.937005 92.978 12.0930
7.994520 92.989 12.0666
8.052452 93.000 12.0400
8.110803 93.010 12.0126
8.169578 93.021 11.9850
8.228777 93.032 11.9576
8.288406 93.043 11.9300
8.348468 93.054 11.9021
8.408964 93.065 11.8740
8.469899 93.076 11.8456
8.531276 93.087 11.8170
8.593097 93.098 11.7886
8.655366 93.109 11.7600
8.718086 93.120 11.7306
8.781260 93.131 11.7010
8.844893 93.142 11.6716
8.908987 93.153 11.6420
8.973545 93.164 11.6116
9.038571 93.175 11.5810
9.104069 93.186 11.5506
9.170040 93.197 11.5200
9.236490 93.208 11.4891
9.303422 93.219 11.4580
9.370838 93.230 11.4266
9.438744 93.241 11.3950
9.507140 93.252 11.3631
9.576033 93.263 11.3310
9.645425 93.274 11.2986
9.715320 93.285 11.2660
9.785721 93.296 11.2331
9.856632 93.307 11.2000
9.928058 93.318 11.1666
10.000000 93.329 11.1330
10.072464 93.340 11.0992
10.145453 93.351 11.0650
10.218971 93.362 11.0306
10.293022 93.373 10.9960
10.367610 93.384 10.9611
10.442738 93.395 10.9260
10.518411 93.406 10.8906
10.594631 93.417 10.8550
10.671404 93.428 10.8191
10.748734 93.439 10.7830
10.826623 93.449 10.7467
10.905077 93.460 10.7100
10.984100 93.471 10.6727
11.063695 93.482 10.6350
11.143867 93.493 10.5976
11.224621 93.504 10.5600
11.305959 93.515 10.5217
11.387886 93.526 10.4830
11.470407 93.537 10.4441
11.553527 93.548 10.4050
11.637249 93.559 10.3656
11.721577 93.570 10.3260
11.806517 93.581 10.2862
11.892071 93.592 10.2460
11.978246 93.603 10.2052
12.065045 93.614 10.1640
12.152473 93.625 10.1226
12.240536 93.636 10.0810
12.329235 93.647 10.0392
12.418578 93.658 9.9970
12.508568 93.669 9.9547
12.599211 93.680 9.9120
12.690510 93.691 9.8687
12.782471 93.702 9.8250
12.875097 93.713 9.7812
12.968395 93.724 9.7370
13.062370 93.735 9.6922
13.157025 93.746 9.6470
13.252366 93.757 9.6016
13.348398 93.768 9.5560
13.445127 93.779 9.5102
13.542556 93.790 9.4641
13.640691 93.801 9.4173
13.739536 93.812 9.3700
13.839099 93.823 9.3222
13.939383 93.834 9.2740
14.040393 93.845 9.2257
14.142136 93.856 9.1770
14.244616 93.867 9.1277
14.347837 93.878 9.0780
14.451808 93.889 9.0282
14.556532 93.900 8.9780
14.662014 93.910 8.9273
14.768262 93.921 8.8761
14.875278 93.932 8.8243
14.983070 93.943 8.7721
15.091644 93.954 8.7192
15.201005 93.965 8.6660
15.311157 93.976 8.6128
15.422109 93.987 8.5590
15.533863 93.998 8.5043
15.646428 94.009 8.4490
15.759809 94.020 8.3932
15.874010 94.031 8.3370
15.989040 94.042 8.2808
16.104904 94.053 8.2240
16.221605 94.064 8.1664
16.339155 94.075 8.1081
16.457554 94.086 8.0493
16.576813 94.097 7.9900
16.696936 94.108 7.9303
16.817928 94.119 7.8700
16.939798 94.130 7.8094
17.062551 94.141 7.7481
17.186193 94.152 7.6859
17.310732 94.163 7.6230
17.436172 94.174 7.5594
17.562521 94.185 7.4950
17.689787 94.196 7.4304
17.817974 94.207 7.3651
17.947090 94.218 7.2985
18.077143 94.229 7.2310
18.208138 94.240 7.1631
18.340080 94.251 7.0941
18.472980 94.262 7.0237
18.606844 94.273 6.9520
18.741676 94.284 6.8793
18.877487 94.295 6.8051
19.014280 94.306 6.7291
19.152065 94.317 6.6511
19.290850 94.328 6.5708
19.430639 94.338 6.4881
19.571442 94.348 6.4023
19.713264 94.358 6.3141
19.856115 94.367 6.2230
20.000000 94.375 6.1311
20.144928 94.383 6.0395
20.290907 94.389 5.9501
20.437943 94.393 5.8643
20.586044 94.397 5.7841
20.735220 94.401 5.7114
20.885475 94.404 5.6471
21.036821 94.406 5.5931
21.189262 94.409 5.5481
21.342808 94.414 5.5121
21.497467 94.420 5.4820
21.653246 94.428 5.4553
21.810154 94.437 5.4300
21.968201 94.448 5.4041
22.127390 94.460 5.3750
22.287735 94.474 5.3398
22.449242 94.489 5.2980
22.611917 94.504 5.2479
22.775772 94.520 5.1901
22.940815 94.536 5.1239
23.107054 94.551 5.0521
23.274498 94.565 4.9768
23.443153 94.578 4.8991
23.613033 94.591 4.8210
23.784142 94.604 4.7421
23.956491 94.617 4.6614
24.130091 94.629 4.5821
24.304947 94.639 4.5072
24.481071 94.649 4.4361
24.658470 94.661 4.3707
24.837156 94.674 4.3071
25.017136 94.688 4.2411
25.198421 94.702 4.1751
25.381020 94.717 4.1112
25.564941 94.733 4.0451
25.750195 94.751 3.9738
25.936790 94.771 3.8951
26.124741 94.790 3.8048
26.314051 94.810 3.7051
26.504732 94.830 3.5970
26.696796 94.849 3.4801
26.890253 94.868 3.3536
27.085112 94.886 3.2212
27.281382 94.901 3.0853
27.479073 94.915 2.9482
27.678198 94.929 2.8132
27.878765 94.942 2.6792
28.080786 94.955 2.5457
28.284271 94.968 2.4132
28.489231 94.980 2.2829
28.695675 94.993 2.1522
28.903616 95.007 2.0187
29.113064 95.022 1.8822
29.324028 95.035 1.7413
29.536524 95.048 1.5972
29.750557 95.061 1.4506
29.966141 95.073 1.3012
30.183289 95.085 1.1477
30.402010 95.097 0.9932
30.622314 95.106 0.8399
30.844217 95.115 0.6892
31.067726 95.123 0.5439
31.292856 95.132 0.4022
31.519617 95.141 0.2629
31.748020 95.151 0.1262
31.978081 95.160 -0.0080
32.209808 95.170 -0.1398
32.443211 95.181 -0.2685
32.678310 95.193 -0.3968
32.915108 95.206 -0.5265
33.153625 95.221 -0.6598
33.393871 95.237 -0.8001
33.635857 95.253 -0.9468
33.879597 95.269 -1.1008
34.125103 95.286 -1.2618
34.372387 95.304 -1.4293
34.621464 95.322 -1.6047
34.872345 95.340 -1.7896
35.125042 95.357 -1.9828
35.379574 95.375 -2.1837
35.635948 95.392 -2.3927
35.894180 95.409 -2.6098
36.154285 95.425 -2.8357
36.416275 95.441 -3.0712
36.680161 95.457 -3.3166
36.945961 95.473 -3.5727
37.213688 95.487 -3.8386
37.483353 95.499 -4.1141
37.754974 95.510 -4.3976
38.028561 95.519 -4.6878
38.304131 95.526 -4.9836
38.581699 95.531 -5.2842
38.861279 95.535 -5.5875
39.142883 95.536 -5.8920
39.426529 95.535 -6.1956
39.712231 95.532 -6.4961
40.000000 95.528 -6.7926
40.289856 95.522 -7.0825
40.581814 95.514 -7.3676
40.875885 95.506 -7.6487
41.172089 95.498 -7.9256
41.470440 95.488 -8.1986
41.770950 95.478 -8.4666
42.073643 95.467 -8.7274
42.378525 95.455 -8.9836
42.685616 95.444 -9.2375
42.994934 95.432 -9.4886
43.306492 95.419 -9.7378
43.620308 95.406 -9.9836
43.936401 95.393 -10.2244
44.254780 95.379 -10.4616
44.575470 95.366 -10.6961
44.898483 95.352 -10.9276
45.223835 95.338 -11.1560
45.551544 95.324 -11.3827
45.881630 95.311 -11.6090
46.214108 95.297 -11.8356
46.548996 95.283 -12.0645
46.886307 95.269 -12.2926
47.226067 95.253 -12.5173
47.568283 95.237 -12.7396
47.912983 95.222 -12.9596
48.260181 95.207 -13.1786
48.609894 95.192 -13.3987
48.962143 95.177 -13.6187
49.316940 95.161 -13.8375
49.674313 95.145 -14.0567
50.034271 95.130 -14.2765
50.396843 95.116 -14.4997
50.762039 95.102 -14.7289
51.129883 95.087 -14.9636
51.500389 95.071 -15.2043
51.873581 95.054 -15.4496
52.249481 95.037 -15.6986
52.628101 95.018 -15.9506
53.009464 94.997 -16.2051
53.393593 94.974 -16.4596
53.780506 94.950 -16.7120
54.170223 94.924 -16.9606
54.562763 94.897 -17.2037
54.958145 94.868 -17.4396
55.356396 94.837 -17.6666
55.757530 94.806 -17.8837
56.161572 94.774 -18.0885
56.568542 94.743 -18.2837
56.978462 94.712 -18.4700
57.391350 94.682 -18.6507
57.807232 94.654 -18.8286
58.226128 94.626 -19.0057
58.648056 94.599 -19.1848
59.073048 94.572 -19.3657
59.501114 94.545 -19.5494
59.932281 94.517 -19.7357
60.366577 94.489 -19.9257
60.804020 94.461 -20.1167
61.244629 94.431 -20.3071
61.688435 94.399 -20.4947
62.135452 94.366 -20.6766
62.585712 94.333 -20.8537
63.039234 94.300 -21.0256
63.496040 94.267 -21.1927
63.956161 94.234 -21.3552
64.419617 94.200 -21.5137
64.886421 94.167 -21.6687
65.356621 94.134 -21.8217
65.830215 94.102 -21.9750
66.307251 94.069 -22.1277
66.787743 94.036 -22.2794
67.271713 94.002 -22.4307
67.759193 93.969 -22.5825
68.250206 93.936 -22.7337
68.744774 93.902 -22.8838
69.242928 93.867 -23.0327
69.744690 93.832 -23.1805
70.250084 93.797 -23.3267
70.759148 93.761 -23.4715
71.271896 93.724 -23.6137
71.788361 93.687 -23.7515
72.308571 93.649 -23.8867
72.832550 93.612 -24.0211
73.360321 93.575 -24.1538
73.891922 93.537 -24.2844
74.427376 93.498 -24.4128
74.966705 93.459 -24.5373
75.509949 93.420 -24.6608
76.057121 93.382 -24.7860
76.608261 93.343 -24.9108
77.163399 93.302 -25.0344
77.722557 93.260 -25.1548
78.285767 93.218 -25.2682
78.853058 93.175 -25.3778
79.424461 93.133 -25.4860
80.000000 93.090 -25.5908
80.579712 93.045 -25.6917
81.163628 92.999 -25.7868
81.751770 92.953 -25.8730
82.344177 92.907 -25.9528
82.940880 92.861 -26.0287
83.541901 92.815 -26.0989
84.147285 92.768 -26.1625
84.757050 92.721 -26.2199
85.371231 92.675 -26.2703
85.989868 92.628 -26.3159
86.612984 92.582 -26.3591
87.240616 92.535 -26.3979
87.872803 92.489 -26.4306
88.509560 92.442 -26.4589
89.150940 92.396 -26.4844
89.796967 92.350 -26.5060
90.447670 92.303 -26.5237
91.103088 92.256 -26.5360
91.763260 92.209 -26.5409
92.428215 92.161 -26.5400
93.097992 92.114 -26.5340
93.772614 92.068 -26.5230
94.452133 92.021 -26.5074
95.136566 91.975 -26.4870
95.825966 91.929 -26.4621
96.520363 91.884 -26.4331
97.219788 91.839 -26.4006
97.924286 91.793 -26.3641
98.633881 91.748 -26.3234
99.348625 91.703 -26.2781
100.068542 91.658 -26.2279
100.793686 91.613 -26.1721
101.524078 91.568 -26.1102
102.259766 91.523 -26.0422
103.000778 91.479 -25.9674
103.747162 91.435 -25.8872
104.498962 91.393 -25.8027
105.256203 91.351 -25.7142
106.018929 91.310 -25.6218
106.787186 91.270 -25.5272
107.561012 91.231 -25.4320
108.340446 91.193 -25.3362
109.125526 91.155 -25.2400
109.916290 91.117 -25.1442
110.712791 91.081 -25.0490
111.515060 91.045 -24.9552
112.323143 91.009 -24.8646
113.137085 90.972 -24.7742
113.956924 90.934 -24.6818
114.782700 90.896 -24.5863
115.614464 90.858 -24.4854
116.452255 90.820 -24.3802
117.296112 90.782 -24.2718
118.146095 90.744 -24.1582
119.002228 90.705 -24.0380
119.864563 90.667 -23.9114
120.733154 90.630 -23.7773
121.608040 90.594 -23.6383
122.489258 90.559 -23.4967
123.376869 90.525 -23.3524
124.270905 90.491 -23.2057
125.171425 90.458 -23.0573
126.078468 90.426 -22.9081
126.992081 90.394 -22.7573
127.912323 90.363 -22.6036
128.839233 90.333 -22.4493
129.772842 90.304 -22.2964
130.713242 90.276 -22.1453
131.660431 90.248 -21.9977
132.614502 90.220 -21.8514
133.575485 90.192 -21.7046
134.543427 90.164 -21.5583
135.518387 90.136 -21.4136
136.500412 90.108 -21.2683
137.489548 90.079 -21.1207
138.485855 90.050 -20.9694
139.489380 90.021 -20.8115
140.500168 89.992 -20.6494
141.518295 89.964 -20.4842
142.543793 89.937 -20.3164
143.576721 89.910 -20.1469
144.617142 89.883 -19.9754
145.665100 89.857 -19.8022
146.720642 89.831 -19.6265
147.783844 89.805 -19.4470
148.854752 89.779 -19.2645
149.933411 89.754 -19.0794
151.019897 89.730 -18.8915
152.114243 89.706 -18.7005
153.216522 89.683 -18.5066
154.326797 89.660 -18.3089
155.445114 89.638 -18.1095
156.571533 89.617 -17.9102
157.706116 89.597 -17.7105
158.848923 89.576 -17.5110
160.000000 89.556 -17.3095
161.159424 89.536 -17.1033
162.327255 89.517 -16.8945
163.503540 89.499 -16.6848
164.688354 89.482 -16.4725
165.881760 89.464 -16.2558
167.083801 89.447 -16.0366
168.294571 89.432 -15.8156
169.514099 89.418 -15.5945
170.742462 89.405 -15.3760
171.979736 89.393 -15.1586
173.225967 89.381 -14.9417
174.481232 89.370 -14.7255
175.745605 89.360 -14.5099
177.019119 89.350 -14.2955
178.301880 89.341 -14.0837
179.593933 89.331 -13.8725
180.895340 89.321 -13.6610
182.206177 89.311 -13.4475
183.526520 89.302 -13.2296
184.856430 89.293 -13.0085
186.195984 89.285 -12.7850
187.545227 89.278 -12.5585
188.904266 89.271 -12.3294
190.273132 89.265 -12.0966
191.651932 89.260 -11.8584
193.040726 89.256 -11.6177
194.439575 89.255 -11.3761
195.848572 89.255 -11.1347
197.267761 89.256 -10.8946
198.697250 89.258 -10.6566
200.137085 89.262 -10.4214
201.587372 89.268 -10.1905
203.048157 89.275 -9.9668
204.519531 89.283 -9.7476
206.001556 89.291 -9.5310
207.494324 89.299 -9.3185
208.997925 89.310 -9.1114
210.512405 89.321 -8.9095
212.037857 89.332 -8.7141
213.574371 89.343 -8.5225
215.122025 89.355 -8.3319
216.680893 89.367 -8.1435
218.251053 89.380 -7.9567
219.832581 89.395 -7.7735
221.425583 89.411 -7.5963
223.030121 89.428 -7.4244
224.646286 89.444 -7.2584
226.274170 89.461 -7.0974
227.913849 89.479 -6.9403
229.565399 89.499 -6.7894
231.228928 89.519 -6.6469
232.904510 89.540 -6.5114
234.592224 89.560 -6.3827
236.292191 89.580 -6.2593
238.004456 89.600 -6.1396
239.729126 89.621 -6.0243
241.466309 89.642 -5.9144
243.216080 89.664 -5.8083
244.978516 89.685 -5.7045
246.753738 89.706 -5.6033
248.541809 89.729 -5.5036
250.342850 89.754 -5.4083
252.156937 89.779 -5.3197
253.984161 89.805 -5.2382
255.824646 89.832 -5.1639
257.678467 89.860 -5.0991
259.545685 89.890 -5.0460
261.426483 89.921 -5.0051
263.320862 89.950 -4.9782
265.229004 89.980 -4.9640
267.150970 90.010 -4.9616
269.086853 90.040 -4.9710
271.036774 90.069 -4.9926
273.000824 90.097 -5.0239
274.979095 90.123 -5.0620
276.971710 90.149 -5.1078
278.978760 90.176 -5.1613
281.000336 90.202 -5.2228
283.036591 90.227 -5.2938
285.087585 90.251 -5.3718
287.153442 90.273 -5.4532
289.234283 90.296 -5.5417
291.330200 90.320 -5.6400
293.441284 90.344 -5.7477
295.567688 90.365 -5.8656
297.709503 90.386 -5.9927
299.866821 90.406 -6.1276
302.039795 90.426 -6.2726
304.228485 90.445 -6.4301
306.433044 90.462 -6.5975
308.653595 90.476 -6.7736
310.890228 90.488 -6.9555
313.143066 90.498 -7.1397
315.412231 90.506 -7.3265
317.697845 90.512 -7.5153
320.000000 90.517 -7.7044
322.318848 90.519 -7.8916
324.654510 90.520 -8.0774
327.007080 90.520 -8.2612
329.376709 90.520 -8.4444
331.763519 90.519 -8.6284
334.167603 90.516 -8.8124
336.589142 90.512 -8.9966
339.028198 90.506 -9.1795
341.484924 90.499 -9.3592
343.959473 90.491 -9.5375
346.451935 90.483 -9.7161
348.962463 90.473 -9.8935
351.491211 90.462 -10.0686
354.038239 90.450 -10.2415
356.603760 90.437 -10.4110
359.187866 90.423 -10.5795
361.790680 90.410 -10.7499
364.412354 90.395 -10.9195
367.053040 90.377 -11.0866
369.712860 90.358 -11.2505
372.391968 90.339 -11.4093
375.090454 90.319 -11.5655
377.808533 90.298 -11.7225
380.546265 90.276 -11.8765
383.303864 90.252 -12.0251
386.081451 90.226 -12.1686
388.879150 90.201 -12.3062
391.697144 90.174 -12.4386
394.535522 90.146 -12.5674
397.394501 90.116 -12.6897
400.274170 90.085 -12.8027
403.174744 90.053 -12.9067
406.096313 90.020 -13.0009
409.039062 89.987 -13.0858
412.003113 89.954 -13.1612
414.988647 89.921 -13.2278
417.995850 89.888 -13.2862
421.024811 89.854 -13.3369
424.075714 89.821 -13.3804
427.148743 89.787 -13.4169
430.244049 89.754 -13.4465
433.361786 89.720 -13.4689
436.502106 89.686 -13.4838
439.665161 89.653 -13.4920
442.851166 89.621 -13.4938
446.060242 89.589 -13.4900
449.292572 89.558 -13.4808
452.548340 89.527 -13.4680
455.827698 89.497 -13.4534
459.130798 89.468 -13.4380
462.457855 89.439 -13.4242
465.809021 89.410 -13.4100
469.184448 89.381 -13.3944
472.584381 89.351 -13.3771
476.008911 89.322 -13.3569
479.458252 89.292 -13.3351
482.932617 89.262 -13.3134
486.432159 89.232 -13.2891
489.957031 89.201 -13.2593
493.507477 89.169 -13.2251
497.083618 89.138 -13.1865
500.685699 89.107 -13.1441
504.313873 89.076 -13.0990
507.968323 89.044 -13.0502
511.649292 89.012 -12.9975
515.356934 88.980 -12.9392
519.091370 88.947 -12.8733
522.852966 88.914 -12.8003
526.641724 88.882 -12.7199
530.458008 88.850 -12.6323
534.301941 88.819 -12.5368
538.173706 88.788 -12.4354
542.073547 88.759 -12.3291
546.001648 88.730 -12.2204
549.958191 88.703 -12.1119
553.943420 88.677 -12.0034
557.957520 88.651 -11.8948
562.000671 88.626 -11.7874
566.073181 88.602 -11.6815
570.175171 88.579 -11.5793
574.306885 88.556 -11.4839
578.468567 88.532 -11.3923
582.660400 88.507 -11.3032
586.882568 88.481 -11.2153
591.135376 88.455 -11.1267
595.419006 88.429 -11.0373
599.733643 88.402 -10.9466
604.079590 88.373 -10.8533
608.456970 88.344 -10.7565
612.866089 88.314 -10.6553
617.307190 88.284 -10.5480
621.780457 88.254 -10.4374
626.286133 88.225 -10.3261
630.824463 88.196 -10.2134
635.395691 88.166 -10.0996
640.000000 88.134 -9.9834
644.637695 88.102 -9.8629
649.309021 88.069 -9.7394
654.014160 88.036 -9.6148
658.753418 88.002 -9.4854
663.527039 87.965 -9.3488
668.335205 87.927 -9.2035
673.178284 87.889 -9.0472
678.056396 87.850 -8.8806
682.969849 87.811 -8.7047
687.918945 87.770 -8.5167
692.903870 87.729 -8.3134
697.924927 87.687 -8.0968
702.982422 87.646 -7.8675
708.076477 87.605 -7.6259
713.207520 87.564 -7.3729
718.375732 87.523 -7.1070
723.581360 87.482 -6.8267
728.824707 87.441 -6.5331
734.106079 87.401 -6.2271
739.425720 87.361 -5.9072
744.783936 87.321 -5.5729
750.180908 87.280 -5.2223
755.617065 87.240 -4.8537
761.092529 87.200 -4.4654
766.607727 87.161 -4.0553
772.162903 87.124 -3.6236
777.758301 87.089 -3.1693
783.394287 87.055 -2.6947
789.071045 87.024 -2.2008
794.789001 86.996 -1.6908
800.548340 86.972 -1.1684
806.349487 86.951 -0.6329
812.192627 86.932 -0.0856
818.078125 86.915 0.4749
824.006226 86.901 1.0493
829.977295 86.889 1.6379
835.991699 86.881 2.2403
842.049622 86.875 2.8587
848.151428 86.872 3.4944
854.297485 86.873 4.1485
860.488098 86.877 4.8235
866.723572 86.887 5.5174
873.004211 86.903 6.2317
879.330322 86.926 6.9594
885.702332 86.958 7.6958
892.120483 86.998 8.4354
898.585144 87.046 9.1731
905.096680 87.104 9.9023
911.655396 87.171 10.6181
918.261597 87.247 11.3105
924.915710 87.332 11.9687
931.618042 87.426 12.5898
938.368896 87.524 13.1677
945.168762 87.629 13.7011
952.017822 87.739 14.1874
958.916504 87.854 14.6244
965.865234 87.971 15.0091
972.864319 88.093 15.3419
979.914062 88.216 15.6234
987.014954 88.343 15.8493
994.167236 88.472 16.0175
1001.371399 88.603 16.1217
1008.627747 88.734 16.1546
1015.936646 88.864 16.1173
1023.298584 88.991 16.0070
1030.713867 89.114 15.8277
1038.182739 89.230 15.5804
1045.705933 89.338 15.2724
1053.283447 89.436 14.9068
1060.916016 89.524 14.4978
1068.603882 89.599 14.0569
1076.347412 89.662 13.5969
1084.147095 89.713 13.1324
1092.003296 89.754 12.6705
1099.916382 89.785 12.2219
1107.886841 89.808 11.7908
1115.915039 89.822 11.3839
1124.001343 89.830 11.0043
1132.146362 89.832 10.6572
1140.350342 89.828 10.3431
1148.613770 89.820 10.0654
1156.937134 89.808 9.8220
1165.320801 89.795 9.6124
1173.765137 89.780 9.4357
1182.270752 89.763 9.2909
1190.838013 89.745 9.1774
1199.467285 89.726 9.0949
1208.159180 89.706 9.0412
1216.913940 89.688 9.0139
1225.732178 89.669 9.0130
1234.614380 89.650 9.0367
1243.560913 89.630 9.0868
1252.572266 89.611 9.1645
1261.648926 89.592 9.2695
1270.791382 89.574 9.4007
1280.000000 89.557 9.5613
1289.275391 89.540 9.7536
1298.618042 89.524 9.9790
1308.028320 89.512 10.2407
1317.506836 89.503 10.5357
1327.054077 89.498 10.8633
1336.670410 89.499 11.2196
1346.356567 89.506 11.6019
1356.112793 89.520 12.0045
1365.939697 89.542 12.4241
1375.837891 89.572 12.8502
1385.807739 89.612 13.2738
1395.849854 89.661 13.6864
1405.964844 89.717 14.0776
1416.152954 89.780 14.4447
1426.415039 89.847 14.7826
1436.751465 89.920 15.0889
1447.162720 89.996 15.3576
1457.649414 90.075 15.5941
1468.212158 90.153 15.8003
1478.851440 90.232 15.9804
1489.567871 90.312 16.1393
1500.361816 90.394 16.2765
1511.234131 90.476 16.3932
1522.185059 90.561 16.4886
1533.215454 90.646 16.5628
1544.325806 90.734 16.6138
1555.516602 90.822 16.6402
1566.788574 90.911 16.6411
1578.142090 91.000 16.6150
1589.578003 91.090 16.5623
1601.096680 91.179 16.4818
1612.698975 91.268 16.3755
1624.385254 91.355 16.2442
1636.156250 91.441 16.0907
1648.012451 91.524 15.9180
1659.954590 91.607 15.7267
1671.983398 91.688 15.5186
1684.099243 91.769 15.2930
1696.302856 91.848 15.0504
1708.594971 91.927 14.7892
1720.976196 92.005 14.5080
1733.447144 92.082 14.2064
1746.008423 92.157 13.8836
1758.660645 92.230 13.5395
1771.404663 92.300 13.1730
1784.240967 92.369 12.7846
1797.170288 92.435 12.3733
1810.193359 92.497 11.9417
1823.310791 92.554 11.4911
1836.523193 92.607 11.0249
1849.831421 92.655 10.5455
1863.236084 92.698 10.0572
1876.737793 92.735 9.5635
1890.337524 92.767 9.0691
1904.035645 92.793 8.5788
1917.833008 92.814 8.0959
1931.730469 92.830 7.6250
1945.728638 92.842 7.1679
1959.828125 92.849 6.7269
1974.029907 92.853 6.3047
1988.334473 92.853 5.9044
2002.742798 92.849 5.5275
2017.255493 92.843 5.1776
2031.873291 92.836 4.8522
2046.597168 92.829 4.5500
2061.427734 92.820 4.2712
2076.365479 92.809 4.0153
2091.411865 92.798 3.7839
2106.566895 92.787 3.5799
2121.832031 92.776 3.3987
2137.207764 92.768 3.2370
2152.694824 92.760 3.0935
2168.294189 92.752 2.9661
2184.006592 92.745 2.8545
2199.832764 92.740 2.7582
2215.773682 92.735 2.6753
2231.830078 92.731 2.6028
2248.002686 92.727 2.5432
2264.292725 92.722 2.4958
2280.700684 92.715 2.4671
2297.227539 92.708 2.4618
2313.874268 92.699 2.4848
2330.641602 92.689 2.5391
2347.530273 92.677 2.6345
2364.541504 92.664 2.7801
2381.676025 92.652 2.9819
2398.934570 92.643 3.2482
2416.318359 92.639 3.5813
2433.827881 92.640 3.9883
2451.464355 92.652 4.4639
2469.228760 92.677 5.0120
2487.121826 92.720 5.6123
2505.144531 92.785 6.2543
2523.297852 92.873 6.9120
2541.582764 92.985 7.5659
2560.000000 93.122 8.1864
2578.550781 93.286 8.7467
2597.236084 93.473 9.2181
2616.056641 93.681 9.5670
2635.013672 93.905 9.7804
2654.108154 94.139 9.8338
2673.340820 94.378 9.7288
2692.713135 94.617 9.4551
2712.225586 94.853 9.0244
2731.879395 95.081 8.4376
2751.675781 95.298 7.7166
2771.615479 95.500 6.8762
2791.699707 95.688 5.9393
2811.929688 95.860 4.9287
2832.305908 96.018 3.8601
2852.830078 96.162 2.7533
2873.502930 96.294 1.6190
2894.325439 96.416 0.4739
2915.298828 96.529 -0.6807
2936.424316 96.635 -1.8347
2957.702881 96.737 -2.9979
2979.135742 96.837 -4.1730
3000.723633 96.937 -5.3717
3022.468262 97.035 -6.6031
3044.370117 97.131 -7.8770
3066.430908 97.224 -9.2046
3088.651611 97.313 -10.5916
3111.033203 97.396 -12.0471
3133.577148 97.472 -13.5726
3156.284180 97.538 -15.1749
3179.156006 97.591 -16.8469
3202.193359 97.628 -18.5891
3225.397949 97.647 -20.3844
3248.770508 97.645 -22.2224
3272.312500 97.621 -24.0826
3296.024902 97.574 -25.9480
3319.909180 97.504 -27.7975
3343.966797 97.410 -29.6116
3368.198486 97.292 -31.3688
3392.605713 97.150 -33.0453
3417.189941 96.989 -34.6289
3441.952393 96.810 -36.1019
3466.894287 96.615 -37.4572
3492.016846 96.405 -38.6845
3517.321289 96.183 -39.7763
3542.809326 95.951 -40.7226
3568.481934 95.711 -41.5197
3594.340576 95.466 -42.1621
3620.386719 95.218 -42.6441
3646.621582 94.967 -42.9595
3673.046387 94.717 -43.1037
3699.662842 94.471 -43.0671
3726.472168 94.234 -42.8584
3753.475586 94.012 -42.4758
3780.675049 93.810 -41.9417
3808.071289 93.631 -41.2665
3835.666016 93.482 -40.4839
3863.460938 93.366 -39.6165
3891.457275 93.286 -38.7084
3919.656250 93.246 -37.7976
3948.059814 93.242 -36.9259
3976.668945 93.274 -36.1377
4005.485596 93.335 -35.4620
4034.510986 93.420 -34.9402
4063.746582 93.521 -34.5793
4093.194336 93.632 -34.4037
4122.855469 93.745 -34.4016
4152.730957 93.854 -34.5790
4182.823730 93.954 -34.9061
4213.133789 94.036 -35.3672
4243.664062 94.102 -35.9252
4274.415527 94.147 -36.5468
4305.389648 94.174 -37.2047
4336.588379 94.184 -37.8649
4368.013184 94.181 -38.5150
4399.665527 94.166 -39.1305
4431.547363 94.143 -39.7142
4463.660156 94.116 -40.2571
4496.005371 94.086 -40.7705
4528.585449 94.056 -41.2595
4561.401367 94.024 -41.7338
4594.455078 93.993 -42.2037
4627.748535 93.959 -42.6717
4661.283203 93.923 -43.1469
4695.060547 93.880 -43.6197
4729.083008 93.830 -44.0898
4763.352051 93.770 -44.5379
4797.869141 93.700 -44.9501
4832.636719 93.620 -45.3103
4867.655762 93.532 -45.6021
4902.928711 93.437 -45.8132
4938.457520 93.337 -45.9278
4974.243652 93.235 -45.9402
5010.289062 93.134 -45.8375
5046.595703 93.036 -45.6253
5083.165527 92.949 -45.3018
5120.000000 92.873 -44.8763
5157.101562 92.811 -44.3535
5194.472168 92.765 -43.7462
5232.113281 92.741 -43.0611
5270.027344 92.741 -42.3218
5308.216309 92.768 -41.5458
5346.681641 92.823 -40.7578
5385.426270 92.906 -39.9789
5424.451172 93.018 -39.2385
5463.758789 93.164 -38.5615
5503.351562 93.339 -37.9825
5543.230957 93.543 -37.5348
5583.399414 93.771 -37.2480
5623.859375 94.020 -37.1564
5664.611816 94.284 -37.2798
5705.660156 94.555 -37.6487
5747.005859 94.826 -38.2652
5788.650879 95.088 -39.1492
5830.597656 95.335 -40.2776
5872.848633 95.556 -41.6486
5915.405762 95.746 -43.2165
5958.271484 95.899 -44.9539
6001.447266 96.013 -46.8033
6044.936523 96.082 -48.7179
6088.740234 96.110 -50.6364
6132.861816 96.093 -52.4978
6177.303223 96.038 -54.2545
6222.066406 95.949 -55.8443
6267.154297 95.835 -57.2505
6312.568359 95.702 -58.4341
6358.312012 95.559 -59.3997
6404.386719 95.412 -60.1310
6450.795898 95.272 -60.6518
6497.541016 95.146 -60.9671
6544.625000 95.041 -61.1176
6592.049805 94.965 -61.1323
6639.818359 94.917 -61.0526
6687.933594 94.902 -60.9193
6736.396973 94.917 -60.7628
6785.211426 94.962 -60.6184
6834.379883 95.035 -60.5114
6883.904785 95.135 -60.4736
6933.788574 95.257 -60.5205
6984.033691 95.399 -60.6764
7034.642578 95.556 -60.9473
7085.618652 95.727 -61.3455
7136.963867 95.908 -61.8760
7188.681152 96.099 -62.5460
7240.773438 96.296 -63.3615
7293.243164 96.498 -64.3278
7346.092773 96.704 -65.4539
7399.325684 96.912 -66.7469
7452.944336 97.118 -68.2181
7506.951172 97.321 -69.8792
7561.350098 97.516 -71.7359
7616.142578 97.698 -73.7994
7671.332031 97.862 -76.0648
7726.921875 98.004 -78.5399
7782.914551 98.115 -81.1979
7839.312500 98.187 -84.0329
7896.119629 98.218 -86.9921
7953.337891 98.199 -90.0428
8010.971191 98.131 -93.1178
8069.021973 98.007 -96.1614
8127.493164 97.830 -99.1058
8186.388672 97.599 -101.8832
8245.710938 97.321 -104.4382
8305.461914 96.995 -106.7022
8365.647461 96.635 -108.6466
8426.267578 96.247 -110.2171
8487.328125 95.844 -111.4216
8548.831055 95.437 -112.2402
8610.779297 95.037 -112.7025
8673.176758 94.655 -112.8176
8736.026367 94.301 -112.6278
8799.331055 93.984 -112.1607
8863.094727 93.712 -111.4702
8927.320312 93.496 -110.5999
8992.010742 93.337 -109.6085
9057.170898 93.239 -108.5489
9122.802734 93.203 -107.4816
9188.910156 93.233 -106.4645
9255.497070 93.323 -105.5585
9322.566406 93.471 -104.8290
9390.121094 93.667 -104.3210
9458.166016 93.903 -104.0920
9526.704102 94.169 -104.1687
9595.738281 94.453 -104.5972
9665.273438 94.745 -105.3759
9735.311523 95.032 -106.5300
9805.857422 95.305 -108.0250
9876.915039 95.551 -109.8506
9948.487305 95.767 -111.9589
10020.578125 95.947 -114.3166
10093.191406 96.089 -116.8687
10166.331055 96.187 -119.5672
10240.000000 96.243 -122.3581
10314.203125 96.256 -125.1844
10388.944336 96.230 -128.0067
10464.226562 96.168 -130.7739
10540.054688 96.075 -133.4633
10616.432617 95.953 -136.0362
10693.363281 95.812 -138.4888
10770.852539 95.658 -140.7976
10848.902344 95.498 -142.9865
10927.517578 95.339 -145.0585
11006.703125 95.187 -147.0544
11086.461914 95.048 -148.9983
11166.798828 94.923 -150.9421
11247.718750 94.817 -152.9293
11329.223633 94.724 -155.0099
11411.320312 94.646 -157.2372
11494.011719 94.570 -159.6454
11577.301758 94.494 -162.2876
11661.195312 94.403 -165.1604
11745.697266 94.286 -168.2910
11830.811523 94.133 -171.6403
11916.542969 93.935 -175.2138
12002.894531 93.678 -178.9043
12089.873047 93.342 177.3380
12177.480469 92.927 173.6812
12265.723633 92.420 170.2560
12354.606445 91.825 167.2271
12444.132812 91.140 164.7650
12534.308594 90.375 162.9836
12625.136719 89.529 162.0595
12716.624023 88.639 161.9752
12808.773438 87.726 162.8276
12901.591797 86.845 164.4448
12995.082031 86.042 166.7664
13089.250000 85.354 169.5532
13184.099609 84.831 172.6209
13279.636719 84.471 175.7402
13375.867188 84.307 178.6662
13472.793945 84.284 -178.7405
13570.422852 84.372 -176.7014
13668.759766 84.530 -175.2141
13767.809570 84.711 -174.3807
13867.577148 84.893 -174.1051
13968.067383 85.042 -174.3638
14069.285156 85.154 -175.0362
14171.237305 85.215 -176.0253
14273.927734 85.227 -177.2352
14377.362305 85.188 -178.5520
14481.546875 85.109 -179.9318
14586.486328 84.994 178.7076
14692.185547 84.851 177.3647
14798.651367 84.686 176.0714
14905.888672 84.502 174.8093
15013.902344 84.307 173.5739
15122.700195 84.097 172.3539
15232.285156 83.874 171.1292
15342.664062 83.632 169.9213
15453.843750 83.366 168.7234
15565.829102 83.071 167.6008
15678.625000 82.737 166.5892
15792.239258 82.369 165.7708
15906.675781 81.961 165.2285
16021.942383 81.527 164.9963
16138.043945 81.075 165.1490
16254.986328 80.621 165.6471
16372.777344 80.180 166.5001
16491.421875 79.765 167.6340
16610.923828 79.393 168.9965
16731.294922 79.066 170.5297
16852.535156 78.792 172.1611
16974.656250 78.562 173.8823
17097.662109 78.371 175.6512
17221.558594 78.218 177.4975
17346.353516 78.096 179.4402
17472.052734 78.022 -178.5286
17598.662109 78.005 -176.3755
17726.189453 78.064 -174.2055
17854.640625 78.228 -172.0597
17984.021484 78.485 -170.0991
18114.341797 78.848 -168.4523
18245.605469 79.282 -167.2602
18377.820312 79.773 -166.6911
18510.994141 80.278 -166.7923
18645.132812 80.761 -167.7053
18780.242188 81.197 -169.3145
18916.332031 81.547 -171.6202
19053.408203 81.809 -174.4101
19191.476562 81.965 -177.5277
19330.546875 82.028 179.1969
19470.623047 82.002 175.9609
19611.714844 81.901 172.8402
19753.830078 81.734 169.9741
19896.974609 81.519 167.3680
