* Measurement data measured by REW V5.20.13
* Source: C:\Users\kurin\Desktop\Targets and Curves\Resolve\Img\Lecram\Audeze_LCD-5_5128_SPL.txt
* Format: Comma/Tab/Space delimited data
* Dated: Aug 15, 2023 3:19:42 PM
* REW Settings:
*  C-weighting compensation: Off
*  Target level: 75.0 dB
* Note: ; Measurement imported from C:\Users\kurin\Desktop\Targets and Curves\Resolve\Img\Lecram\Audeze_LCD-5_5128_SPL.txt Format: Comma/Tab/Space delimited data 623 values loaded, 5 Hz to 39,792 Hz log spaced 
* Measurement: Audeze_LCD-5_5128_SPL
* Smoothing: 1/48 octave
* Frequency Step: 1/96 octave
* Start Frequency: 5.000 Hz
*
* Freq(Hz) SPL(dB) Phase(degrees)
5.000000 86.328 2.4190
5.036232 86.328 2.4224
5.072727 86.329 2.4260
5.109486 86.329 2.4297
5.146511 86.330 2.4340
5.183805 86.330 2.4397
5.221369 86.331 2.4460
5.259205 86.332 2.4523
5.297316 86.333 2.4590
5.335702 86.334 2.4664
5.374367 86.335 2.4740
5.413311 86.336 2.4815
5.452538 86.337 2.4890
5.492050 86.338 2.4964
5.531847 86.339 2.5040
5.571934 86.340 2.5119
5.612310 86.341 2.5200
5.652979 86.342 2.5280
5.693943 86.343 2.5360
5.735204 86.344 2.5440
5.776763 86.345 2.5520
5.818624 86.346 2.5599
5.860788 86.347 2.5680
5.903258 86.348 2.5765
5.946035 86.349 2.5850
5.989123 86.350 2.5930
6.032523 86.351 2.6010
6.076237 86.352 2.6094
6.120268 86.353 2.6180
6.164618 86.354 2.6270
6.209289 86.355 2.6360
6.254284 86.356 2.6445
6.299605 86.357 2.6530
6.345255 86.358 2.6619
6.391235 86.360 2.6710
6.437549 86.361 2.6799
6.484198 86.362 2.6890
6.531185 86.363 2.6985
6.578513 86.364 2.7080
6.626183 86.365 2.7170
6.674199 86.366 2.7260
6.722563 86.367 2.7354
6.771278 86.368 2.7450
6.820345 86.369 2.7550
6.869768 86.370 2.7650
6.919549 86.371 2.7745
6.969691 86.372 2.7840
7.020196 86.373 2.7939
7.071068 86.374 2.8040
7.122308 86.375 2.8139
7.173919 86.376 2.8240
7.225904 86.377 2.8345
7.278266 86.378 2.8450
7.331007 86.379 2.8549
7.384131 86.380 2.8650
7.437639 86.381 2.8759
7.491535 86.382 2.8870
7.545822 86.383 2.8975
7.600502 86.384 2.9080
7.655579 86.385 2.9189
7.711054 86.386 2.9300
7.766932 86.387 2.9410
7.823214 86.388 2.9520
7.879904 86.389 2.9629
7.937005 86.390 2.9740
7.994520 86.391 2.9854
8.052452 86.392 2.9970
8.110803 86.393 3.0090
8.169578 86.394 3.0210
8.228777 86.395 3.0325
8.288406 86.396 3.0440
8.348468 86.397 3.0559
8.408964 86.398 3.0680
8.469899 86.399 3.0799
8.531276 86.400 3.0920
8.593097 86.401 3.1044
8.655366 86.402 3.1170
8.718086 86.403 3.1294
8.781260 86.404 3.1420
8.844893 86.405 3.1549
8.908987 86.406 3.1680
8.973545 86.407 3.1810
9.038571 86.408 3.1940
9.104069 86.409 3.2069
9.170040 86.410 3.2200
9.236490 86.411 3.2334
9.303422 86.412 3.2470
9.370838 86.413 3.2604
9.438744 86.414 3.2740
9.507140 86.415 3.2879
9.576033 86.416 3.3020
9.645425 86.417 3.3160
9.715320 86.418 3.3300
9.785721 86.419 3.3439
9.856632 86.420 3.3580
9.928058 86.421 3.3729
10.000000 86.422 3.3880
10.072464 86.423 3.4025
10.145453 86.424 3.4170
10.218971 86.425 3.4319
10.293022 86.426 3.4470
10.367610 86.427 3.4624
10.442738 86.428 3.4780
10.518411 86.429 3.4935
10.594631 86.430 3.5090
10.671404 86.431 3.5244
10.748734 86.432 3.5400
10.826623 86.433 3.5559
10.905077 86.434 3.5720
10.984100 86.435 3.5884
11.063695 86.436 3.6050
11.143867 86.437 3.6214
11.224621 86.438 3.6380
11.305959 86.439 3.6549
11.387886 86.440 3.6720
11.470407 86.441 3.6889
11.553527 86.442 3.7060
11.637249 86.443 3.7234
11.721577 86.444 3.7410
11.806517 86.445 3.7589
11.892071 86.446 3.7770
11.978246 86.447 3.7949
12.065045 86.448 3.8130
12.152473 86.449 3.8314
12.240536 86.450 3.8500
12.329235 86.451 3.8689
12.418578 86.452 3.8880
12.508568 86.453 3.9069
12.599211 86.454 3.9260
12.690510 86.455 3.9454
12.782471 86.456 3.9650
12.875097 86.457 3.9844
12.968395 86.458 4.0040
13.062370 86.459 4.0244
13.157025 86.460 4.0450
13.252366 86.461 4.0654
13.348398 86.462 4.0860
13.445127 86.463 4.1069
13.542556 86.464 4.1280
13.640691 86.465 4.1489
13.739536 86.466 4.1700
13.839099 86.467 4.1919
13.939383 86.468 4.2140
14.040393 86.469 4.2359
14.142136 86.470 4.2580
14.244616 86.471 4.2809
14.347837 86.472 4.3040
14.451808 86.473 4.3269
14.556532 86.474 4.3500
14.662014 86.475 4.3734
14.768262 86.476 4.3970
14.875278 86.477 4.4208
14.983070 86.478 4.4450
15.091644 86.479 4.4694
15.201005 86.480 4.4940
15.311157 86.481 4.5189
15.422109 86.482 4.5440
15.533863 86.483 4.5694
15.646428 86.485 4.5950
15.759809 86.486 4.6209
15.874010 86.487 4.6470
15.989040 86.488 4.6733
16.104904 86.489 4.7000
16.221605 86.490 4.7273
16.339155 86.491 4.7550
16.457554 86.492 4.7828
16.576813 86.493 4.8110
16.696936 86.494 4.8393
16.817928 86.495 4.8680
16.939798 86.496 4.8973
17.062551 86.497 4.9270
17.186193 86.498 4.9568
17.310732 86.499 4.9870
17.436172 86.500 5.0178
17.562521 86.501 5.0490
17.689787 86.502 5.0802
17.817974 86.503 5.1120
17.947090 86.504 5.1447
18.077143 86.505 5.1780
18.208138 86.506 5.2112
18.340080 86.507 5.2450
18.472980 86.508 5.2797
18.606844 86.509 5.3150
18.741676 86.510 5.3506
18.877487 86.511 5.3870
19.014280 86.512 5.4245
19.152065 86.513 5.4630
19.290850 86.514 5.5025
19.430639 86.515 5.5430
19.571442 86.516 5.5842
19.713264 86.517 5.6269
19.856115 86.518 5.6718
20.000000 86.519 5.7190
20.144928 86.520 5.7685
20.290907 86.521 5.8209
20.437943 86.523 5.8771
20.586044 86.525 5.9360
20.735220 86.529 5.9980
20.885475 86.534 6.0599
21.036821 86.540 6.1195
21.189262 86.548 6.1739
21.342808 86.557 6.2206
21.497467 86.567 6.2570
21.653246 86.578 6.2787
21.810154 86.588 6.2890
21.968201 86.596 6.2883
22.127390 86.602 6.2810
22.287735 86.606 6.2708
22.449242 86.608 6.2600
22.611917 86.608 6.2509
22.775772 86.607 6.2470
22.940815 86.603 6.2525
23.107054 86.599 6.2670
23.274498 86.595 6.2926
23.443153 86.592 6.3259
23.613033 86.590 6.3648
23.784142 86.589 6.4070
23.956491 86.588 6.4496
24.130091 86.587 6.4929
24.304947 86.587 6.5360
24.481071 86.587 6.5789
24.658470 86.587 6.6215
24.837156 86.587 6.6639
25.017136 86.587 6.7066
25.198421 86.587 6.7490
25.381020 86.587 6.7903
25.564941 86.587 6.8310
25.750195 86.587 6.8708
25.936790 86.586 6.9100
26.124741 86.584 6.9475
26.314051 86.582 6.9859
26.504732 86.579 7.0266
26.696796 86.574 7.0719
26.890253 86.568 7.1252
27.085112 86.562 7.1859
27.281382 86.556 7.2550
27.479073 86.550 7.3319
27.678198 86.544 7.4167
27.878765 86.538 7.5089
28.080786 86.534 7.6090
28.284271 86.530 7.7139
28.489231 86.528 7.8207
28.695675 86.526 7.9289
28.903616 86.525 8.0362
29.113064 86.523 8.1448
29.324028 86.521 8.2554
29.536524 86.518 8.3709
29.750557 86.514 8.4937
29.966141 86.510 8.6268
30.183289 86.506 8.7751
30.402010 86.503 8.9358
30.622314 86.503 9.1097
30.844217 86.505 9.2918
31.067726 86.510 9.4787
31.292856 86.518 9.6657
31.519617 86.529 9.8488
31.748020 86.543 10.0228
31.978081 86.559 10.1805
32.209808 86.575 10.3238
32.443211 86.591 10.4505
32.678310 86.605 10.5659
32.915108 86.617 10.6715
33.153625 86.625 10.7769
33.393871 86.629 10.8890
33.635857 86.630 11.0168
33.879597 86.628 11.1709
34.125103 86.625 11.3537
34.372387 86.623 11.5718
34.621464 86.622 11.8236
34.872345 86.624 12.1123
35.125042 86.631 12.4306
35.379574 86.646 12.7767
35.635948 86.670 13.1376
35.894180 86.703 13.5028
36.154285 86.745 13.8625
36.416275 86.795 14.2068
36.680161 86.854 14.5255
36.945961 86.921 14.8073
37.213688 86.995 15.0457
37.483353 87.073 15.2298
37.754974 87.154 15.3618
38.028561 87.235 15.4392
38.304131 87.315 15.4660
38.581699 87.394 15.4439
38.861279 87.470 15.3781
39.142883 87.542 15.2719
39.426529 87.611 15.1332
39.712231 87.675 14.9711
40.000000 87.735 14.7863
40.289856 87.794 14.5831
40.581814 87.850 14.3593
40.875885 87.903 14.1141
41.172089 87.953 13.8474
41.470440 88.000 13.5590
41.770950 88.044 13.2485
42.073643 88.084 12.9145
42.378525 88.119 12.5595
42.685616 88.147 12.1817
42.994934 88.167 11.7936
43.306492 88.178 11.4044
43.620308 88.181 11.0226
43.936401 88.177 10.6585
44.254780 88.167 10.3155
44.575470 88.151 9.9994
44.898483 88.131 9.7134
45.223835 88.106 9.4637
45.551544 88.078 9.2483
45.881630 88.049 9.0689
46.214108 88.020 8.9212
46.548996 87.990 8.8014
46.886307 87.960 8.7101
47.226067 87.930 8.6464
47.568283 87.899 8.6110
47.912983 87.869 8.6041
48.260181 87.839 8.6269
48.609894 87.809 8.6808
48.962143 87.781 8.7659
49.316940 87.755 8.8832
49.674313 87.733 9.0307
50.034271 87.714 9.2083
50.396843 87.700 9.4117
50.762039 87.691 9.6392
51.129883 87.689 9.8836
51.500389 87.695 10.1399
51.873581 87.708 10.3996
52.249481 87.729 10.6550
52.628101 87.757 10.8986
53.009464 87.793 11.1231
53.393593 87.835 11.3207
53.780506 87.884 11.4826
54.170223 87.938 11.6038
54.562763 87.995 11.6759
54.958145 88.054 11.7000
55.356396 88.113 11.6730
55.757530 88.171 11.5992
56.161572 88.226 11.4800
56.568542 88.278 11.3213
56.978462 88.325 11.1267
57.391350 88.367 10.9034
57.807232 88.402 10.6574
58.226128 88.432 10.3965
58.648056 88.456 10.1296
59.073048 88.476 9.8594
59.501114 88.491 9.5913
59.932281 88.501 9.3265
60.366577 88.508 9.0669
60.804020 88.511 8.8154
61.244629 88.510 8.5750
61.688435 88.506 8.3474
62.135452 88.500 8.1356
62.585712 88.492 7.9383
63.039234 88.483 7.7549
63.496040 88.472 7.5863
63.956161 88.459 7.4342
64.419617 88.446 7.2962
64.886421 88.434 7.1710
65.356621 88.422 7.0572
65.830215 88.410 6.9527
66.307251 88.397 6.8582
66.787743 88.384 6.7739
67.271713 88.371 6.6991
67.759193 88.359 6.6329
68.250206 88.347 6.5761
68.744774 88.334 6.5292
69.242928 88.321 6.4921
69.744690 88.310 6.4659
70.250084 88.301 6.4470
70.759148 88.293 6.4326
71.271896 88.286 6.4210
71.788361 88.281 6.4107
72.308571 88.277 6.3990
72.832550 88.274 6.3828
73.360321 88.272 6.3620
73.891922 88.270 6.3345
74.427376 88.267 6.3031
74.966705 88.263 6.2690
75.509949 88.259 6.2351
76.057121 88.253 6.2044
76.608261 88.247 6.1771
77.163399 88.241 6.1545
77.722557 88.235 6.1360
78.285767 88.229 6.1218
78.853058 88.223 6.1110
79.424461 88.217 6.1036
80.000000 88.212 6.0980
80.579712 88.207 6.0919
81.163628 88.202 6.0870
81.751770 88.197 6.0836
82.344177 88.191 6.0830
82.940880 88.185 6.0868
83.541901 88.179 6.0950
84.147285 88.173 6.1080
84.757050 88.167 6.1260
85.371231 88.162 6.1499
85.989868 88.157 6.1779
86.612984 88.154 6.2092
87.240616 88.151 6.2419
87.872803 88.149 6.2738
88.509560 88.148 6.3049
89.150940 88.148 6.3344
89.796967 88.148 6.3629
90.447670 88.148 6.3905
91.103088 88.148 6.4179
91.763260 88.148 6.4459
92.428215 88.148 6.4749
93.097992 88.148 6.5057
93.772614 88.149 6.5379
94.452133 88.150 6.5723
95.136566 88.152 6.6069
95.825966 88.156 6.6410
96.520363 88.161 6.6719
97.219788 88.167 6.6968
97.924286 88.173 6.7160
98.633881 88.179 6.7290
99.348625 88.185 6.7360
100.068542 88.191 6.7363
100.793686 88.197 6.7310
101.524078 88.202 6.7199
102.259766 88.205 6.7060
103.000778 88.207 6.6922
103.747162 88.208 6.6790
104.498962 88.209 6.6684
105.256203 88.210 6.6600
106.018929 88.210 6.6543
106.787186 88.210 6.6510
107.561012 88.210 6.6501
108.340446 88.210 6.6510
109.125526 88.210 6.6529
109.916290 88.210 6.6560
110.712791 88.210 6.6605
111.515060 88.210 6.6660
112.323143 88.210 6.6721
113.137085 88.210 6.6790
113.956924 88.210 6.6866
114.782700 88.210 6.6950
115.614464 88.210 6.7041
116.452255 88.210 6.7140
117.296112 88.210 6.7247
118.146095 88.210 6.7360
119.002228 88.210 6.7477
119.864563 88.210 6.7600
120.733154 88.210 6.7727
121.608040 88.210 6.7860
122.489258 88.210 6.8002
123.376869 88.210 6.8150
124.270905 88.210 6.8302
125.171425 88.210 6.8460
126.078468 88.210 6.8622
126.992081 88.210 6.8790
127.912323 88.210 6.8961
128.839233 88.210 6.9140
129.772842 88.210 6.9326
130.713242 88.210 6.9520
131.660431 88.210 6.9716
132.614502 88.210 6.9919
133.575485 88.210 7.0132
134.543427 88.210 7.0350
135.518387 88.210 7.0567
136.500412 88.210 7.0790
137.489548 88.210 7.1021
138.485855 88.210 7.1259
139.489380 88.210 7.1506
140.500168 88.210 7.1759
141.518295 88.210 7.2016
142.543793 88.210 7.2279
143.576721 88.210 7.2551
144.617142 88.210 7.2829
145.665100 88.210 7.3111
146.720642 88.210 7.3399
147.783844 88.210 7.3695
148.854752 88.210 7.3999
149.933411 88.210 7.4310
151.019897 88.210 7.4629
152.114243 88.210 7.4955
153.216522 88.210 7.5289
154.326797 88.210 7.5630
155.445114 88.210 7.5979
156.571533 88.210 7.6340
157.706116 88.210 7.6709
158.848923 88.210 7.7085
160.000000 88.210 7.7469
161.159424 88.210 7.7863
162.327255 88.210 7.8269
163.503540 88.210 7.8688
164.688354 88.210 7.9119
165.881760 88.210 7.9557
167.083801 88.210 8.0009
168.294571 88.210 8.0480
169.514099 88.210 8.0969
170.742462 88.210 8.1472
171.979736 88.210 8.1999
173.225967 88.210 8.2554
174.481232 88.210 8.3139
175.745605 88.210 8.3754
177.019119 88.211 8.4398
178.301880 88.213 8.5080
179.593933 88.215 8.5778
180.895340 88.218 8.6482
182.206177 88.223 8.7168
183.526520 88.229 8.7810
184.856430 88.235 8.8409
186.195984 88.241 8.8953
187.545227 88.247 8.9449
188.904266 88.253 8.9895
190.273132 88.258 9.0299
191.651932 88.263 9.0660
193.040726 88.267 9.1009
194.439575 88.269 9.1375
195.848572 88.271 9.1769
197.267761 88.272 9.2213
198.697250 88.272 9.2709
200.137085 88.273 9.3266
201.587372 88.274 9.3878
203.048157 88.275 9.4550
204.519531 88.277 9.5258
206.001556 88.281 9.5990
207.494324 88.286 9.6718
208.997925 88.292 9.7403
210.512405 88.298 9.8058
212.037857 88.304 9.8683
213.574371 88.310 9.9279
215.122025 88.316 9.9844
216.680893 88.321 10.0389
218.251053 88.326 10.0915
219.832581 88.331 10.1448
221.425583 88.334 10.2018
223.030121 88.338 10.2618
224.646286 88.343 10.3266
226.274170 88.348 10.3928
227.913849 88.354 10.4577
229.565399 88.360 10.5218
231.228928 88.366 10.5849
232.904510 88.372 10.6468
234.592224 88.379 10.7073
236.292191 88.385 10.7668
238.004456 88.391 10.8250
239.729126 88.396 10.8838
241.466309 88.401 10.9461
243.216080 88.407 11.0098
244.978516 88.413 11.0736
246.753738 88.419 11.1378
248.541809 88.425 11.2026
250.342850 88.431 11.2678
252.156937 88.438 11.3337
253.984161 88.445 11.3998
255.824646 88.452 11.4655
257.678467 88.458 11.5318
259.545685 88.464 11.5998
261.426483 88.471 11.6688
263.320862 88.477 11.7383
265.229004 88.484 11.8088
267.150970 88.491 11.8807
269.086853 88.498 11.9538
271.036774 88.506 12.0284
273.000824 88.514 12.1038
274.979095 88.522 12.1792
276.971710 88.531 12.2548
278.978760 88.539 12.3295
281.000336 88.547 12.4058
283.036591 88.555 12.4863
285.087585 88.564 12.5687
287.153442 88.575 12.6521
289.234283 88.586 12.7348
291.330200 88.598 12.8147
293.441284 88.610 12.8928
295.567688 88.622 12.9696
297.709503 88.635 13.0438
299.866821 88.649 13.1145
302.039795 88.664 13.1808
304.228485 88.679 13.2413
306.433044 88.693 13.2968
308.653595 88.707 13.3473
310.890228 88.721 13.3939
313.143066 88.734 13.4372
315.412231 88.747 13.4789
317.697845 88.759 13.5211
320.000000 88.770 13.5629
322.318848 88.782 13.6029
324.654510 88.794 13.6439
327.007080 88.804 13.6885
329.376709 88.813 13.7358
331.763519 88.824 13.7866
334.167603 88.836 13.8378
336.589142 88.848 13.8864
339.028198 88.860 13.9339
341.484924 88.872 13.9817
343.959473 88.884 14.0279
346.451935 88.897 14.0703
348.962463 88.910 14.1099
351.491211 88.922 14.1465
354.038239 88.934 14.1809
356.603760 88.946 14.2140
359.187866 88.957 14.2449
361.790680 88.968 14.2716
364.412354 88.979 14.2979
367.053040 88.987 14.3267
369.712860 88.994 14.3589
372.391968 89.002 14.3966
375.090454 89.009 14.4399
377.808533 89.016 14.4892
380.546265 89.023 14.5448
383.303864 89.030 14.6083
386.081451 89.038 14.6768
388.879150 89.048 14.7488
391.697144 89.059 14.8218
394.535522 89.071 14.8928
397.394501 89.084 14.9618
400.274170 89.098 15.0284
403.174744 89.113 15.0908
406.096313 89.129 15.1474
409.039062 89.145 15.1979
412.003113 89.161 15.2407
414.988647 89.177 15.2779
417.995850 89.192 15.3105
421.024811 89.207 15.3389
424.075714 89.222 15.3646
427.148743 89.236 15.3859
430.244049 89.251 15.4015
433.361786 89.265 15.4120
436.502106 89.278 15.4164
439.665161 89.289 15.4180
442.851166 89.298 15.4194
446.060242 89.306 15.4220
449.292572 89.313 15.4281
452.548340 89.320 15.4380
455.827698 89.325 15.4519
459.130798 89.330 15.4719
462.457855 89.333 15.5005
465.809021 89.337 15.5359
469.184448 89.342 15.5780
472.584381 89.347 15.6239
476.008911 89.353 15.6701
479.458252 89.359 15.7169
482.932617 89.365 15.7631
486.432159 89.371 15.8089
489.957031 89.377 15.8537
493.507477 89.382 15.8979
497.083618 89.387 15.9401
500.685699 89.391 15.9839
504.313873 89.393 16.0321
507.968323 89.394 16.0858
511.649292 89.395 16.1467
515.356934 89.396 16.2148
519.091370 89.396 16.2905
522.852966 89.396 16.3737
526.641724 89.396 16.4643
530.458008 89.396 16.5627
534.301941 89.396 16.6694
538.173706 89.396 16.7846
542.073547 89.396 16.9081
546.001648 89.397 17.0405
549.958191 89.399 17.1831
553.943420 89.401 17.3345
557.957520 89.404 17.4941
562.000671 89.409 17.6604
566.073181 89.415 17.8315
570.175171 89.423 18.0084
574.306885 89.431 18.1919
578.468567 89.441 18.3803
582.660400 89.453 18.5730
586.882568 89.466 18.7683
591.135376 89.481 18.9643
595.419006 89.498 19.1613
599.733643 89.515 19.3593
604.079590 89.534 19.5583
608.456970 89.555 19.7592
612.866089 89.578 19.9593
617.307190 89.603 20.1570
621.780457 89.630 20.3504
626.286133 89.659 20.5370
630.824463 89.689 20.7164
635.395691 89.720 20.8872
640.000000 89.753 21.0495
644.637695 89.786 21.2030
649.309021 89.820 21.3475
654.014160 89.854 21.4816
658.753418 89.889 21.6076
663.527039 89.923 21.7269
668.335205 89.956 21.8416
673.178284 89.989 21.9539
678.056396 90.022 22.0646
682.969849 90.055 22.1758
687.918945 90.088 22.2856
692.903870 90.123 22.3938
697.924927 90.159 22.4976
702.982422 90.196 22.5942
708.076477 90.234 22.6837
713.207520 90.271 22.7652
718.375732 90.308 22.8397
723.581360 90.345 22.9081
728.824707 90.382 22.9708
734.106079 90.418 23.0276
739.425720 90.454 23.0818
744.783936 90.488 23.1369
750.180908 90.522 23.1928
755.617065 90.556 23.2514
761.092529 90.591 23.3098
766.607727 90.626 23.3658
772.162903 90.663 23.4188
777.758301 90.700 23.4678
783.394287 90.738 23.5119
789.071045 90.775 23.5496
794.789001 90.812 23.5819
800.548340 90.849 23.6083
806.349487 90.885 23.6309
812.192627 90.919 23.6511
818.078125 90.953 23.6709
824.006226 90.986 23.6928
829.977295 91.018 23.7179
835.991699 91.049 23.7483
842.049622 91.081 23.7839
848.151428 91.113 23.8248
854.297485 91.146 23.8718
860.488098 91.178 23.9266
866.723572 91.211 23.9868
873.004211 91.247 24.0509
879.330322 91.284 24.1178
885.702332 91.322 24.1857
892.120483 91.362 24.2538
898.585144 91.403 24.3211
905.096680 91.447 24.3858
911.655396 91.492 24.4460
918.261597 91.539 24.5008
924.915710 91.587 24.5493
931.618042 91.637 24.5899
938.368896 91.688 24.6209
945.168762 91.741 24.6419
952.017822 91.794 24.6523
958.916504 91.849 24.6510
965.865234 91.904 24.6370
972.864319 91.960 24.6101
979.914062 92.016 24.5698
987.014954 92.072 24.5172
994.167236 92.127 24.4531
1001.371399 92.183 24.3783
1008.627747 92.238 24.2937
1015.936646 92.293 24.1994
1023.298584 92.347 24.0954
1030.713867 92.402 23.9824
1038.182739 92.456 23.8615
1045.705933 92.511 23.7316
1053.283447 92.565 23.5921
1060.916016 92.620 23.4417
1068.603882 92.674 23.2790
1076.347412 92.729 23.1028
1084.147095 92.783 22.9117
1092.003296 92.838 22.7047
1099.916382 92.892 22.4814
1107.886841 92.945 22.2391
1115.915039 92.997 21.9750
1124.001343 93.048 21.6891
1132.146362 93.096 21.3794
1140.350342 93.140 21.0493
1148.613770 93.180 20.6993
1156.937134 93.215 20.3356
1165.320801 93.244 19.9627
1173.765137 93.267 19.5857
1182.270752 93.285 19.2083
1190.838013 93.296 18.8385
1199.467285 93.300 18.4825
1208.159180 93.297 18.1493
1216.913940 93.289 17.8486
1225.732178 93.276 17.5839
1234.614380 93.260 17.3617
1243.560913 93.243 17.1816
1252.572266 93.225 17.0457
1261.648926 93.207 16.9533
1270.791382 93.191 16.9055
1280.000000 93.177 16.8989
1289.275391 93.167 16.9330
1298.618042 93.163 17.0007
1308.028320 93.165 17.0974
1317.506836 93.175 17.2145
1327.054077 93.192 17.3448
1336.670410 93.218 17.4785
1346.356567 93.252 17.6059
1356.112793 93.294 17.7186
1365.939697 93.343 17.8080
1375.837891 93.399 17.8658
1385.807739 93.460 17.8816
1395.849854 93.526 17.8532
1405.964844 93.592 17.7736
1416.152954 93.659 17.6475
1426.415039 93.722 17.4752
1436.751465 93.783 17.2639
1447.162720 93.840 17.0190
1457.649414 93.893 16.7471
1468.212158 93.940 16.4541
1478.851440 93.982 16.1472
1489.567871 94.019 15.8340
1500.361816 94.052 15.5192
1511.234131 94.080 15.2095
1522.185059 94.105 14.9063
1533.215454 94.127 14.6124
1544.325806 94.147 14.3302
1555.516602 94.164 14.0642
1566.788574 94.181 13.8120
1578.142090 94.200 13.5753
1589.578003 94.220 13.3460
1601.096680 94.242 13.1173
1612.698975 94.265 12.8870
1624.385254 94.289 12.6512
1636.156250 94.314 12.4071
1648.012451 94.341 12.1515
1659.954590 94.368 11.8810
1671.983398 94.395 11.5912
1684.099243 94.421 11.2823
1696.302856 94.445 10.9532
1708.594971 94.467 10.6046
1720.976196 94.486 10.2355
1733.447144 94.501 9.8497
1746.008423 94.511 9.4495
1758.660645 94.515 9.0387
1771.404663 94.514 8.6192
1784.240967 94.506 8.1987
1797.170288 94.490 7.7816
1810.193359 94.466 7.3796
1823.310791 94.434 7.0029
1836.523193 94.394 6.6603
1849.831421 94.347 6.3626
1863.236084 94.295 6.1130
1876.737793 94.240 5.9186
1890.337524 94.182 5.7785
1904.035645 94.124 5.6949
1917.833008 94.065 5.6660
1931.730469 94.007 5.6916
1945.728638 93.951 5.7696
1959.828125 93.897 5.8976
1974.029907 93.846 6.0761
1988.334473 93.798 6.3041
2002.742798 93.752 6.5838
2017.255493 93.710 6.9167
2031.873291 93.673 7.3044
2046.597168 93.642 7.7502
2061.427734 93.620 8.2497
2076.365479 93.608 8.8036
2091.411865 93.609 9.3994
2106.566895 93.625 10.0311
2121.832031 93.656 10.6803
2137.207764 93.705 11.3317
2152.694824 93.770 11.9705
2168.294189 93.850 12.5802
2184.006592 93.944 13.1505
2199.832764 94.052 13.6683
2215.773682 94.171 14.1263
2231.830078 94.300 14.5129
2248.002686 94.435 14.8278
2264.292725 94.576 15.0668
2280.700684 94.721 15.2305
2297.227539 94.870 15.3185
2313.874268 95.020 15.3291
2330.641602 95.172 15.2596
2347.530273 95.323 15.1118
2364.541504 95.471 14.8834
2381.676025 95.612 14.5845
2398.934570 95.746 14.2177
2416.318359 95.869 13.8029
2433.827881 95.981 13.3553
2451.464355 96.084 12.8919
2469.228760 96.177 12.4304
2487.121826 96.263 11.9839
2505.144531 96.341 11.5717
2523.297852 96.417 11.1936
2541.582764 96.496 10.8611
2560.000000 96.581 10.5583
2578.550781 96.673 10.2799
2597.236084 96.776 10.0053
2616.056641 96.889 9.7191
2635.013672 97.013 9.4004
2654.108154 97.149 9.0273
2673.340820 97.290 8.5881
2692.713135 97.436 8.0623
2712.225586 97.582 7.4550
2731.879395 97.725 6.7616
2751.675781 97.863 5.9907
2771.615479 97.996 5.1456
2791.699707 98.121 4.2391
2811.929688 98.236 3.2809
2832.305908 98.342 2.2838
2852.830078 98.438 1.2622
2873.502930 98.528 0.2216
2894.325439 98.611 -0.8279
2915.298828 98.689 -1.8871
2936.424316 98.763 -2.9518
2957.702881 98.834 -4.0283
2979.135742 98.904 -5.1191
3000.723633 98.972 -6.2321
3022.468262 99.038 -7.3749
3044.370117 99.101 -8.5495
3066.430908 99.159 -9.7616
3088.651611 99.212 -11.0083
3111.033203 99.257 -12.2923
3133.577148 99.294 -13.6027
3156.284180 99.320 -14.9342
3179.156006 99.337 -16.2726
3202.193359 99.343 -17.6040
3225.397949 99.342 -18.9228
3248.770508 99.334 -20.2167
3272.312500 99.322 -21.4923
3296.024902 99.310 -22.7453
3319.909180 99.300 -23.9962
3343.966797 99.294 -25.2570
3368.198486 99.290 -26.5488
3392.605713 99.289 -27.8928
3417.189941 99.287 -29.3003
3441.952393 99.281 -30.7919
3466.894287 99.267 -32.3608
3492.016846 99.239 -34.0161
3517.321289 99.193 -35.7310
3542.809326 99.124 -37.4936
3568.481934 99.031 -39.2678
3594.340576 98.911 -41.0236
3620.386719 98.767 -42.7300
3646.621582 98.597 -44.3499
3673.046387 98.408 -45.8720
3699.662842 98.204 -47.2696
3726.472168 97.990 -48.5523
3753.475586 97.770 -49.7145
3780.675049 97.547 -50.7754
3808.071289 97.326 -51.7454
3835.666016 97.106 -52.6459
3863.460938 96.891 -53.4992
3891.457275 96.677 -54.3122
3919.656250 96.461 -55.1037
3948.059814 96.239 -55.8606
3976.668945 96.009 -56.5852
4005.485596 95.767 -57.2489
4034.510986 95.510 -57.8358
4063.746582 95.238 -58.3101
4093.194336 94.950 -58.6386
4122.855469 94.651 -58.7977
4152.730957 94.344 -58.7523
4182.823730 94.037 -58.5027
4213.133789 93.737 -58.0274
4243.664062 93.452 -57.3566
4274.415527 93.194 -56.4962
4305.389648 92.967 -55.4991
4336.588379 92.781 -54.4022
4368.013184 92.636 -53.2614
4399.665527 92.534 -52.1317
4431.547363 92.471 -51.0541
4463.660156 92.444 -50.0818
4496.005371 92.445 -49.2329
4528.585449 92.466 -48.5464
4561.401367 92.500 -48.0122
4594.455078 92.537 -47.6397
4627.748535 92.575 -47.4088
4661.283203 92.608 -47.3076
4695.060547 92.637 -47.3207
4729.083008 92.659 -47.4312
4763.352051 92.673 -47.6309
4797.869141 92.679 -47.9075
4832.636719 92.675 -48.2551
4867.655762 92.662 -48.6677
4902.928711 92.636 -49.1336
4938.457520 92.596 -49.6465
4974.243652 92.540 -50.1844
5010.289062 92.467 -50.7325
5046.595703 92.376 -51.2624
5083.165527 92.265 -51.7497
5120.000000 92.138 -52.1672
5157.101562 91.994 -52.4805
5194.472168 91.843 -52.6873
5232.113281 91.689 -52.7641
5270.027344 91.540 -52.7403
5308.216309 91.402 -52.6254
5346.681641 91.276 -52.4559
5385.426270 91.166 -52.2605
5424.451172 91.070 -52.0728
5463.758789 90.991 -51.9305
5503.351562 90.920 -51.8502
5543.230957 90.853 -51.8673
5583.399414 90.780 -51.9633
5623.859375 90.694 -52.1456
5664.611816 90.591 -52.3718
5705.660156 90.463 -52.6232
5747.005859 90.307 -52.8361
5788.650879 90.116 -52.9623
5830.597656 89.896 -52.9356
5872.848633 89.647 -52.6852
5915.405762 89.380 -52.1764
5958.271484 89.102 -51.3484
6001.447266 88.827 -50.2097
6044.936523 88.567 -48.7287
6088.740234 88.339 -46.9655
6132.861816 88.164 -44.9370
6177.303223 88.050 -42.7423
6222.066406 88.014 -40.4532
6267.154297 88.050 -38.1703
6312.568359 88.165 -35.9928
6358.312012 88.343 -33.9964
6404.386719 88.576 -32.2819
6450.795898 88.846 -30.8734
6497.541016 89.134 -29.8368
6544.625000 89.428 -29.1466
6592.049805 89.711 -28.8150
6639.818359 89.978 -28.7934
6687.933594 90.216 -29.0575
6736.396973 90.422 -29.5460
6785.211426 90.589 -30.2112
6834.379883 90.718 -30.9868
6883.904785 90.806 -31.8102
6933.788574 90.856 -32.6229
6984.033691 90.869 -33.3569
7034.642578 90.855 -33.9782
7085.618652 90.819 -34.4333
7136.963867 90.769 -34.7141
7188.681152 90.714 -34.7872
7240.773438 90.664 -34.6750
7293.243164 90.632 -34.3743
7346.092773 90.623 -33.9295
7399.325684 90.646 -33.3673
7452.944336 90.706 -32.7392
7506.951172 90.807 -32.0863
7561.350098 90.949 -31.4680
7616.142578 91.137 -30.9425
7671.332031 91.362 -30.5556
7726.921875 91.617 -30.3633
7782.914551 91.898 -30.3932
7839.312500 92.197 -30.6849
7896.119629 92.506 -31.2582
7953.337891 92.819 -32.1493
8010.971191 93.123 -33.3479
8069.021973 93.408 -34.8664
8127.493164 93.667 -36.6707
8186.388672 93.893 -38.7437
8245.710938 94.084 -41.0453
8305.461914 94.233 -43.5459
8365.647461 94.340 -46.1977
8426.267578 94.399 -48.9571
8487.328125 94.413 -51.7810
8548.831055 94.381 -54.6216
8610.779297 94.305 -57.4482
8673.176758 94.187 -60.2209
8736.026367 94.030 -62.9186
8799.331055 93.835 -65.5135
8863.094727 93.605 -67.9863
8927.320312 93.341 -70.3141
8992.010742 93.046 -72.4810
9057.170898 92.723 -74.4676
9122.802734 92.374 -76.2620
9188.910156 92.001 -77.8499
9255.497070 91.608 -79.2202
9322.566406 91.197 -80.3618
9390.121094 90.771 -81.2599
9458.166016 90.331 -81.9016
9526.704102 89.881 -82.2698
9595.738281 89.426 -82.3456
9665.273438 88.971 -82.1220
9735.311523 88.522 -81.5799
9805.857422 88.089 -80.7364
9876.915039 87.680 -79.5841
9948.487305 87.309 -78.1772
10020.578125 86.988 -76.5369
10093.191406 86.729 -74.7559
10166.331055 86.547 -72.8969
10240.000000 86.438 -71.0724
10314.203125 86.413 -69.3835
10388.944336 86.454 -67.9282
10464.226562 86.555 -66.8246
10540.054688 86.691 -66.1120
10616.432617 86.840 -65.8811
10693.363281 86.981 -66.0964
10770.852539 87.091 -66.7824
10848.902344 87.156 -67.8473
10927.517578 87.158 -69.2523
11006.703125 87.091 -70.8600
11086.461914 86.939 -72.5691
11166.798828 86.704 -74.2312
11247.718750 86.379 -75.7051
11329.223633 85.974 -76.8661
11411.320312 85.490 -77.5652
11494.011719 84.942 -77.7347
11577.301758 84.341 -77.2560
11661.195312 83.710 -76.1321
11745.697266 83.064 -74.3082
11830.811523 82.430 -71.8401
11916.542969 81.831 -68.7340
12002.894531 81.292 -65.0856
12089.873047 80.841 -60.9607
12177.480469 80.489 -56.4565
12265.723633 80.252 -51.6639
12354.606445 80.137 -46.6675
12444.132812 80.156 -41.5486
12534.308594 80.314 -36.4077
12625.136719 80.623 -31.3315
12716.624023 81.074 -26.4431
12808.773438 81.671 -21.8471
12901.591797 82.393 -17.6861
12995.082031 83.234 -14.1071
13089.250000 84.145 -11.2047
13184.099609 85.080 -9.1140
13279.636719 86.021 -7.8582
13375.867188 86.943 -7.5190
13472.793945 87.823 -8.0545
13570.422852 88.635 -9.4973
13668.759766 89.371 -11.7058
13767.809570 90.011 -14.5956
13867.577148 90.563 -18.0247
13968.067383 91.028 -21.8565
14069.285156 91.404 -25.9899
14171.237305 91.690 -30.3078
14273.927734 91.891 -34.7226
14377.362305 92.010 -39.1234
14481.546875 92.055 -43.4619
14586.486328 92.032 -47.6674
14692.185547 91.944 -51.6972
14798.651367 91.790 -55.4961
14905.888672 91.581 -59.0273
15013.902344 91.327 -62.2372
15122.700195 91.036 -65.1226
15232.285156 90.714 -67.6574
15342.664062 90.373 -69.8586
15453.843750 90.021 -71.7188
15565.829102 89.671 -73.2843
15678.625000 89.335 -74.5765
15792.239258 89.019 -75.6656
15906.675781 88.732 -76.6035
16021.942383 88.475 -77.4654
16138.043945 88.254 -78.3282
16254.986328 88.057 -79.2394
16372.777344 87.878 -80.2698
16491.421875 87.705 -81.4262
16610.923828 87.530 -82.7570
16731.294922 87.337 -84.2073
16852.535156 87.108 -85.7754
16974.656250 86.836 -87.3476
17097.662109 86.509 -88.8438
17221.558594 86.130 -90.1588
17346.353516 85.698 -91.1807
17472.052734 85.222 -91.8482
17598.662109 84.705 -92.0500
17726.189453 84.174 -91.8236
17854.640625 83.652 -91.1255
17984.021484 83.161 -90.0895
18114.341797 82.733 -88.7964
18245.605469 82.364 -87.3653
18377.820312 82.065 -85.9211
18510.994141 81.822 -84.5278
18645.132812 81.637 -83.3032
18780.242188 81.478 -82.2096
18916.332031 81.312 -81.2796
19053.408203 81.141 -80.4168
19191.476562 80.951 -79.5470
19330.546875 80.748 -78.6331
19470.623047 80.534 -77.6191
19611.714844 80.316 -76.4898
19753.830078 80.094 -75.1978
19896.974609 79.888 -73.7849
