* Measurement data measured by REW V5.20.13
* Source: C:\Users\kurin\Desktop\Targets and Curves\Resolve\Img\Lecram\Denon_D9200_5128_SPL.txt
* Format: Comma/Tab/Space delimited data
* Dated: Aug 15, 2023 3:27:48 PM
* REW Settings:
*  C-weighting compensation: Off
*  Target level: 75.0 dB
* Note: ; Measurement imported from C:\Users\kurin\Desktop\Targets and Curves\Resolve\Img\Lecram\Denon_D9200_5128_SPL.txt Format: Comma/Tab/Space delimited data 623 values loaded, 5 Hz to 39,792 Hz log spaced 
* Measurement: Denon_D9200_5128_SPL
* Smoothing: 1/48 octave
* Frequency Step: 1/96 octave
* Start Frequency: 5.000 Hz
*
* Freq(Hz) SPL(dB) Phase(degrees)
5.000000 88.558 1.3470
5.036232 88.558 1.3431
5.072727 88.559 1.3390
5.109486 88.560 1.3349
5.146511 88.561 1.3300
5.183805 88.562 1.3233
5.221369 88.564 1.3160
5.259205 88.565 1.3092
5.297316 88.567 1.3020
5.335702 88.569 1.2936
5.374367 88.571 1.2850
5.413311 88.573 1.2770
5.452538 88.574 1.2690
5.492050 88.575 1.2606
5.531847 88.577 1.2520
5.571934 88.579 1.2436
5.612310 88.581 1.2350
5.652979 88.583 1.2260
5.693943 88.584 1.2170
5.735204 88.585 1.2085
5.776763 88.587 1.2000
5.818624 88.589 1.1911
5.860788 88.591 1.1820
5.903258 88.593 1.1731
5.946035 88.594 1.1640
5.989123 88.595 1.1546
6.032523 88.597 1.1450
6.076237 88.599 1.1355
6.120268 88.601 1.1260
6.164618 88.603 1.1165
6.209289 88.604 1.1070
6.254284 88.605 1.0976
6.299605 88.607 1.0880
6.345255 88.609 1.0780
6.391235 88.611 1.0680
6.437549 88.613 1.0586
6.484198 88.614 1.0490
6.531185 88.615 1.0386
6.578513 88.617 1.0280
6.626183 88.619 1.0180
6.674199 88.621 1.0080
6.722563 88.623 0.9976
6.771278 88.624 0.9870
6.820345 88.625 0.9760
6.869768 88.627 0.9650
6.919549 88.629 0.9545
6.969691 88.631 0.9440
7.020196 88.633 0.9331
7.071068 88.634 0.9220
7.122308 88.635 0.9111
7.173919 88.637 0.9000
7.225904 88.639 0.8886
7.278266 88.641 0.8770
7.331007 88.642 0.8655
7.384131 88.644 0.8540
7.437639 88.646 0.8426
7.491535 88.648 0.8310
7.545822 88.650 0.8191
7.600502 88.651 0.8070
7.655579 88.652 0.7951
7.711054 88.654 0.7830
7.766932 88.656 0.7706
7.823214 88.658 0.7580
7.879904 88.660 0.7455
7.937005 88.661 0.7330
7.994520 88.662 0.7206
8.052452 88.664 0.7080
8.110803 88.666 0.6951
8.169578 88.668 0.6820
8.228777 88.670 0.6685
8.288406 88.671 0.6550
8.348468 88.672 0.6420
8.408964 88.674 0.6290
8.469899 88.676 0.6156
8.531276 88.678 0.6020
8.593097 88.680 0.5881
8.655366 88.681 0.5740
8.718086 88.682 0.5601
8.781260 88.684 0.5460
8.844893 88.686 0.5316
8.908987 88.688 0.5170
8.973545 88.690 0.5026
9.038571 88.691 0.4880
9.104069 88.692 0.4731
9.170040 88.694 0.4580
9.236490 88.696 0.4430
9.303422 88.698 0.4280
9.370838 88.700 0.4131
9.438744 88.701 0.3980
9.507140 88.702 0.3821
9.576033 88.704 0.3660
9.645425 88.706 0.3506
9.715320 88.708 0.3350
9.785721 88.710 0.3186
9.856632 88.711 0.3020
9.928058 88.712 0.2855
10.000000 88.714 0.2690
10.072464 88.716 0.2526
10.145453 88.718 0.2360
10.218971 88.720 0.2191
10.293022 88.721 0.2020
10.367610 88.722 0.1846
10.442738 88.724 0.1670
10.518411 88.726 0.1496
10.594631 88.728 0.1320
10.671404 88.729 0.1136
10.748734 88.731 0.0950
10.826623 88.733 0.0771
10.905077 88.735 0.0590
10.984100 88.737 0.0401
11.063695 88.738 0.0210
11.143867 88.739 0.0021
11.224621 88.741 -0.0170
11.305959 88.743 -0.0364
11.387886 88.745 -0.0560
11.470407 88.747 -0.0759
11.553527 88.748 -0.0960
11.637249 88.749 -0.1159
11.721577 88.751 -0.1360
11.806517 88.753 -0.1569
11.892071 88.755 -0.1780
11.978246 88.757 -0.1989
12.065045 88.758 -0.2200
12.152473 88.759 -0.2414
12.240536 88.761 -0.2630
12.329235 88.763 -0.2849
12.418578 88.765 -0.3070
12.508568 88.767 -0.3289
12.599211 88.768 -0.3510
12.690510 88.769 -0.3738
12.782471 88.771 -0.3970
12.875097 88.773 -0.4204
12.968395 88.775 -0.4440
13.062370 88.777 -0.4674
13.157025 88.778 -0.4910
13.252366 88.779 -0.5153
13.348398 88.781 -0.5400
13.445127 88.783 -0.5649
13.542556 88.785 -0.5900
13.640691 88.787 -0.6154
13.739536 88.788 -0.6410
13.839099 88.789 -0.6669
13.939383 88.791 -0.6930
14.040393 88.793 -0.7193
14.142136 88.795 -0.7460
14.244616 88.797 -0.7733
14.347837 88.798 -0.8010
14.451808 88.799 -0.8289
14.556532 88.801 -0.8570
14.662014 88.803 -0.8853
14.768262 88.805 -0.9140
14.875278 88.807 -0.9433
14.983070 88.808 -0.9730
15.091644 88.809 -1.0028
15.201005 88.811 -1.0330
15.311157 88.813 -1.0637
15.422109 88.815 -1.0950
15.533863 88.817 -1.1267
15.646428 88.818 -1.1590
15.759809 88.819 -1.1918
15.874010 88.821 -1.2250
15.989040 88.823 -1.2583
16.104904 88.825 -1.2920
16.221605 88.826 -1.3262
16.339155 88.828 -1.3610
16.457554 88.830 -1.3962
16.576813 88.832 -1.4320
16.696936 88.834 -1.4682
16.817928 88.835 -1.5050
16.939798 88.836 -1.5427
17.062551 88.838 -1.5810
17.186193 88.840 -1.6192
17.310732 88.842 -1.6580
17.436172 88.844 -1.6976
17.562521 88.845 -1.7380
17.689787 88.846 -1.7791
17.817974 88.848 -1.8210
17.947090 88.850 -1.8632
18.077143 88.852 -1.9060
18.208138 88.854 -1.9496
18.340080 88.855 -1.9940
18.472980 88.856 -2.0390
18.606844 88.858 -2.0850
18.741676 88.860 -2.1320
18.877487 88.862 -2.1800
19.014280 88.864 -2.2289
19.152065 88.865 -2.2789
19.290850 88.866 -2.3304
19.430639 88.868 -2.3830
19.571442 88.869 -2.4363
19.713264 88.871 -2.4909
19.856115 88.873 -2.5474
20.000000 88.874 -2.6049
20.144928 88.875 -2.6631
20.290907 88.876 -2.7219
20.437943 88.877 -2.7813
20.586044 88.877 -2.8410
20.735220 88.878 -2.9007
20.885475 88.878 -2.9599
21.036821 88.878 -3.0180
21.189262 88.878 -3.0749
21.342808 88.879 -3.1303
21.497467 88.880 -3.1849
21.653246 88.881 -3.2389
21.810154 88.883 -3.2939
21.968201 88.887 -3.3508
22.127390 88.892 -3.4129
22.287735 88.898 -3.4841
22.449242 88.904 -3.5639
22.611917 88.910 -3.6533
22.775772 88.916 -3.7529
22.940815 88.922 -3.8638
23.107054 88.928 -3.9858
23.274498 88.932 -4.1199
23.443153 88.935 -4.2638
23.613033 88.936 -4.4163
23.784142 88.935 -4.5749
23.956491 88.932 -4.7372
24.130091 88.927 -4.9018
24.304947 88.920 -5.0670
24.481071 88.910 -5.2318
24.658470 88.899 -5.3955
24.837156 88.885 -5.5548
25.017136 88.869 -5.7066
25.198421 88.850 -5.8489
25.381020 88.830 -5.9779
25.564941 88.809 -6.0949
25.750195 88.788 -6.1997
25.936790 88.767 -6.2929
26.124741 88.745 -6.3746
26.314051 88.724 -6.4459
26.504732 88.705 -6.5060
26.696796 88.687 -6.5609
26.890253 88.671 -6.6160
27.085112 88.656 -6.6719
27.281382 88.641 -6.7315
27.479073 88.626 -6.7939
27.678198 88.611 -6.8592
27.878765 88.596 -6.9279
28.080786 88.581 -7.0016
28.284271 88.566 -7.0779
28.489231 88.548 -7.1556
28.695675 88.529 -7.2319
28.903616 88.509 -7.3030
29.113064 88.488 -7.3699
29.324028 88.467 -7.4325
29.536524 88.445 -7.4909
29.750557 88.422 -7.5459
29.966141 88.399 -7.5959
30.183289 88.376 -7.6393
30.402010 88.352 -7.6770
30.622314 88.328 -7.7089
30.844217 88.304 -7.7360
31.067726 88.280 -7.7588
31.292856 88.256 -7.7780
31.519617 88.232 -7.7947
31.748020 88.208 -7.8080
31.978081 88.183 -7.8174
32.209808 88.158 -7.8230
32.443211 88.133 -7.8251
32.678310 88.107 -7.8230
32.915108 88.080 -7.8176
33.153625 88.052 -7.8050
33.393871 88.023 -7.7823
33.635857 87.993 -7.7481
33.879597 87.963 -7.7001
34.125103 87.933 -7.6381
34.372387 87.903 -7.5607
34.621464 87.873 -7.4691
34.872345 87.846 -7.3633
35.125042 87.820 -7.2461
35.379574 87.796 -7.1202
35.635948 87.773 -6.9862
35.894180 87.752 -6.8448
36.154285 87.734 -6.6992
36.416275 87.719 -6.5527
36.680161 87.705 -6.4052
36.945961 87.692 -6.2591
37.213688 87.679 -6.1112
37.483353 87.667 -5.9590
37.754974 87.657 -5.8032
38.028561 87.649 -5.6435
38.304131 87.643 -5.4802
38.581699 87.638 -5.3131
38.861279 87.635 -5.1433
39.142883 87.636 -4.9696
39.426529 87.640 -4.7992
39.712231 87.648 -4.6373
40.000000 87.660 -4.4882
40.289856 87.675 -4.3578
40.581814 87.692 -4.2471
40.875885 87.711 -4.1599
41.172089 87.730 -4.0941
41.470440 87.749 -4.0499
41.770950 87.767 -4.0250
42.073643 87.784 -4.0181
42.378525 87.801 -4.0270
42.685616 87.816 -4.0496
42.994934 87.830 -4.0839
43.306492 87.843 -4.1264
43.620308 87.856 -4.1799
43.936401 87.869 -4.2462
44.254780 87.881 -4.3259
44.575470 87.892 -4.4203
44.898483 87.901 -4.5288
45.223835 87.908 -4.6509
45.551544 87.914 -4.7868
45.881630 87.918 -4.9379
46.214108 87.919 -5.1007
46.548996 87.916 -5.2736
46.886307 87.910 -5.4527
47.226067 87.900 -5.6341
47.568283 87.886 -5.8167
47.912983 87.869 -5.9987
48.260181 87.849 -6.1777
48.609894 87.825 -6.3517
48.962143 87.798 -6.5178
49.316940 87.767 -6.6726
49.674313 87.732 -6.8148
50.034271 87.696 -6.9416
50.396843 87.657 -7.0538
50.762039 87.616 -7.1519
51.129883 87.572 -7.2339
51.500389 87.527 -7.2985
51.873581 87.479 -7.3439
52.249481 87.430 -7.3687
52.628101 87.379 -7.3710
53.009464 87.327 -7.3485
53.393593 87.274 -7.3021
53.780506 87.221 -7.2319
54.170223 87.168 -7.1382
54.562763 87.115 -7.0213
54.958145 87.063 -6.8812
55.356396 87.012 -6.7173
55.757530 86.961 -6.5313
56.161572 86.912 -6.3251
56.568542 86.865 -6.0984
56.978462 86.819 -5.8517
57.391350 86.774 -5.5845
57.807232 86.732 -5.2959
58.226128 86.692 -4.9875
58.648056 86.655 -4.6604
59.073048 86.620 -4.3156
59.501114 86.589 -3.9530
59.932281 86.562 -3.5777
60.366577 86.540 -3.1936
60.804020 86.522 -2.8037
61.244629 86.507 -2.4123
61.688435 86.496 -2.0197
62.135452 86.489 -1.6273
62.585712 86.485 -1.2357
63.039234 86.483 -0.8460
63.496040 86.484 -0.4577
63.956161 86.488 -0.0704
64.419617 86.494 0.3153
64.886421 86.503 0.6996
65.356621 86.515 1.0813
65.830215 86.531 1.4604
66.307251 86.550 1.8333
66.787743 86.573 2.1970
67.271713 86.600 2.5494
67.759193 86.629 2.8870
68.250206 86.660 3.2104
68.744774 86.694 3.5197
69.242928 86.730 3.8135
69.744690 86.768 4.0902
70.250084 86.807 4.3505
70.759148 86.847 4.5939
71.271896 86.888 4.8226
71.788361 86.930 5.0390
72.308571 86.973 5.2416
72.832550 87.018 5.4303
73.360321 87.064 5.6037
73.891922 87.111 5.7605
74.427376 87.159 5.8998
74.966705 87.208 6.0205
75.509949 87.257 6.1218
76.057121 87.307 6.2021
76.608261 87.356 6.2629
77.163399 87.404 6.3050
77.722557 87.452 6.3290
78.285767 87.500 6.3356
78.853058 87.547 6.3250
79.424461 87.591 6.2966
80.000000 87.634 6.2541
80.579712 87.675 6.2016
81.163628 87.715 6.1381
81.751770 87.754 6.0645
82.344177 87.792 5.9802
82.940880 87.828 5.8843
83.541901 87.862 5.7782
84.147285 87.894 5.6628
84.757050 87.925 5.5392
85.371231 87.954 5.4085
85.989868 87.980 5.2723
86.612984 88.004 5.1329
87.240616 88.026 4.9903
87.872803 88.047 4.8440
88.509560 88.065 4.6973
89.150940 88.080 4.5534
89.796967 88.094 4.4123
90.447670 88.107 4.2761
91.103088 88.119 4.1423
91.763260 88.131 4.0084
92.428215 88.141 3.8763
93.097992 88.149 3.7470
93.772614 88.156 3.6203
94.452133 88.163 3.4962
95.136566 88.170 3.3743
95.825966 88.175 3.2531
96.520363 88.178 3.1353
97.219788 88.180 3.0230
97.924286 88.182 2.9162
98.633881 88.183 2.8154
99.348625 88.183 2.7202
100.068542 88.183 2.6308
100.793686 88.183 2.5462
101.524078 88.183 2.4658
102.259766 88.183 2.3892
103.000778 88.183 2.3158
103.747162 88.183 2.2451
104.498962 88.183 2.1762
105.256203 88.183 2.1091
106.018929 88.183 2.0439
106.787186 88.183 1.9801
107.561012 88.183 1.9176
108.340446 88.183 1.8561
109.125526 88.183 1.7953
109.916290 88.183 1.7351
110.712791 88.183 1.6756
111.515060 88.183 1.6161
112.323143 88.183 1.5561
113.137085 88.183 1.4951
113.956924 88.183 1.4329
114.782700 88.183 1.3692
115.614464 88.183 1.3036
116.452255 88.182 1.2361
117.296112 88.180 1.1659
118.146095 88.178 1.0951
119.002228 88.175 1.0248
119.864563 88.170 0.9572
120.733154 88.164 0.8951
121.608040 88.158 0.8381
122.489258 88.152 0.7867
123.376869 88.146 0.7401
124.270905 88.140 0.6978
125.171425 88.134 0.6591
126.078468 88.129 0.6238
126.992081 88.124 0.5891
127.912323 88.121 0.5515
128.839233 88.117 0.5121
129.772842 88.112 0.4696
130.713242 88.107 0.4271
131.660431 88.101 0.3872
132.614502 88.095 0.3491
133.575485 88.089 0.3131
134.543427 88.082 0.2791
135.518387 88.075 0.2472
136.500412 88.069 0.2171
137.489548 88.063 0.1887
138.485855 88.057 0.1611
139.489380 88.051 0.1326
140.500168 88.045 0.1041
141.518295 88.038 0.0755
142.543793 88.031 0.0471
143.576721 88.025 0.0188
144.617142 88.018 -0.0089
145.665100 88.010 -0.0361
146.720642 88.002 -0.0619
147.783844 87.994 -0.0854
148.854752 87.985 -0.1069
149.933411 87.976 -0.1260
151.019897 87.968 -0.1440
152.114243 87.960 -0.1626
153.216522 87.952 -0.1809
154.326797 87.942 -0.1992
155.445114 87.932 -0.2150
156.571533 87.921 -0.2250
157.706116 87.911 -0.2320
158.848923 87.902 -0.2377
160.000000 87.892 -0.2420
161.159424 87.881 -0.2459
162.327255 87.870 -0.2470
163.503540 87.858 -0.2420
164.688354 87.847 -0.2340
165.881760 87.837 -0.2256
167.083801 87.827 -0.2160
168.294571 87.816 -0.2057
169.514099 87.804 -0.1930
170.742462 87.793 -0.1753
171.979736 87.782 -0.1561
173.225967 87.773 -0.1383
174.481232 87.763 -0.1210
175.745605 87.752 -0.1052
177.019119 87.740 -0.0880
178.301880 87.728 -0.0664
179.593933 87.716 -0.0421
180.895340 87.703 -0.0168
182.206177 87.690 0.0119
183.526520 87.676 0.0459
184.856430 87.661 0.0859
186.195984 87.647 0.1334
187.545227 87.632 0.1879
188.904266 87.617 0.2496
190.273132 87.603 0.3178
191.651932 87.590 0.3923
193.040726 87.577 0.4718
194.439575 87.565 0.5544
195.848572 87.553 0.6417
197.267761 87.542 0.7357
198.697250 87.531 0.8338
200.137085 87.522 0.9343
201.587372 87.515 1.0358
203.048157 87.508 1.1356
204.519531 87.502 1.2347
206.001556 87.497 1.3339
207.494324 87.492 1.4308
208.997925 87.489 1.5225
210.512405 87.485 1.6108
212.037857 87.480 1.6950
213.574371 87.475 1.7788
215.122025 87.469 1.8658
216.680893 87.463 1.9558
218.251053 87.457 2.0492
219.832581 87.451 2.1467
221.425583 87.445 2.2493
223.030121 87.439 2.3567
224.646286 87.434 2.4699
226.274170 87.430 2.5857
227.913849 87.428 2.7016
229.565399 87.426 2.8167
231.228928 87.425 2.9291
232.904510 87.425 3.0397
234.592224 87.425 3.1484
236.292191 87.425 3.2557
238.004456 87.425 3.3615
239.729126 87.425 3.4667
241.466309 87.425 3.5721
243.216080 87.425 3.6777
244.978516 87.425 3.7837
246.753738 87.425 3.8907
248.541809 87.425 3.9991
250.342850 87.425 4.1097
252.156937 87.425 4.2231
253.984161 87.425 4.3397
255.824646 87.425 4.4599
257.678467 87.426 4.5837
259.545685 87.427 4.7119
261.426483 87.430 4.8427
263.320862 87.434 4.9753
265.229004 87.439 5.1076
267.150970 87.445 5.2370
269.086853 87.451 5.3646
271.036774 87.457 5.4908
273.000824 87.464 5.6156
274.979095 87.472 5.7395
276.971710 87.480 5.8616
278.978760 87.489 5.9811
281.000336 87.498 6.0987
283.036591 87.506 6.2145
285.087585 87.515 6.3296
287.153442 87.525 6.4459
289.234283 87.535 6.5607
291.330200 87.547 6.6725
293.441284 87.559 6.7807
295.567688 87.571 6.8837
297.709503 87.583 6.9827
299.866821 87.594 7.0789
302.039795 87.606 7.1717
304.228485 87.618 7.2609
306.433044 87.630 7.3478
308.653595 87.640 7.4331
310.890228 87.650 7.5188
313.143066 87.660 7.6071
315.412231 87.669 7.6967
317.697845 87.679 7.7869
320.000000 87.688 7.8787
322.318848 87.697 7.9726
324.654510 87.706 8.0697
327.007080 87.714 8.1718
329.376709 87.723 8.2777
331.763519 87.733 8.3867
334.167603 87.743 8.4986
336.589142 87.753 8.6120
339.028198 87.764 8.7296
341.484924 87.774 8.8541
343.959473 87.784 8.9846
346.451935 87.797 9.1224
348.962463 87.811 9.2636
351.491211 87.827 9.4053
354.038239 87.845 9.5466
356.603760 87.864 9.6862
359.187866 87.884 9.8216
361.790680 87.907 9.9508
364.412354 87.932 10.0717
367.053040 87.957 10.1809
369.712860 87.982 10.2807
372.391968 88.007 10.3714
375.090454 88.031 10.4548
377.808533 88.055 10.5318
380.546265 88.079 10.6048
383.303864 88.101 10.6752
386.081451 88.122 10.7458
388.879150 88.142 10.8203
391.697144 88.163 10.8968
394.535522 88.184 10.9744
397.394501 88.206 11.0538
400.274170 88.227 11.1342
403.174744 88.247 11.2187
406.096313 88.268 11.3112
409.039062 88.289 11.4087
412.003113 88.312 11.5096
414.988647 88.337 11.6137
417.995850 88.362 11.7200
421.024811 88.388 11.8287
424.075714 88.416 11.9405
427.148743 88.447 12.0517
430.244049 88.480 12.1592
433.361786 88.515 12.2607
436.502106 88.552 12.3522
439.665161 88.590 12.4348
442.851166 88.629 12.5085
446.060242 88.669 12.5728
449.292572 88.710 12.6278
452.548340 88.752 12.6719
455.827698 88.795 12.7027
459.130798 88.838 12.7220
462.457855 88.881 12.7308
465.809021 88.924 12.7290
469.184448 88.967 12.7171
472.584381 89.011 12.6941
476.008911 89.054 12.6585
479.458252 89.097 12.6132
482.932617 89.138 12.5601
486.432159 89.179 12.5002
489.957031 89.219 12.4350
493.507477 89.259 12.3642
497.083618 89.299 12.2883
500.685699 89.338 12.2073
504.313873 89.377 12.1214
507.968323 89.416 12.0303
511.649292 89.454 11.9342
515.356934 89.493 11.8323
519.091370 89.532 11.7243
522.852966 89.571 11.6094
526.641724 89.610 11.4869
530.458008 89.649 11.3564
534.301941 89.687 11.2176
538.173706 89.725 11.0695
542.073547 89.764 10.9112
546.001648 89.802 10.7426
549.958191 89.838 10.5633
553.943420 89.874 10.3736
557.957520 89.909 10.1729
562.000671 89.942 9.9637
566.073181 89.972 9.7475
570.175171 90.001 9.5277
574.306885 90.028 9.3084
578.468567 90.053 9.0888
582.660400 90.077 8.8693
586.882568 90.101 8.6498
591.135376 90.124 8.4296
595.419006 90.146 8.2098
599.733643 90.167 7.9921
604.079590 90.188 7.7728
608.456970 90.210 7.5487
612.866089 90.232 7.3198
617.307190 90.252 7.0847
621.780457 90.272 6.8448
626.286133 90.290 6.6016
630.824463 90.308 6.3538
635.395691 90.325 6.1002
640.000000 90.342 5.8419
644.637695 90.357 5.5795
649.309021 90.370 5.3129
654.014160 90.383 5.0431
658.753418 90.395 4.7669
663.527039 90.406 4.4813
668.335205 90.416 4.1880
673.178284 90.422 3.8870
678.056396 90.426 3.5800
682.969849 90.428 3.2678
687.918945 90.426 2.9541
692.903870 90.420 2.6408
697.924927 90.409 2.3351
702.982422 90.394 2.0431
708.076477 90.375 1.7690
713.207520 90.353 1.5177
718.375732 90.329 1.2918
723.581360 90.303 1.0962
728.824707 90.276 0.9285
734.106079 90.251 0.7898
739.425720 90.228 0.6744
744.783936 90.208 0.5788
750.180908 90.191 0.4983
755.617065 90.177 0.4282
761.092529 90.165 0.3642
766.607727 90.156 0.3009
772.162903 90.150 0.2362
777.758301 90.146 0.1665
783.394287 90.144 0.0913
789.071045 90.143 0.0086
794.789001 90.142 -0.0807
800.548340 90.142 -0.1766
806.349487 90.142 -0.2786
812.192627 90.142 -0.3859
818.078125 90.142 -0.4986
824.006226 90.142 -0.6165
829.977295 90.142 -0.7396
835.991699 90.142 -0.8675
842.049622 90.141 -1.0005
848.151428 90.139 -1.1394
854.297485 90.137 -1.2825
860.488098 90.134 -1.4288
866.723572 90.129 -1.5765
873.004211 90.122 -1.7227
879.330322 90.115 -1.8685
885.702332 90.108 -2.0146
892.120483 90.100 -2.1595
898.585144 90.089 -2.3024
905.096680 90.077 -2.4415
911.655396 90.064 -2.5740
918.261597 90.051 -2.7015
924.915710 90.038 -2.8258
931.618042 90.023 -2.9436
938.368896 90.006 -3.0529
945.168762 89.988 -3.1517
952.017822 89.970 -3.2364
958.916504 89.952 -3.3087
965.865234 89.934 -3.3697
972.864319 89.916 -3.4178
979.914062 89.898 -3.4512
987.014954 89.882 -3.4729
994.167236 89.869 -3.4842
1001.371399 89.858 -3.4890
1008.627747 89.849 -3.4919
1015.936646 89.841 -3.4930
1023.298584 89.835 -3.4932
1030.713867 89.831 -3.4940
1038.182739 89.829 -3.4972
1045.705933 89.828 -3.5030
1053.283447 89.827 -3.5121
1060.916016 89.828 -3.5239
1068.603882 89.830 -3.5371
1076.347412 89.834 -3.5539
1084.147095 89.840 -3.5750
1092.003296 89.847 -3.6039
1099.916382 89.856 -3.6437
1107.886841 89.867 -3.6967
1115.915039 89.879 -3.7664
1124.001343 89.891 -3.8526
1132.146362 89.903 -3.9567
1140.350342 89.915 -4.0775
1148.613770 89.926 -4.2152
1156.937134 89.935 -4.3673
1165.320801 89.941 -4.5325
1173.765137 89.946 -4.7082
1182.270752 89.949 -4.8914
1190.838013 89.950 -5.0822
1199.467285 89.949 -5.2799
1208.159180 89.946 -5.4842
1216.913940 89.941 -5.6952
1225.732178 89.933 -5.9102
1234.614380 89.922 -6.1275
1243.560913 89.907 -6.3442
1252.572266 89.890 -6.5581
1261.648926 89.870 -6.7662
1270.791382 89.846 -6.9650
1280.000000 89.820 -7.1533
1289.275391 89.792 -7.3281
1298.618042 89.762 -7.4904
1308.028320 89.732 -7.6390
1317.506836 89.700 -7.7764
1327.054077 89.668 -7.9045
1336.670410 89.634 -8.0236
1346.356567 89.600 -8.1349
1356.112793 89.564 -8.2376
1365.939697 89.527 -8.3323
1375.837891 89.487 -8.4157
1385.807739 89.445 -8.4849
1395.849854 89.402 -8.5388
1405.964844 89.358 -8.5755
1416.152954 89.312 -8.5940
1426.415039 89.265 -8.5928
1436.751465 89.216 -8.5711
1447.162720 89.167 -8.5273
1457.649414 89.118 -8.4623
1468.212158 89.069 -8.3768
1478.851440 89.020 -8.2695
1489.567871 88.971 -8.1398
1500.361816 88.922 -7.9866
1511.234131 88.873 -7.8082
1522.185059 88.825 -7.6050
1533.215454 88.779 -7.3765
1544.325806 88.733 -7.1232
1555.516602 88.689 -6.8453
1566.788574 88.647 -6.5433
1578.142090 88.608 -6.2176
1589.578003 88.572 -5.8695
1601.096680 88.539 -5.5005
1612.698975 88.508 -5.1107
1624.385254 88.480 -4.7004
1636.156250 88.456 -4.2709
1648.012451 88.436 -3.8235
1659.954590 88.420 -3.3588
1671.983398 88.407 -2.8769
1684.099243 88.399 -2.3801
1696.302856 88.396 -1.8695
1708.594971 88.398 -1.3484
1720.976196 88.405 -0.8197
1733.447144 88.418 -0.2853
1746.008423 88.435 0.2521
1758.660645 88.457 0.7928
1771.404663 88.484 1.3370
1784.240967 88.516 1.8818
1797.170288 88.554 2.4253
1810.193359 88.597 2.9649
1823.310791 88.645 3.4980
1836.523193 88.699 4.0229
1849.831421 88.758 4.5377
1863.236084 88.822 5.0408
1876.737793 88.891 5.5306
1890.337524 88.965 6.0050
1904.035645 89.043 6.4619
1917.833008 89.127 6.8993
1931.730469 89.215 7.3144
1945.728638 89.308 7.7074
1959.828125 89.402 8.0781
1974.029907 89.501 8.4246
1988.334473 89.604 8.7462
2002.742798 89.712 9.0389
2017.255493 89.822 9.2974
2031.873291 89.935 9.5242
2046.597168 90.048 9.7188
2061.427734 90.161 9.8843
2076.365479 90.276 10.0235
2091.411865 90.391 10.1366
2106.566895 90.506 10.2236
2121.832031 90.622 10.2878
2137.207764 90.736 10.3305
2152.694824 90.850 10.3569
2168.294189 90.963 10.3724
2184.006592 91.077 10.3780
2199.832764 91.192 10.3768
2215.773682 91.308 10.3681
2231.830078 91.425 10.3519
2248.002686 91.545 10.3281
2264.292725 91.667 10.2966
2280.700684 91.792 10.2572
2297.227539 91.921 10.2120
2313.874268 92.054 10.1543
2330.641602 92.195 10.0802
2347.530273 92.340 9.9835
2364.541504 92.490 9.8569
2381.676025 92.645 9.6988
2398.934570 92.806 9.5077
2416.318359 92.971 9.2761
2433.827881 93.143 8.9977
2451.464355 93.319 8.6675
2469.228760 93.499 8.2804
2487.121826 93.683 7.8301
2505.144531 93.872 7.3102
2523.297852 94.063 6.7149
2541.582764 94.254 6.0347
2560.000000 94.442 5.2745
2578.550781 94.627 4.4366
2597.236084 94.808 3.5204
2616.056641 94.986 2.5245
2635.013672 95.157 1.4547
2654.108154 95.319 0.3130
2673.340820 95.472 -0.8906
2692.713135 95.617 -2.1453
2712.225586 95.753 -3.4518
2731.879395 95.883 -4.8096
2751.675781 96.002 -6.2124
2771.615479 96.110 -7.6555
2791.699707 96.208 -9.1324
2811.929688 96.295 -10.6357
2832.305908 96.373 -12.1628
2852.830078 96.439 -13.7116
2873.502930 96.495 -15.2722
2894.325439 96.538 -16.8351
2915.298828 96.571 -18.3969
2936.424316 96.596 -19.9505
2957.702881 96.613 -21.4973
2979.135742 96.622 -23.0369
3000.723633 96.624 -24.5673
3022.468262 96.618 -26.0857
3044.370117 96.605 -27.5930
3066.430908 96.587 -29.0903
3088.651611 96.563 -30.5773
3111.033203 96.532 -32.0552
3133.577148 96.494 -33.5211
3156.284180 96.451 -34.9715
3179.156006 96.402 -36.4092
3202.193359 96.349 -37.8355
3225.397949 96.291 -39.2503
3248.770508 96.228 -40.6533
3272.312500 96.160 -42.0468
3296.024902 96.089 -43.4309
3319.909180 96.014 -44.8116
3343.966797 95.936 -46.1951
3368.198486 95.852 -47.5804
3392.605713 95.763 -48.9685
3417.189941 95.667 -50.3605
3441.952393 95.567 -51.7584
3466.894287 95.459 -53.1607
3492.016846 95.341 -54.5684
3517.321289 95.216 -55.9765
3542.809326 95.081 -57.3810
3568.481934 94.936 -58.7795
3594.340576 94.780 -60.1711
3620.386719 94.613 -61.5475
3646.621582 94.432 -62.9028
3673.046387 94.238 -64.2288
3699.662842 94.032 -65.5180
3726.472168 93.812 -66.7624
3753.475586 93.578 -67.9549
3780.675049 93.330 -69.0851
3808.071289 93.068 -70.1424
3835.666016 92.793 -71.1196
3863.460938 92.506 -72.0090
3891.457275 92.205 -72.8005
3919.656250 91.891 -73.4846
3948.059814 91.566 -74.0507
3976.668945 91.230 -74.4884
4005.485596 90.884 -74.7879
4034.510986 90.528 -74.9420
4063.746582 90.163 -74.9325
4093.194336 89.788 -74.7433
4122.855469 89.408 -74.3604
4152.730957 89.024 -73.7676
4182.823730 88.641 -72.9544
4213.133789 88.259 -71.9047
4243.664062 87.886 -70.6187
4274.415527 87.526 -69.0862
4305.389648 87.187 -67.3232
4336.588379 86.875 -65.3336
4368.013184 86.596 -63.1439
4399.665527 86.357 -60.7658
4431.547363 86.165 -58.2476
4463.660156 86.031 -55.6219
4496.005371 85.953 -52.9475
4528.585449 85.936 -50.2764
4561.401367 85.977 -47.6612
4594.455078 86.074 -45.1561
4627.748535 86.221 -42.8080
4661.283203 86.415 -40.6745
4695.060547 86.641 -38.7786
4729.083008 86.888 -37.1658
4763.352051 87.147 -35.8257
4797.869141 87.406 -34.7746
4832.636719 87.657 -33.9764
4867.655762 87.889 -33.4195
4902.928711 88.100 -33.0464
4938.457520 88.282 -32.8148
4974.243652 88.438 -32.6676
5010.289062 88.566 -32.5479
5046.595703 88.672 -32.4128
5083.165527 88.757 -32.2068
5120.000000 88.831 -31.9107
5157.101562 88.899 -31.4837
5194.472168 88.972 -30.9360
5232.113281 89.058 -30.2519
5270.027344 89.164 -29.4691
5308.216309 89.301 -28.6046
5346.681641 89.469 -27.7054
5385.426270 89.673 -26.8095
5424.451172 89.912 -25.9620
5463.758789 90.186 -25.2067
5503.351562 90.490 -24.5856
5543.230957 90.824 -24.1483
5583.399414 91.176 -23.9156
5623.859375 91.539 -23.9246
5664.611816 91.906 -24.1762
5705.660156 92.272 -24.6871
5747.005859 92.629 -25.4455
5788.650879 92.970 -26.4557
5830.597656 93.289 -27.6841
5872.848633 93.579 -29.1119
5915.405762 93.840 -30.6985
5958.271484 94.068 -32.4102
6001.447266 94.264 -34.2076
6044.936523 94.426 -36.0521
6088.740234 94.556 -37.9077
6132.861816 94.657 -39.7314
6177.303223 94.734 -41.5063
6222.066406 94.789 -43.2022
6267.154297 94.827 -44.8151
6312.568359 94.852 -46.3295
6358.312012 94.867 -47.7491
6404.386719 94.876 -49.0697
6450.795898 94.881 -50.3009
6497.541016 94.887 -51.4477
6544.625000 94.893 -52.5188
6592.049805 94.901 -53.5216
6639.818359 94.912 -54.4653
6687.933594 94.929 -55.3588
6736.396973 94.951 -56.2107
6785.211426 94.979 -57.0302
6834.379883 95.013 -57.8240
6883.904785 95.053 -58.6004
6933.788574 95.098 -59.3631
6984.033691 95.148 -60.1190
7034.642578 95.204 -60.8673
7085.618652 95.263 -61.6100
7136.963867 95.327 -62.3443
7188.681152 95.395 -63.0684
7240.773438 95.471 -63.7814
7293.243164 95.553 -64.4794
7346.092773 95.646 -65.1705
7399.325684 95.752 -65.8543
7452.944336 95.873 -66.5534
7506.951172 96.013 -67.2819
7561.350098 96.171 -68.0658
7616.142578 96.349 -68.9245
7671.332031 96.544 -69.8917
7726.921875 96.759 -70.9985
7782.914551 96.986 -72.2720
7839.312500 97.220 -73.7482
7896.119629 97.455 -75.4325
7953.337891 97.682 -77.3463
8010.971191 97.896 -79.4772
8069.021973 98.088 -81.8308
8127.493164 98.254 -84.3731
8186.388672 98.386 -87.0884
8245.710938 98.482 -89.9268
8305.461914 98.535 -92.8498
8365.647461 98.548 -95.8064
8426.267578 98.518 -98.7468
8487.328125 98.448 -101.6271
8548.831055 98.340 -104.3970
8610.779297 98.199 -107.0246
8673.176758 98.027 -109.4645
8736.026367 97.832 -111.7054
8799.331055 97.622 -113.7189
8863.094727 97.403 -115.5111
8927.320312 97.181 -117.0727
8992.010742 96.963 -118.4234
9057.170898 96.759 -119.5650
9122.802734 96.575 -120.5422
9188.910156 96.420 -121.3846
9255.497070 96.295 -122.1401
9322.566406 96.202 -122.8523
9390.121094 96.140 -123.5642
9458.166016 96.111 -124.3202
9526.704102 96.109 -125.1583
9595.738281 96.131 -126.1287
9665.273438 96.167 -127.2387
9735.311523 96.207 -128.5162
9805.857422 96.247 -129.9488
9876.915039 96.281 -131.5441
9948.487305 96.301 -133.2693
10020.578125 96.298 -135.1114
10093.191406 96.271 -137.0196
10166.331055 96.217 -138.9509
10240.000000 96.138 -140.8680
10314.203125 96.036 -142.7261
10388.944336 95.916 -144.5048
10464.226562 95.779 -146.1668
10540.054688 95.634 -147.7181
10616.432617 95.487 -149.1435
10693.363281 95.343 -150.4694
10770.852539 95.209 -151.7094
10848.902344 95.084 -152.8887
10927.517578 94.970 -154.0340
11006.703125 94.864 -155.1550
11086.461914 94.765 -156.2749
11166.798828 94.669 -157.3799
11247.718750 94.568 -158.4734
11329.223633 94.466 -159.5257
11411.320312 94.357 -160.5151
11494.011719 94.248 -161.4204
11577.301758 94.138 -162.2124
11661.195312 94.037 -162.8925
11745.697266 93.949 -163.4452
11830.811523 93.883 -163.8918
11916.542969 93.845 -164.2349
12002.894531 93.843 -164.5166
12089.873047 93.884 -164.7596
12177.480469 93.971 -165.0253
12265.723633 94.112 -165.3636
12354.606445 94.299 -165.8320
12444.132812 94.532 -166.4875
12534.308594 94.804 -167.3824
12625.136719 95.115 -168.5740
12716.624023 95.449 -170.1049
12808.773438 95.798 -172.0368
12901.591797 96.146 -174.3696
12995.082031 96.477 -177.1374
13089.250000 96.783 179.6998
13184.099609 97.050 176.1496
13279.636719 97.272 172.2787
13375.867188 97.438 168.1255
13472.793945 97.548 163.7831
13570.422852 97.592 159.3306
13668.759766 97.579 154.8486
13767.809570 97.509 150.4331
13867.577148 97.395 146.1167
13968.067383 97.245 141.9705
14069.285156 97.070 137.9733
14171.237305 96.883 134.1459
14273.927734 96.691 130.4324
14377.362305 96.507 126.8052
14481.546875 96.332 123.1976
14586.486328 96.172 119.5497
14692.185547 96.019 115.8141
14798.651367 95.870 111.9207
14905.888672 95.713 107.8809
15013.902344 95.535 103.6652
15122.700195 95.327 99.3279
15232.285156 95.081 94.8874
15342.664062 94.791 90.4241
15453.843750 94.445 86.0046
15565.829102 94.054 81.6890
15678.625000 93.620 77.5673
15792.239258 93.155 73.6159
15906.675781 92.671 69.8564
16021.942383 92.174 66.2422
16138.043945 91.670 62.7564
16254.986328 91.168 59.3309
16372.777344 90.683 55.9084
16491.421875 90.206 52.4385
16610.923828 89.739 48.8355
16731.294922 89.260 45.1467
16852.535156 88.747 41.3666
16974.656250 88.201 37.5700
17097.662109 87.619 33.8060
17221.558594 86.987 30.1478
17346.353516 86.290 26.6665
17472.052734 85.538 23.4169
17598.662109 84.730 20.4792
17726.189453 83.883 17.8474
17854.640625 83.009 15.5521
17984.021484 82.115 13.5612
18114.341797 81.213 11.8595
18245.605469 80.307 10.4244
18377.820312 79.405 9.2209
18510.994141 78.502 8.2717
18645.132812 77.596 7.5764
18780.242188 76.684 7.1704
18916.332031 75.765 7.0685
19053.408203 74.837 7.3314
19191.476562 73.893 8.0227
19330.546875 72.948 9.1506
19470.623047 72.010 10.7787
19611.714844 71.103 12.8025
19753.830078 70.253 15.1662
19896.974609 69.461 17.7844
