* Measurement data measured by REW V5.20.13
* Source: C:\Users\kurin\Desktop\Targets and Curves\Resolve\Img\Lecram\Beyerdynamic_DT-770_5128_SPL.txt
* Format: Comma/Tab/Space delimited data
* Dated: Aug 15, 2023 3:22:18 PM
* REW Settings:
*  C-weighting compensation: Off
*  Target level: 75.0 dB
* Note: ; Measurement imported from C:\Users\kurin\Desktop\Targets and Curves\Resolve\Img\Lecram\Beyerdynamic_DT-770_5128_SPL.txt Format: Comma/Tab/Space delimited data 623 values loaded, 5 Hz to 39,792 Hz log spaced 
* Measurement: Beyerdynamic_DT-770_5128_
* Smoothing: 1/48 octave
* Frequency Step: 1/96 octave
* Start Frequency: 5.000 Hz
*
* Freq(Hz) SPL(dB) Phase(degrees)
5.000000 74.458 71.6850
5.036232 74.482 71.6657
5.072727 74.508 71.6450
5.109486 74.538 71.6211
5.146511 74.573 71.5940
5.183805 74.615 71.5621
5.221369 74.660 71.5280
5.259205 74.707 71.4945
5.297316 74.756 71.4600
5.335702 74.809 71.4233
5.374367 74.863 71.3860
5.413311 74.916 71.3496
5.452538 74.969 71.3130
5.492050 75.022 71.2756
5.531847 75.075 71.2380
5.571934 75.128 71.2011
5.612310 75.181 71.1640
5.652979 75.234 71.1262
5.693943 75.288 71.0880
5.735204 75.341 71.0496
5.776763 75.394 71.0110
5.818624 75.447 70.9721
5.860788 75.500 70.9330
5.903258 75.553 70.8936
5.946035 75.606 70.8540
5.989123 75.659 70.8141
6.032523 75.713 70.7740
6.076237 75.766 70.7336
6.120268 75.819 70.6930
6.164618 75.872 70.6521
6.209289 75.925 70.6110
6.254284 75.978 70.5696
6.299605 76.031 70.5280
6.345255 76.084 70.4862
6.391235 76.138 70.4440
6.437549 76.191 70.4012
6.484198 76.244 70.3580
6.531185 76.297 70.3146
6.578513 76.350 70.2710
6.626183 76.403 70.2271
6.674199 76.456 70.1830
6.722563 76.509 70.1386
6.771278 76.563 70.0940
6.820345 76.616 70.0492
6.869768 76.669 70.0040
6.919549 76.722 69.9582
6.969691 76.775 69.9120
7.020196 76.828 69.8656
7.071068 76.881 69.8190
7.122308 76.934 69.7722
7.173919 76.988 69.7250
7.225904 77.041 69.6772
7.278266 77.094 69.6290
7.331007 77.147 69.5807
7.384131 77.200 69.5320
7.437639 77.253 69.4827
7.491535 77.306 69.4330
7.545822 77.359 69.3831
7.600502 77.413 69.3330
7.655579 77.466 69.2827
7.711054 77.519 69.2320
7.766932 77.572 69.1807
7.823214 77.625 69.1290
7.879904 77.678 69.0772
7.937005 77.732 69.0250
7.994520 77.785 68.9722
8.052452 77.838 68.9190
8.110803 77.891 68.8658
8.169578 77.944 68.8120
8.228777 77.997 68.7572
8.288406 78.050 68.7020
8.348468 78.103 68.6471
8.408964 78.157 68.5920
8.469899 78.210 68.5363
8.531276 78.263 68.4800
8.593097 78.316 68.4233
8.655366 78.369 68.3660
8.718086 78.422 68.3082
8.781260 78.475 68.2500
8.844893 78.528 68.1917
8.908987 78.582 68.1330
8.973545 78.635 68.0738
9.038571 78.688 68.0140
9.104069 78.741 67.9538
9.170040 78.794 67.8930
9.236490 78.847 67.8317
9.303422 78.900 67.7700
9.370838 78.953 67.7082
9.438744 79.007 67.6460
9.507140 79.060 67.5833
9.576033 79.113 67.5200
9.645425 79.166 67.4558
9.715320 79.219 67.3910
9.785721 79.272 67.3262
9.856632 79.325 67.2610
9.928058 79.378 67.1953
10.000000 79.432 67.1290
10.072464 79.485 67.0623
10.145453 79.538 66.9951
10.218971 79.591 66.9273
10.293022 79.644 66.8590
10.367610 79.697 66.7903
10.442738 79.750 66.7210
10.518411 79.803 66.6513
10.594631 79.857 66.5810
10.671404 79.910 66.5098
10.748734 79.963 66.4380
10.826623 80.016 66.3663
10.905077 80.069 66.2941
10.984100 80.122 66.2209
11.063695 80.175 66.1470
11.143867 80.228 66.0728
11.224621 80.282 65.9980
11.305959 80.335 65.9229
11.387886 80.388 65.8471
11.470407 80.441 65.7703
11.553527 80.494 65.6930
11.637249 80.547 65.6153
11.721577 80.600 65.5371
11.806517 80.653 65.4584
11.892071 80.707 65.3791
11.978246 80.760 65.2989
12.065045 80.813 65.2180
12.152473 80.866 65.1368
12.240536 80.919 65.0550
12.329235 80.972 64.9724
12.418578 81.026 64.8891
12.508568 81.079 64.8049
12.599211 81.132 64.7200
12.690510 81.185 64.6349
12.782471 81.238 64.5491
12.875097 81.291 64.4624
12.968395 81.344 64.3751
13.062370 81.397 64.2874
13.157025 81.451 64.1990
13.252366 81.504 64.1094
13.348398 81.557 64.0191
13.445127 81.610 63.9284
13.542556 81.663 63.8371
13.640691 81.716 63.7449
13.739536 81.769 63.6520
13.839099 81.822 63.5584
13.939383 81.876 63.4641
14.040393 81.929 63.3689
14.142136 81.982 63.2730
14.244616 82.035 63.1764
14.347837 82.088 63.0790
14.451808 82.141 62.9809
14.556532 82.194 62.8820
14.662014 82.247 62.7825
14.768262 82.301 62.6821
14.875278 82.354 62.5806
14.983070 82.407 62.4781
15.091644 82.460 62.3750
15.201005 82.513 62.2711
15.311157 82.566 62.1660
15.422109 82.619 62.0601
15.533863 82.672 61.9535
15.646428 82.726 61.8461
15.759809 82.779 61.7375
15.874010 82.832 61.6281
15.989040 82.885 61.5180
16.104904 82.938 61.4071
16.221605 82.991 61.2951
16.339155 83.044 61.1821
16.457554 83.097 61.0686
16.576813 83.151 60.9541
16.696936 83.204 60.8386
16.817928 83.257 60.7221
16.939798 83.310 60.6041
17.062551 83.363 60.4852
17.186193 83.416 60.3655
17.310732 83.469 60.2451
17.436172 83.522 60.1241
17.562521 83.576 60.0021
17.689787 83.629 59.8787
17.817974 83.682 59.7541
17.947090 83.735 59.6286
18.077143 83.788 59.5021
18.208138 83.841 59.3746
18.340080 83.895 59.2461
18.472980 83.948 59.1166
18.606844 84.001 58.9861
18.741676 84.054 58.8546
18.877487 84.107 58.7221
19.014280 84.160 58.5887
19.152065 84.213 58.4542
19.290850 84.266 58.3184
19.430639 84.319 58.1821
19.571442 84.372 58.0455
19.713264 84.425 57.9092
19.856115 84.477 57.7737
20.000000 84.530 57.6391
20.144928 84.583 57.5062
20.290907 84.637 57.3741
20.437943 84.691 57.2430
20.586044 84.746 57.1111
20.735220 84.802 56.9772
20.885475 84.859 56.8402
21.036821 84.917 56.6995
21.189262 84.976 56.5522
21.342808 85.037 56.3953
21.497467 85.098 56.2282
21.653246 85.158 56.0488
21.810154 85.218 55.8583
21.968201 85.277 55.6563
22.127390 85.336 55.4452
22.287735 85.392 55.2265
22.449242 85.447 55.0022
22.611917 85.500 54.7742
22.775772 85.552 54.5453
22.940815 85.602 54.3187
23.107054 85.650 54.0953
23.274498 85.697 53.8771
23.443153 85.744 53.6643
23.613033 85.790 53.4584
23.784142 85.836 53.2582
23.956491 85.882 53.0635
24.130091 85.929 52.8722
24.304947 85.977 52.6825
24.481071 86.026 52.4932
24.658470 86.076 52.3025
24.837156 86.126 52.1103
25.017136 86.175 51.9164
25.198421 86.225 51.7192
25.381020 86.276 51.5169
25.564941 86.328 51.3102
25.750195 86.378 51.0983
25.936790 86.428 50.8833
26.124741 86.478 50.6675
26.314051 86.528 50.4493
26.504732 86.578 50.2273
26.696796 86.628 50.0023
26.890253 86.677 49.7743
27.085112 86.725 49.5443
27.281382 86.773 49.3135
27.479073 86.821 49.0813
27.678198 86.869 48.8470
27.878765 86.916 48.6113
28.080786 86.963 48.3746
28.284271 87.009 48.1383
28.489231 87.055 47.9041
28.695675 87.100 47.6713
28.903616 87.146 47.4398
29.113064 87.192 47.2093
29.324028 87.239 46.9804
29.536524 87.286 46.7513
29.750557 87.334 46.5211
29.966141 87.382 46.2883
30.183289 87.432 46.0517
30.402010 87.482 45.8093
30.622314 87.533 45.5584
30.844217 87.584 45.2993
31.067726 87.634 45.0315
31.292856 87.685 44.7554
31.519617 87.736 44.4713
31.748020 87.786 44.1794
31.978081 87.835 43.8791
32.209808 87.882 43.5724
32.443211 87.928 43.2610
32.678310 87.974 42.9454
32.915108 88.019 42.6270
33.153625 88.063 42.3054
33.393871 88.106 41.9800
33.635857 88.148 41.6525
33.879597 88.189 41.3247
34.125103 88.230 40.9954
34.372387 88.270 40.6643
34.621464 88.310 40.3305
34.872345 88.349 39.9925
35.125042 88.387 39.6524
35.379574 88.423 39.3122
35.635948 88.459 38.9714
35.894180 88.495 38.6306
36.154285 88.530 38.2885
36.416275 88.564 37.9432
36.680161 88.598 37.5965
36.945961 88.630 37.2496
37.213688 88.661 36.9025
37.483353 88.693 36.5561
37.754974 88.724 36.2085
38.028561 88.754 35.8579
38.304131 88.784 35.5055
38.581699 88.813 35.1514
38.861279 88.840 34.7975
39.142883 88.866 34.4456
39.426529 88.891 34.0955
39.712231 88.916 33.7474
40.000000 88.940 33.4015
40.289856 88.964 33.0584
40.581814 88.988 32.7165
40.875885 89.012 32.3744
41.172089 89.035 32.0315
41.470440 89.058 31.6868
41.770950 89.081 31.3396
42.073643 89.104 30.9893
42.378525 89.127 30.6345
42.685616 89.149 30.2732
42.994934 89.170 29.9065
43.306492 89.189 29.5342
43.620308 89.206 29.1586
43.936401 89.220 28.7818
44.254780 89.233 28.4046
44.575470 89.244 28.0276
44.898483 89.253 27.6536
45.223835 89.258 27.2836
45.551544 89.260 26.9235
45.881630 89.259 26.5779
46.214108 89.254 26.2525
46.548996 89.246 25.9533
46.886307 89.237 25.6834
47.226067 89.228 25.4484
47.568283 89.219 25.2463
47.912983 89.213 25.0782
48.260181 89.210 24.9402
48.609894 89.211 24.8317
48.962143 89.218 24.7441
49.316940 89.232 24.6719
49.674313 89.253 24.6051
50.034271 89.282 24.5345
50.396843 89.317 24.4531
50.762039 89.359 24.3529
51.129883 89.406 24.2282
51.500389 89.458 24.0716
51.873581 89.515 23.8814
52.249481 89.574 23.6534
52.628101 89.636 23.3875
53.009464 89.698 23.0826
53.393593 89.762 22.7366
53.780506 89.826 22.3469
54.170223 89.890 21.9138
54.562763 89.951 21.4348
54.958145 90.010 20.9149
55.356396 90.065 20.3575
55.757530 90.116 19.7640
56.161572 90.163 19.1356
56.568542 90.206 18.4761
56.978462 90.242 17.7879
57.391350 90.273 17.0763
57.807232 90.297 16.3471
58.226128 90.316 15.6013
58.648056 90.330 14.8417
59.073048 90.338 14.0683
59.501114 90.340 13.2816
59.932281 90.337 12.4834
60.366577 90.327 11.6760
60.804020 90.311 10.8594
61.244629 90.289 10.0337
61.688435 90.260 9.2014
62.135452 90.223 8.3642
62.585712 90.177 7.5254
63.039234 90.124 6.6877
63.496040 90.062 5.8554
63.956161 89.990 5.0305
64.419617 89.908 4.2224
64.886421 89.814 3.4390
65.356621 89.709 2.6873
65.830215 89.595 1.9748
66.307251 89.470 1.3083
66.787743 89.335 0.6932
67.271713 89.188 0.1410
67.759193 89.031 -0.3378
68.250206 88.864 -0.7353
68.744774 88.691 -1.0428
69.242928 88.510 -1.2527
69.744690 88.322 -1.3574
70.250084 88.129 -1.3491
70.759148 87.934 -1.2197
71.271896 87.736 -0.9626
71.788361 87.538 -0.5696
72.308571 87.343 -0.0381
72.832550 87.153 0.6393
73.360321 86.973 1.4554
73.891922 86.807 2.4098
74.427376 86.658 3.4888
74.966705 86.528 4.6860
75.509949 86.421 5.9796
76.057121 86.343 7.3552
76.608261 86.293 8.7841
77.163399 86.274 10.2414
77.722557 86.285 11.7020
78.285767 86.326 13.1390
78.853058 86.396 14.5322
79.424461 86.492 15.8581
80.000000 86.612 17.1006
80.579712 86.753 18.2386
81.163628 86.913 19.2642
81.751770 87.086 20.1622
82.344177 87.271 20.9335
82.940880 87.462 21.5732
83.541901 87.660 22.0841
84.147285 87.860 22.4662
84.757050 88.062 22.7236
85.371231 88.261 22.8572
85.989868 88.457 22.8771
86.612984 88.648 22.7906
87.240616 88.834 22.6065
87.872803 89.011 22.3326
88.509560 89.181 21.9788
89.150940 89.342 21.5549
89.796967 89.496 21.0681
90.447670 89.641 20.5264
91.103088 89.777 19.9363
91.763260 89.904 19.3044
92.428215 90.023 18.6374
93.097992 90.133 17.9429
93.772614 90.236 17.2245
94.452133 90.332 16.4880
95.136566 90.421 15.7346
95.825966 90.503 14.9673
96.520363 90.580 14.1857
97.219788 90.652 13.3896
97.924286 90.718 12.5817
98.633881 90.777 11.7648
99.348625 90.831 10.9387
100.068542 90.880 10.1040
100.793686 90.924 9.2611
101.524078 90.962 8.4094
102.259766 90.995 7.5531
103.000778 91.021 6.6961
103.747162 91.042 5.8396
104.498962 91.058 4.9865
105.256203 91.069 4.1366
106.018929 91.076 3.2904
106.787186 91.078 2.4486
107.561012 91.076 1.6117
108.340446 91.070 0.7804
109.125526 91.060 -0.0445
109.916290 91.045 -0.8625
110.712791 91.027 -1.6735
111.515060 91.005 -2.4753
112.323143 90.978 -3.2666
113.137085 90.948 -4.0454
113.956924 90.914 -4.8088
114.782700 90.877 -5.5581
115.614464 90.838 -6.2930
116.452255 90.797 -7.0146
117.296112 90.754 -7.7231
118.146095 90.709 -8.4215
119.002228 90.664 -9.1122
119.864563 90.618 -9.7971
120.733154 90.569 -10.4793
121.608040 90.519 -11.1585
122.489258 90.468 -11.8352
123.376869 90.414 -12.5104
124.270905 90.359 -13.1858
125.171425 90.300 -13.8598
126.078468 90.238 -14.5313
126.992081 90.172 -15.1995
127.912323 90.105 -15.8631
128.839233 90.034 -16.5217
129.772842 89.960 -17.1751
130.713242 89.883 -17.8217
131.660431 89.803 -18.4588
132.614502 89.719 -19.0882
133.575485 89.634 -19.7114
134.543427 89.545 -20.3268
135.518387 89.453 -20.9336
136.500412 89.357 -21.5309
137.489548 89.259 -22.1171
138.485855 89.158 -22.6936
139.489380 89.054 -23.2612
140.500168 88.946 -23.8188
141.518295 88.835 -24.3647
142.543793 88.721 -24.9007
143.576721 88.605 -25.4284
144.617142 88.485 -25.9459
145.665100 88.360 -26.4520
146.720642 88.230 -26.9456
147.783844 88.099 -27.4249
148.854752 87.963 -27.8908
149.933411 87.823 -28.3466
151.019897 87.676 -28.7839
152.114243 87.523 -29.1959
153.216522 87.364 -29.5809
154.326797 87.202 -29.9345
155.445114 87.036 -30.2593
156.571533 86.867 -30.5584
157.706116 86.692 -30.8264
158.848923 86.511 -31.0600
160.000000 86.325 -31.2566
161.159424 86.136 -31.4126
162.327255 85.942 -31.5268
163.503540 85.744 -31.5983
164.688354 85.541 -31.6230
165.881760 85.334 -31.5986
167.083801 85.123 -31.5193
168.294571 84.906 -31.3798
169.514099 84.685 -31.1756
170.742462 84.461 -30.9007
171.979736 84.235 -30.5540
173.225967 84.007 -30.1337
174.481232 83.778 -29.6362
175.745605 83.548 -29.0587
177.019119 83.319 -28.3987
178.301880 83.090 -27.6532
179.593933 82.864 -26.8213
180.895340 82.641 -25.9000
182.206177 82.423 -24.8915
183.526520 82.210 -23.7960
184.856430 82.004 -22.6158
186.195984 81.808 -21.3522
187.545227 81.620 -20.0083
188.904266 81.443 -18.5843
190.273132 81.277 -17.0887
191.651932 81.127 -15.5275
193.040726 80.991 -13.9096
194.439575 80.871 -12.2425
195.848572 80.767 -10.5359
197.267761 80.681 -8.7989
198.697250 80.611 -7.0413
200.137085 80.558 -5.2743
201.587372 80.522 -3.5042
203.048157 80.502 -1.7391
204.519531 80.498 0.0148
206.001556 80.510 1.7504
207.494324 80.537 3.4628
208.997925 80.577 5.1465
210.512405 80.632 6.7961
212.037857 80.700 8.4073
213.574371 80.783 9.9713
215.122025 80.879 11.4805
216.680893 80.988 12.9282
218.251053 81.107 14.3073
219.832581 81.237 15.6113
221.425583 81.375 16.8312
223.030121 81.521 17.9672
224.646286 81.670 19.0154
226.274170 81.822 19.9796
227.913849 81.974 20.8614
229.565399 82.128 21.6641
231.228928 82.280 22.3888
232.904510 82.431 23.0441
234.592224 82.577 23.6374
236.292191 82.721 24.1737
238.004456 82.861 24.6592
239.729126 82.999 25.0969
241.466309 83.133 25.4898
243.216080 83.263 25.8431
244.978516 83.388 26.1615
246.753738 83.509 26.4492
248.541809 83.626 26.7116
250.342850 83.740 26.9504
252.156937 83.851 27.1676
253.984161 83.958 27.3675
255.824646 84.060 27.5544
257.678467 84.160 27.7296
259.545685 84.259 27.8962
261.426483 84.356 28.0526
263.320862 84.451 28.1985
265.229004 84.545 28.3336
267.150970 84.638 28.4583
269.086853 84.731 28.5707
271.036774 84.823 28.6700
273.000824 84.914 28.7538
274.979095 85.005 28.8197
276.971710 85.095 28.8669
278.978760 85.184 28.8939
281.000336 85.271 28.9000
283.036591 85.356 28.8833
285.087585 85.439 28.8461
287.153442 85.518 28.7896
289.234283 85.593 28.7162
291.330200 85.665 28.6276
293.441284 85.733 28.5283
295.567688 85.796 28.4218
297.709503 85.855 28.3123
299.866821 85.909 28.2045
302.039795 85.960 28.1003
304.228485 86.008 28.0028
306.433044 86.053 27.9122
308.653595 86.096 27.8300
310.890228 86.137 27.7562
313.143066 86.176 27.6915
315.412231 86.214 27.6351
317.697845 86.251 27.5868
320.000000 86.287 27.5451
322.318848 86.322 27.5082
324.654510 86.357 27.4771
327.007080 86.390 27.4520
329.376709 86.422 27.4331
331.763519 86.454 27.4203
334.167603 86.485 27.4140
336.589142 86.516 27.4146
339.028198 86.546 27.4210
341.484924 86.576 27.4326
343.959473 86.607 27.4489
346.451935 86.637 27.4697
348.962463 86.667 27.4939
351.491211 86.697 27.5203
354.038239 86.728 27.5489
356.603760 86.759 27.5797
359.187866 86.789 27.6119
361.790680 86.819 27.6449
364.412354 86.848 27.6789
367.053040 86.877 27.7133
369.712860 86.906 27.7499
372.391968 86.934 27.7893
375.090454 86.961 27.8339
377.808533 86.986 27.8855
380.546265 87.011 27.9458
383.303864 87.036 28.0168
386.081451 87.061 28.0987
388.879150 87.086 28.1926
391.697144 87.112 28.2977
394.535522 87.139 28.4150
397.394501 87.169 28.5406
400.274170 87.201 28.6721
403.174744 87.235 28.8066
406.096313 87.272 28.9410
409.039062 87.311 29.0736
412.003113 87.352 29.2019
414.988647 87.394 29.3256
417.995850 87.437 29.4439
421.024811 87.482 29.5567
424.075714 87.528 29.6637
427.148743 87.575 29.7647
430.244049 87.624 29.8601
433.361786 87.674 29.9477
436.502106 87.725 30.0261
439.665161 87.778 30.0938
442.851166 87.832 30.1497
446.060242 87.887 30.1919
449.292572 87.942 30.2181
452.548340 87.998 30.2290
455.827698 88.053 30.2238
459.130798 88.107 30.2051
462.457855 88.159 30.1748
465.809021 88.211 30.1341
469.184448 88.261 30.0842
472.584381 88.310 30.0272
476.008911 88.356 29.9658
479.458252 88.402 29.9002
482.932617 88.447 29.8315
486.432159 88.491 29.7602
489.957031 88.534 29.6873
493.507477 88.576 29.6132
497.083618 88.616 29.5389
500.685699 88.656 29.4642
504.313873 88.696 29.3894
507.968323 88.735 29.3142
511.649292 88.774 29.2382
515.356934 88.812 29.1623
519.091370 88.849 29.0877
522.852966 88.886 29.0132
526.641724 88.923 28.9379
530.458008 88.960 28.8622
534.301941 88.996 28.7868
538.173706 89.032 28.7113
542.073547 89.068 28.6361
546.001648 89.104 28.5603
549.958191 89.140 28.4828
553.943420 89.176 28.4043
557.957520 89.212 28.3253
562.000671 89.248 28.2453
566.073181 89.284 28.1638
570.175171 89.320 28.0803
574.306885 89.356 27.9939
578.468567 89.392 27.9053
582.660400 89.427 27.8158
586.882568 89.463 27.7233
591.135376 89.500 27.6268
595.419006 89.537 27.5254
599.733643 89.574 27.4173
604.079590 89.610 27.3034
608.456970 89.646 27.1839
612.866089 89.682 27.0584
617.307190 89.717 26.9264
621.780457 89.751 26.7895
626.286133 89.784 26.6488
630.824463 89.817 26.5055
635.395691 89.848 26.3610
640.000000 89.879 26.2145
644.637695 89.910 26.0660
649.309021 89.940 25.9145
654.014160 89.970 25.7594
658.753418 90.000 25.5995
663.527039 90.029 25.4335
668.335205 90.058 25.2616
673.178284 90.086 25.0832
678.056396 90.113 24.8996
682.969849 90.138 24.7113
687.918945 90.161 24.5197
692.903870 90.183 24.3257
697.924927 90.203 24.1307
702.982422 90.222 23.9359
708.076477 90.239 23.7427
713.207520 90.254 23.5527
718.375732 90.268 23.3657
723.581360 90.282 23.1821
728.824707 90.295 23.0006
734.106079 90.307 22.8196
739.425720 90.318 22.6396
744.783936 90.328 22.4605
750.180908 90.336 22.2836
755.617065 90.344 22.1106
761.092529 90.350 21.9406
766.607727 90.355 21.7728
772.162903 90.359 21.6096
777.758301 90.361 21.4535
783.394287 90.362 21.3035
789.071045 90.363 21.1597
794.789001 90.364 21.0215
800.548340 90.363 20.8884
806.349487 90.362 20.7595
812.192627 90.361 20.6330
818.078125 90.359 20.5104
824.006226 90.355 20.3917
829.977295 90.349 20.2794
835.991699 90.342 20.1755
842.049622 90.334 20.0813
848.151428 90.325 19.9979
854.297485 90.315 19.9272
860.488098 90.304 19.8720
866.723572 90.292 19.8311
873.004211 90.281 19.8054
879.330322 90.270 19.7920
885.702332 90.261 19.7884
892.120483 90.252 19.7950
898.585144 90.243 19.8108
905.096680 90.234 19.8369
911.655396 90.226 19.8742
918.261597 90.219 19.9218
924.915710 90.213 19.9791
931.618042 90.208 20.0467
938.368896 90.203 20.1257
945.168762 90.200 20.2146
952.017822 90.199 20.3139
958.916504 90.200 20.4196
965.865234 90.204 20.5281
972.864319 90.209 20.6386
979.914062 90.216 20.7490
987.014954 90.224 20.8596
994.167236 90.235 20.9713
1001.371399 90.247 21.0806
1008.627747 90.261 21.1836
1015.936646 90.277 21.2826
1023.298584 90.292 21.3787
1030.713867 90.308 21.4717
1038.182739 90.326 21.5634
1045.705933 90.346 21.6496
1053.283447 90.367 21.7272
1060.916016 90.390 21.7957
1068.603882 90.412 21.8540
1076.347412 90.435 21.9018
1084.147095 90.459 21.9389
1092.003296 90.483 21.9639
1099.916382 90.507 21.9756
1107.886841 90.530 21.9740
1115.915039 90.552 21.9587
1124.001343 90.572 21.9301
1132.146362 90.591 21.8877
1140.350342 90.607 21.8352
1148.613770 90.619 21.7746
1156.937134 90.628 21.7103
1165.320801 90.632 21.6452
1173.765137 90.632 21.5852
1182.270752 90.627 21.5353
1190.838013 90.618 21.5021
1199.467285 90.604 21.4925
1208.159180 90.587 21.5109
1216.913940 90.567 21.5637
1225.732178 90.546 21.6516
1234.614380 90.524 21.7787
1243.560913 90.503 21.9413
1252.572266 90.484 22.1388
1261.648926 90.468 22.3670
1270.791382 90.455 22.6227
1280.000000 90.445 22.9029
1289.275391 90.439 23.2049
1298.618042 90.436 23.5246
1308.028320 90.438 23.8577
1317.506836 90.443 24.2025
1327.054077 90.452 24.5563
1336.670410 90.465 24.9186
1346.356567 90.480 25.2885
1356.112793 90.499 25.6636
1365.939697 90.522 26.0413
1375.837891 90.549 26.4214
1385.807739 90.578 26.8031
1395.849854 90.610 27.1855
1405.964844 90.645 27.5682
1416.152954 90.683 27.9496
1426.415039 90.724 28.3278
1436.751465 90.768 28.7036
1447.162720 90.813 29.0761
1457.649414 90.861 29.4475
1468.212158 90.911 29.8199
1478.851440 90.963 30.1926
1489.567871 91.017 30.5654
1500.361816 91.074 30.9386
1511.234131 91.133 31.3118
1522.185059 91.195 31.6863
1533.215454 91.259 32.0633
1544.325806 91.326 32.4423
1555.516602 91.396 32.8241
1566.788574 91.470 33.2064
1578.142090 91.548 33.5878
1589.578003 91.630 33.9664
1601.096680 91.716 34.3399
1612.698975 91.806 34.7075
1624.385254 91.899 35.0681
1636.156250 91.998 35.4205
1648.012451 92.100 35.7638
1659.954590 92.208 36.0948
1671.983398 92.320 36.4101
1684.099243 92.436 36.7098
1696.302856 92.555 36.9934
1708.594971 92.677 37.2598
1720.976196 92.805 37.5089
1733.447144 92.936 37.7371
1746.008423 93.073 37.9407
1758.660645 93.213 38.1193
1771.404663 93.357 38.2714
1784.240967 93.504 38.3965
1797.170288 93.655 38.4958
1810.193359 93.809 38.5638
1823.310791 93.969 38.5956
1836.523193 94.132 38.5901
1849.831421 94.297 38.5444
1863.236084 94.464 38.4585
1876.737793 94.634 38.3327
1890.337524 94.806 38.1628
1904.035645 94.980 37.9448
1917.833008 95.154 37.6791
1931.730469 95.329 37.3640
1945.728638 95.502 37.0026
1959.828125 95.674 36.5976
1974.029907 95.845 36.1490
1988.334473 96.015 35.6578
2002.742798 96.184 35.1242
2017.255493 96.352 34.5490
2031.873291 96.517 33.9315
2046.597168 96.682 33.2718
2061.427734 96.844 32.5682
2076.365479 97.004 31.8180
2091.411865 97.160 31.0234
2106.566895 97.312 30.1848
2121.832031 97.459 29.3047
2137.207764 97.602 28.3845
2152.694824 97.739 27.4279
2168.294189 97.871 26.4371
2184.006592 97.996 25.4177
2199.832764 98.116 24.3759
2215.773682 98.230 23.3114
2231.830078 98.340 22.2265
2248.002686 98.446 21.1197
2264.292725 98.547 19.9897
2280.700684 98.643 18.8380
2297.227539 98.733 17.6658
2313.874268 98.819 16.4719
2330.641602 98.899 15.2552
2347.530273 98.975 14.0174
2364.541504 99.043 12.7586
2381.676025 99.106 11.4828
2398.934570 99.161 10.1932
2416.318359 99.210 8.8929
2433.827881 99.251 7.5851
2451.464355 99.286 6.2725
2469.228760 99.314 4.9585
2487.121826 99.337 3.6436
2505.144531 99.354 2.3300
2523.297852 99.367 1.0160
2541.582764 99.374 -0.2990
2560.000000 99.377 -1.6162
2578.550781 99.375 -2.9372
2597.236084 99.368 -4.2619
2616.056641 99.355 -5.5909
2635.013672 99.337 -6.9234
2654.108154 99.314 -8.2592
2673.340820 99.284 -9.5972
2692.713135 99.248 -10.9371
2712.225586 99.205 -12.2757
2731.879395 99.156 -13.6094
2751.675781 99.100 -14.9389
2771.615479 99.040 -16.2635
2791.699707 98.973 -17.5842
2811.929688 98.900 -18.9015
2832.305908 98.821 -20.2148
2852.830078 98.737 -21.5237
2873.502930 98.646 -22.8283
2894.325439 98.549 -24.1286
2915.298828 98.444 -25.4251
2936.424316 98.334 -26.7169
2957.702881 98.218 -28.0084
2979.135742 98.096 -29.3030
3000.723633 97.967 -30.6033
3022.468262 97.828 -31.9134
3044.370117 97.681 -33.2319
3066.430908 97.523 -34.5590
3088.651611 97.354 -35.8950
3111.033203 97.173 -37.2426
3133.577148 96.978 -38.5946
3156.284180 96.764 -39.9491
3179.156006 96.531 -41.2917
3202.193359 96.277 -42.6139
3225.397949 95.998 -43.8960
3248.770508 95.694 -45.1228
3272.312500 95.364 -46.2720
3296.024902 95.007 -47.3285
3319.909180 94.620 -48.2561
3343.966797 94.199 -49.0321
3368.198486 93.744 -49.5999
3392.605713 93.252 -49.9138
3417.189941 92.727 -49.9178
3441.952393 92.170 -49.5558
3466.894287 91.587 -48.7815
3492.016846 90.979 -47.5415
3517.321289 90.358 -45.8013
3542.809326 89.727 -43.5104
3568.481934 89.108 -40.6625
3594.340576 88.511 -37.2139
3620.386719 87.966 -33.2262
3646.621582 87.501 -28.7040
3673.046387 87.138 -23.7763
3699.662842 86.908 -18.5211
3726.472168 86.819 -13.0982
3753.475586 86.896 -7.6431
3780.675049 87.117 -2.3075
3808.071289 87.480 2.7436
3835.666016 87.952 7.4139
3863.460938 88.505 11.5591
3891.457275 89.113 15.1593
3919.656250 89.745 18.1284
3948.059814 90.386 20.5212
3976.668945 91.012 22.3368
4005.485596 91.622 23.6586
4034.510986 92.209 24.5513
4063.746582 92.773 25.0713
4093.194336 93.315 25.2856
4122.855469 93.835 25.2279
4152.730957 94.332 24.9510
4182.823730 94.809 24.4638
4213.133789 95.270 23.7920
4243.664062 95.712 22.9375
4274.415527 96.133 21.9063
4305.389648 96.532 20.7122
4336.588379 96.907 19.3665
4368.013184 97.258 17.8824
4399.665527 97.586 16.2707
4431.547363 97.887 14.5497
4463.660156 98.159 12.7342
4496.005371 98.403 10.8456
4528.585449 98.619 8.9042
4561.401367 98.807 6.9285
4594.455078 98.969 4.9373
4627.748535 99.103 2.9497
4661.283203 99.212 0.9856
4695.060547 99.296 -0.9387
4729.083008 99.358 -2.8031
4763.352051 99.400 -4.5996
4797.869141 99.425 -6.3148
4832.636719 99.435 -7.9450
4867.655762 99.433 -9.4821
4902.928711 99.420 -10.9272
4938.457520 99.400 -12.2769
4974.243652 99.374 -13.5372
5010.289062 99.346 -14.7118
5046.595703 99.315 -15.8047
5083.165527 99.282 -16.8195
5120.000000 99.248 -17.7616
5157.101562 99.217 -18.6351
5194.472168 99.188 -19.4472
5232.113281 99.161 -20.2055
5270.027344 99.137 -20.9126
5308.216309 99.115 -21.5716
5346.681641 99.096 -22.1881
5385.426270 99.083 -22.7678
5424.451172 99.072 -23.3124
5463.758789 99.063 -23.8300
5503.351562 99.054 -24.3078
5543.230957 99.044 -24.7400
5583.399414 99.035 -25.1133
5623.859375 99.028 -25.4154
5664.611816 99.026 -25.6371
5705.660156 99.031 -25.7623
5747.005859 99.050 -25.8000
5788.650879 99.089 -25.7393
5830.597656 99.158 -25.6237
5872.848633 99.264 -25.4723
5915.405762 99.409 -25.3485
5958.271484 99.596 -25.3019
6001.447266 99.819 -25.3941
6044.936523 100.075 -25.6919
6088.740234 100.352 -26.2296
6132.861816 100.637 -27.0694
6177.303223 100.917 -28.1936
6222.066406 101.176 -29.6231
6267.154297 101.409 -31.3030
6312.568359 101.605 -33.2084
6358.312012 101.762 -35.2694
6404.386719 101.875 -37.4291
6450.795898 101.946 -39.6227
6497.541016 101.975 -41.7774
6544.625000 101.969 -43.8588
6592.049805 101.935 -45.8113
6639.818359 101.879 -47.6270
6687.933594 101.808 -49.2775
6736.396973 101.726 -50.7697
6785.211426 101.642 -52.0955
6834.379883 101.558 -53.2723
6883.904785 101.483 -54.3085
6933.788574 101.416 -55.2236
6984.033691 101.362 -56.0337
7034.642578 101.323 -56.7576
7085.618652 101.302 -57.4119
7136.963867 101.300 -58.0190
7188.681152 101.319 -58.6006
7240.773438 101.359 -59.1751
7293.243164 101.418 -59.7629
7346.092773 101.498 -60.3808
7399.325684 101.597 -61.0455
7452.944336 101.716 -61.7771
7506.951172 101.855 -62.5945
7561.350098 102.012 -63.5179
7616.142578 102.186 -64.5675
7671.332031 102.375 -65.7634
7726.921875 102.576 -67.1257
7782.914551 102.786 -68.6745
7839.312500 103.002 -70.4333
7896.119629 103.218 -72.4139
7953.337891 103.428 -74.6371
8010.971191 103.626 -77.0993
8069.021973 103.807 -79.8101
8127.493164 103.963 -82.7509
8186.388672 104.088 -85.9189
8245.710938 104.176 -89.2758
8305.461914 104.222 -92.7992
8365.647461 104.222 -96.4385
8426.267578 104.172 -100.1525
8487.328125 104.073 -103.8893
8548.831055 103.922 -107.5989
8610.779297 103.721 -111.2331
8673.176758 103.470 -114.7403
8736.026367 103.174 -118.0804
8799.331055 102.833 -121.2037
8863.094727 102.456 -124.0874
8927.320312 102.047 -126.6935
8992.010742 101.613 -129.0195
9057.170898 101.161 -131.0479
9122.802734 100.697 -132.7856
9188.910156 100.227 -134.2265
9255.497070 99.758 -135.3924
9322.566406 99.298 -136.2941
9390.121094 98.851 -136.9581
9458.166016 98.423 -137.4070
9526.704102 98.015 -137.6631
9595.738281 97.631 -137.7502
9665.273438 97.273 -137.6867
9735.311523 96.942 -137.4912
9805.857422 96.642 -137.1879
9876.915039 96.373 -136.7967
9948.487305 96.137 -136.3485
10020.578125 95.938 -135.8679
10093.191406 95.774 -135.3935
10166.331055 95.648 -134.9583
10240.000000 95.556 -134.6046
10314.203125 95.500 -134.3766
10388.944336 95.469 -134.3019
10464.226562 95.459 -134.4236
10540.054688 95.458 -134.7385
10616.432617 95.456 -135.2689
10693.363281 95.446 -135.9823
10770.852539 95.418 -136.8731
10848.902344 95.367 -137.8823
10927.517578 95.284 -138.9711
11006.703125 95.169 -140.0721
11086.461914 95.019 -141.1218
11166.798828 94.840 -142.0701
11247.718750 94.635 -142.8540
11329.223633 94.414 -143.4485
11411.320312 94.182 -143.8046
11494.011719 93.952 -143.9329
11577.301758 93.736 -143.8114
11661.195312 93.547 -143.4893
11745.697266 93.399 -142.9861
11830.811523 93.297 -142.3705
11916.542969 93.253 -141.6914
12002.894531 93.268 -141.0285
12089.873047 93.349 -140.4513
12177.480469 93.489 -140.0407
12265.723633 93.686 -139.8831
12354.606445 93.925 -140.0313
12444.132812 94.193 -140.5606
12534.308594 94.477 -141.4888
12625.136719 94.763 -142.8638
12716.624023 95.038 -144.6693
12808.773438 95.286 -146.9218
12901.591797 95.498 -149.5699
12995.082031 95.660 -152.5927
13089.250000 95.768 -155.9147
13184.099609 95.813 -159.4791
13279.636719 95.795 -163.2075
13375.867188 95.708 -167.0290
13472.793945 95.552 -170.8633
13570.422852 95.326 -174.6319
13668.759766 95.034 -178.2590
13767.809570 94.675 178.3359
13867.577148 94.256 175.2172
13968.067383 93.780 172.4611
14069.285156 93.257 170.1111
14171.237305 92.693 168.2373
14273.927734 92.104 166.8351
14377.362305 91.506 165.9393
14481.546875 90.915 165.5001
14586.486328 90.347 165.5057
14692.185547 89.819 165.8749
14798.651367 89.352 166.5624
14905.888672 88.956 167.4485
15013.902344 88.654 168.4349
15122.700195 88.435 169.4097
15232.285156 88.303 170.2524
15342.664062 88.243 170.8900
15453.843750 88.246 171.2245
15565.829102 88.296 171.2091
15678.625000 88.377 170.7672
15792.239258 88.471 169.8910
15906.675781 88.561 168.5381
16021.942383 88.632 166.7369
16138.043945 88.668 164.4818
16254.986328 88.657 161.8345
16372.777344 88.587 158.8115
16491.421875 88.444 155.5426
16610.923828 88.213 152.0999
16731.294922 87.888 148.6755
16852.535156 87.459 145.4116
16974.656250 86.926 142.5329
17097.662109 86.278 140.2624
17221.558594 85.536 138.7505
17346.353516 84.701 138.2348
17472.052734 83.817 138.6763
17598.662109 82.906 140.1926
17726.189453 82.038 142.5482
17854.640625 81.280 145.6577
17984.021484 80.674 149.1808
18114.341797 80.297 152.8393
18245.605469 80.115 156.3560
18377.820312 80.140 159.3999
18510.994141 80.298 161.8538
18645.132812 80.535 163.4565
18780.242188 80.797 164.3104
18916.332031 81.011 164.3560
19053.408203 81.173 163.8264
19191.476562 81.250 162.8835
19330.546875 81.257 161.6839
19470.623047 81.200 160.4107
19611.714844 81.084 159.1460
19753.830078 80.906 158.0314
19896.974609 80.695 157.0693
