* Measurement data measured by REW V5.20.13
* Source: C:\Users\kurin\Desktop\Targets and Curves\Resolve\Img\Files\He-1_5128_SPL.txt
* Format: Comma/Tab/Space delimited data
* Dated: Aug 14, 2023 4:53:11 PM
* REW Settings:
*  C-weighting compensation: Off
*  Target level: 75.0 dB
* Note: ; Measurement imported from C:\Users\kurin\Desktop\Targets and Curves\Resolve\Img\Files\He-1_5128_SPL.txt Format: Comma/Tab/Space delimited data 623 values loaded, 5 Hz to 39,792 Hz log spaced 
* Measurement: He-1_5128_SPL
* Smoothing: 1/48 octave
* Frequency Step: 1/96 octave
* Start Frequency: 5.000 Hz
*
* Freq(Hz) SPL(dB) Phase(degrees)
5.000000 82.661 57.3850
5.036232 82.680 57.3666
5.072727 82.701 57.3470
5.109486 82.726 57.3246
5.146511 82.754 57.2990
5.183805 82.787 57.2686
5.221369 82.824 57.2360
5.259205 82.862 57.2036
5.297316 82.902 57.1700
5.335702 82.945 57.1339
5.374367 82.989 57.0970
5.413311 83.032 57.0610
5.452538 83.075 57.0250
5.492050 83.118 56.9886
5.531847 83.161 56.9520
5.571934 83.204 56.9156
5.612310 83.247 56.8790
5.652979 83.290 56.8416
5.693943 83.334 56.8040
5.735204 83.377 56.7666
5.776763 83.420 56.7290
5.818624 83.463 56.6906
5.860788 83.506 56.6520
5.903258 83.549 56.6136
5.946035 83.592 56.5750
5.989123 83.635 56.5357
6.032523 83.679 56.4960
6.076237 83.722 56.4561
6.120268 83.765 56.4160
6.164618 83.808 56.3756
6.209289 83.851 56.3350
6.254284 83.894 56.2941
6.299605 83.937 56.2530
6.345255 83.980 56.2116
6.391235 84.023 56.1700
6.437549 84.066 56.1282
6.484198 84.110 56.0860
6.531185 84.153 56.0432
6.578513 84.196 56.0000
6.626183 84.239 55.9566
6.674199 84.282 55.9130
6.722563 84.325 55.8691
6.771278 84.368 55.8250
6.820345 84.411 55.7807
6.869768 84.455 55.7360
6.919549 84.498 55.6907
6.969691 84.541 55.6450
7.020196 84.584 55.5991
7.071068 84.627 55.5530
7.122308 84.670 55.5067
7.173919 84.713 55.4600
7.225904 84.756 55.4127
7.278266 84.800 55.3650
7.331007 84.843 55.3171
7.384131 84.886 55.2690
7.437639 84.929 55.2207
7.491535 84.972 55.1720
7.545822 85.015 55.1228
7.600502 85.058 55.0730
7.655579 85.101 55.0227
7.711054 85.145 54.9720
7.766932 85.188 54.9211
7.823214 85.231 54.8700
7.879904 85.274 54.8187
7.937005 85.317 54.7670
7.994520 85.360 54.7148
8.052452 85.403 54.6620
8.110803 85.446 54.6087
8.169578 85.489 54.5550
8.228777 85.532 54.5012
8.288406 85.576 54.4470
8.348468 85.619 54.3922
8.408964 85.662 54.3370
8.469899 85.705 54.2817
8.531276 85.748 54.2260
8.593097 85.791 54.1698
8.655366 85.834 54.1130
8.718086 85.877 54.0558
8.781260 85.921 53.9980
8.844893 85.964 53.9397
8.908987 86.007 53.8810
8.973545 86.050 53.8223
9.038571 86.093 53.7630
9.104069 86.136 53.7028
9.170040 86.179 53.6420
9.236490 86.222 53.5812
9.303422 86.266 53.5200
9.370838 86.309 53.4583
9.438744 86.352 53.3960
9.507140 86.395 53.3333
9.576033 86.438 53.2700
9.645425 86.481 53.2063
9.715320 86.524 53.1420
9.785721 86.567 53.0773
9.856632 86.611 53.0120
9.928058 86.654 52.9463
10.000000 86.697 52.8800
10.072464 86.740 52.8133
10.145453 86.783 52.7461
10.218971 86.826 52.6784
10.293022 86.869 52.6100
10.367610 86.912 52.5408
10.442738 86.955 52.4710
10.518411 86.998 52.4013
10.594631 87.042 52.3310
10.671404 87.085 52.2598
10.748734 87.128 52.1880
10.826623 87.171 52.1158
10.905077 87.214 52.0431
10.984100 87.257 51.9694
11.063695 87.300 51.8950
11.143867 87.343 51.8203
11.224621 87.387 51.7450
11.305959 87.430 51.6694
11.387886 87.473 51.5931
11.470407 87.516 51.5159
11.553527 87.559 51.4380
11.637249 87.602 51.3599
11.721577 87.645 51.2811
11.806517 87.688 51.2015
11.892071 87.732 51.1211
11.978246 87.775 51.0399
12.065045 87.818 50.9580
12.152473 87.861 50.8753
12.240536 87.904 50.7920
12.329235 87.947 50.7084
12.418578 87.990 50.6241
12.508568 88.033 50.5390
12.599211 88.077 50.4530
12.690510 88.120 50.3659
12.782471 88.163 50.2781
12.875097 88.206 50.1899
12.968395 88.249 50.1011
13.062370 88.292 50.0115
13.157025 88.335 49.9210
13.252366 88.378 49.8295
13.348398 88.422 49.7371
13.445127 88.465 49.6440
13.542556 88.508 49.5501
13.640691 88.551 49.4555
13.739536 88.594 49.3600
13.839099 88.637 49.2635
13.939383 88.680 49.1661
14.040393 88.723 49.0681
14.142136 88.766 48.9690
14.244616 88.809 48.8685
14.347837 88.853 48.7670
14.451808 88.896 48.6650
14.556532 88.939 48.5620
14.662014 88.982 48.4581
14.768262 89.025 48.3531
14.875278 89.068 48.2467
14.983070 89.111 48.1391
15.091644 89.154 48.0307
15.201005 89.198 47.9211
15.311157 89.241 47.8102
15.422109 89.284 47.6981
15.533863 89.327 47.5847
15.646428 89.370 47.4701
15.759809 89.413 47.3542
15.874010 89.456 47.2371
15.989040 89.499 47.1188
16.104904 89.543 46.9991
16.221605 89.586 46.8779
16.339155 89.629 46.7552
16.457554 89.672 46.6309
16.576813 89.715 46.5051
16.696936 89.758 46.3775
16.817928 89.801 46.2481
16.939798 89.844 46.1171
17.062551 89.888 45.9842
17.186193 89.931 45.8491
17.310732 89.974 45.7121
17.436172 90.017 45.5732
17.562521 90.060 45.4321
17.689787 90.103 45.2885
17.817974 90.146 45.1422
17.947090 90.189 44.9926
18.077143 90.232 44.8401
18.208138 90.275 44.6850
18.340080 90.319 44.5262
18.472980 90.362 44.3626
18.606844 90.405 44.1941
18.741676 90.448 44.0209
18.877487 90.491 43.8412
19.014280 90.534 43.6534
19.152065 90.577 43.4562
19.290850 90.620 43.2484
19.430639 90.661 43.0291
19.571442 90.701 42.7965
19.713264 90.738 42.5533
19.856115 90.771 42.2993
20.000000 90.801 42.0423
20.144928 90.826 41.7881
20.290907 90.846 41.5422
20.437943 90.862 41.3102
20.586044 90.874 41.0981
20.735220 90.882 40.9125
20.885475 90.888 40.7582
21.036821 90.891 40.6427
21.189262 90.895 40.5641
21.342808 90.901 40.5243
21.497467 90.910 40.5180
21.653246 90.923 40.5418
21.810154 90.941 40.5909
21.968201 90.964 40.6625
22.127390 90.993 40.7479
22.287735 91.029 40.8410
22.449242 91.073 40.9319
22.611917 91.124 41.0112
22.775772 91.181 41.0719
22.940815 91.244 41.1057
23.107054 91.311 41.1080
23.274498 91.382 41.0723
23.443153 91.455 40.9971
23.613033 91.528 40.8766
23.784142 91.599 40.7172
23.956491 91.667 40.5210
24.130091 91.731 40.2953
24.304947 91.791 40.0448
24.481071 91.846 39.7784
24.658470 91.894 39.5048
24.837156 91.938 39.2294
25.017136 91.978 38.9591
25.198421 92.014 38.6983
25.381020 92.046 38.4525
25.564941 92.075 38.2242
25.750195 92.102 38.0180
25.936790 92.129 37.8332
26.124741 92.156 37.6706
26.314051 92.183 37.5302
26.504732 92.210 37.4123
26.696796 92.239 37.3171
26.890253 92.270 37.2458
27.085112 92.305 37.1950
27.281382 92.345 37.1645
27.479073 92.390 37.1470
27.678198 92.442 37.1395
27.878765 92.502 37.1300
28.080786 92.571 37.1094
28.284271 92.649 37.0661
28.489231 92.735 36.9896
28.695675 92.828 36.8672
28.903616 92.928 36.6851
29.113064 93.033 36.4354
29.324028 93.139 36.1046
29.536524 93.245 35.6955
29.750557 93.347 35.2040
29.966141 93.443 34.6377
30.183289 93.531 33.9993
30.402010 93.609 33.2999
30.622314 93.674 32.5463
30.844217 93.727 31.7530
31.067726 93.766 30.9323
31.292856 93.792 30.0973
31.519617 93.803 29.2602
31.748020 93.799 28.4350
31.978081 93.780 27.6361
32.209808 93.748 26.8750
32.443211 93.703 26.1642
32.678310 93.646 25.5148
32.915108 93.578 24.9384
33.153625 93.500 24.4455
33.393871 93.413 24.0489
33.635857 93.321 23.7544
33.879597 93.226 23.5718
34.125103 93.130 23.5020
34.372387 93.035 23.5512
34.621464 92.946 23.7127
34.872345 92.866 23.9862
35.125042 92.798 24.3595
35.379574 92.744 24.8267
35.635948 92.708 25.3683
35.894180 92.693 25.9711
36.154285 92.699 26.6101
36.416275 92.729 27.2636
36.680161 92.782 27.9080
36.945961 92.858 28.5190
37.213688 92.955 29.0772
37.483353 93.071 29.5600
37.754974 93.203 29.9525
38.028561 93.349 30.2330
38.304131 93.504 30.3989
38.581699 93.663 30.4372
38.861279 93.823 30.3572
39.142883 93.980 30.1600
39.426529 94.133 29.8565
39.712231 94.279 29.4537
40.000000 94.418 28.9638
40.289856 94.546 28.3958
40.581814 94.665 27.7660
40.875885 94.771 27.0916
41.172089 94.868 26.3791
41.470440 94.957 25.6393
41.770950 95.037 24.8763
42.073643 95.108 24.0952
42.378525 95.170 23.3041
42.685616 95.223 22.5128
42.994934 95.269 21.7211
43.306492 95.311 20.9319
43.620308 95.347 20.1462
43.936401 95.377 19.3651
44.254780 95.401 18.5912
44.575470 95.421 17.8284
44.898483 95.437 17.0732
45.223835 95.451 16.3241
45.551544 95.461 15.5791
45.881630 95.468 14.8360
46.214108 95.472 14.0942
46.548996 95.472 13.3519
46.886307 95.469 12.6092
47.226067 95.462 11.8639
47.568283 95.450 11.1202
47.912983 95.432 10.3801
48.260181 95.408 9.6482
48.609894 95.378 8.9276
48.962143 95.342 8.2250
49.316940 95.300 7.5464
49.674313 95.252 6.8970
50.034271 95.199 6.2837
50.396843 95.143 5.7078
50.762039 95.084 5.1741
51.129883 95.023 4.6788
51.500389 94.963 4.2210
51.873581 94.904 3.7967
52.249481 94.845 3.4027
52.628101 94.788 3.0356
53.009464 94.733 2.6919
53.393593 94.679 2.3685
53.780506 94.627 2.0617
54.170223 94.576 1.7705
54.562763 94.526 1.4926
54.958145 94.478 1.2274
55.356396 94.431 0.9739
55.757530 94.385 0.7304
56.161572 94.341 0.4949
56.568542 94.297 0.2674
56.978462 94.254 0.0477
57.391350 94.212 -0.1656
57.807232 94.172 -0.3734
58.226128 94.133 -0.5777
58.648056 94.094 -0.7818
59.073048 94.055 -0.9827
59.501114 94.016 -1.1782
59.932281 93.976 -1.3677
60.366577 93.936 -1.5499
60.804020 93.895 -1.7237
61.244629 93.855 -1.8877
61.688435 93.815 -2.0417
62.135452 93.775 -2.1861
62.585712 93.735 -2.3188
63.039234 93.695 -2.4371
63.496040 93.657 -2.5438
63.956161 93.622 -2.6396
64.419617 93.588 -2.7288
64.886421 93.556 -2.8166
65.356621 93.526 -2.9019
65.830215 93.496 -2.9848
66.307251 93.468 -3.0668
66.787743 93.443 -3.1485
67.271713 93.419 -3.2328
67.759193 93.396 -3.3241
68.250206 93.373 -3.4188
68.744774 93.349 -3.5151
69.242928 93.326 -3.6128
69.744690 93.304 -3.7106
70.250084 93.283 -3.8108
70.759148 93.262 -3.9162
71.271896 93.241 -4.0238
71.788361 93.219 -4.1312
72.308571 93.198 -4.2398
72.832550 93.178 -4.3495
73.360321 93.158 -4.4618
73.891922 93.137 -4.5787
74.427376 93.116 -4.6988
74.966705 93.095 -4.8205
75.509949 93.075 -4.9458
76.057121 93.055 -5.0763
76.608261 93.034 -5.2107
77.163399 93.011 -5.3493
77.722557 92.987 -5.4897
78.285767 92.962 -5.6297
78.853058 92.936 -5.7687
79.424461 92.909 -5.9062
80.000000 92.880 -6.0397
80.579712 92.849 -6.1669
81.163628 92.817 -6.2868
81.751770 92.785 -6.3976
82.344177 92.752 -6.4998
82.940880 92.719 -6.5931
83.541901 92.686 -6.6778
84.147285 92.653 -6.7541
84.757050 92.619 -6.8219
85.371231 92.586 -6.8810
85.989868 92.554 -6.9319
86.612984 92.522 -6.9749
87.240616 92.490 -7.0109
87.872803 92.460 -7.0404
88.509560 92.430 -7.0650
89.150940 92.402 -7.0861
89.796967 92.374 -7.1050
90.447670 92.348 -7.1233
91.103088 92.322 -7.1410
91.763260 92.297 -7.1577
92.428215 92.272 -7.1750
93.097992 92.248 -7.1946
93.772614 92.225 -7.2160
94.452133 92.202 -7.2398
95.136566 92.178 -7.2639
95.825966 92.153 -7.2869
96.520363 92.128 -7.3080
97.219788 92.103 -7.3257
97.924286 92.079 -7.3410
98.633881 92.054 -7.3545
99.348625 92.030 -7.3660
100.068542 92.006 -7.3755
100.793686 91.982 -7.3820
101.524078 91.957 -7.3840
102.259766 91.933 -7.3830
103.000778 91.910 -7.3792
103.747162 91.888 -7.3750
104.498962 91.866 -7.3739
105.256203 91.844 -7.3730
106.018929 91.821 -7.3701
106.787186 91.798 -7.3660
107.561012 91.777 -7.3599
108.340446 91.756 -7.3540
109.125526 91.734 -7.3513
109.916290 91.712 -7.3480
110.712791 91.689 -7.3412
111.515060 91.666 -7.3320
112.323143 91.644 -7.3202
113.137085 91.622 -7.3070
113.956924 91.599 -7.2949
114.782700 91.576 -7.2800
115.614464 91.552 -7.2595
116.452255 91.527 -7.2331
117.296112 91.503 -7.1990
118.146095 91.479 -7.1591
119.002228 91.456 -7.1144
119.864563 91.434 -7.0651
120.733154 91.412 -7.0116
121.608040 91.391 -6.9551
122.489258 91.371 -6.8971
123.376869 91.352 -6.8381
124.270905 91.334 -6.7788
125.171425 91.316 -6.7201
126.078468 91.300 -6.6629
126.992081 91.284 -6.6081
127.912323 91.268 -6.5575
128.839233 91.251 -6.5091
129.772842 91.234 -6.4622
130.713242 91.217 -6.4151
131.660431 91.200 -6.3653
132.614502 91.182 -6.3141
133.575485 91.165 -6.2624
134.543427 91.148 -6.2091
135.518387 91.130 -6.1542
136.500412 91.111 -6.0951
137.489548 91.092 -6.0289
138.485855 91.074 -5.9572
139.489380 91.057 -5.8802
140.500168 91.040 -5.7992
141.518295 91.024 -5.7146
142.543793 91.009 -5.6282
143.576721 90.996 -5.5412
144.617142 90.983 -5.4552
145.665100 90.971 -5.3727
146.720642 90.959 -5.2922
147.783844 90.947 -5.2126
148.854752 90.936 -5.1352
149.933411 90.926 -5.0614
151.019897 90.916 -4.9902
152.114243 90.905 -4.9223
153.216522 90.893 -4.8542
154.326797 90.880 -4.7816
155.445114 90.868 -4.7072
156.571533 90.857 -4.6323
157.706116 90.846 -4.5562
158.848923 90.834 -4.4791
160.000000 90.822 -4.3992
161.159424 90.810 -4.3136
162.327255 90.799 -4.2262
163.503540 90.790 -4.1397
164.688354 90.781 -4.0542
165.881760 90.773 -3.9709
167.083801 90.764 -3.8882
168.294571 90.754 -3.8050
169.514099 90.745 -3.7212
170.742462 90.737 -3.6362
171.979736 90.729 -3.5512
173.225967 90.721 -3.4678
174.481232 90.714 -3.3852
175.745605 90.707 -3.3031
177.019119 90.699 -3.2212
178.301880 90.692 -3.1390
179.593933 90.684 -3.0562
180.895340 90.676 -2.9726
182.206177 90.669 -2.8882
183.526520 90.662 -2.8025
184.856430 90.655 -2.7162
186.195984 90.648 -2.6299
187.545227 90.642 -2.5432
188.904266 90.636 -2.4556
190.273132 90.630 -2.3682
191.651932 90.625 -2.2817
193.040726 90.620 -2.1962
194.439575 90.614 -2.1134
195.848572 90.608 -2.0302
197.267761 90.601 -1.9446
198.697250 90.594 -1.8562
200.137085 90.588 -1.7641
201.587372 90.582 -1.6682
203.048157 90.575 -1.5682
204.519531 90.569 -1.4643
206.001556 90.564 -1.3557
207.494324 90.560 -1.2453
208.997925 90.558 -1.1354
210.512405 90.556 -1.0273
212.037857 90.555 -0.9228
213.574371 90.555 -0.8212
215.122025 90.555 -0.7224
216.680893 90.555 -0.6263
218.251053 90.555 -0.5332
219.832581 90.555 -0.4423
221.425583 90.555 -0.3527
223.030121 90.555 -0.2642
224.646286 90.555 -0.1765
226.274170 90.555 -0.0892
227.913849 90.555 -0.0020
229.565399 90.555 0.0848
231.228928 90.555 0.1708
232.904510 90.555 0.2567
234.592224 90.555 0.3436
236.292191 90.555 0.4308
238.004456 90.555 0.5179
239.729126 90.555 0.6058
241.466309 90.555 0.6949
243.216080 90.555 0.7858
244.978516 90.555 0.8790
246.753738 90.555 0.9747
248.541809 90.555 1.0729
250.342850 90.556 1.1737
252.156937 90.557 1.2777
253.984161 90.559 1.3837
255.824646 90.562 1.4915
257.678467 90.566 1.5987
259.545685 90.572 1.7028
261.426483 90.578 1.8038
263.320862 90.584 1.9005
265.229004 90.591 1.9937
267.150970 90.598 2.0836
269.086853 90.605 2.1708
271.036774 90.612 2.2557
273.000824 90.619 2.3388
274.979095 90.626 2.4204
276.971710 90.633 2.5008
278.978760 90.640 2.5802
281.000336 90.648 2.6588
283.036591 90.655 2.7365
285.087585 90.663 2.8138
287.153442 90.671 2.8914
289.234283 90.679 2.9678
291.330200 90.688 3.0412
293.441284 90.697 3.1128
295.567688 90.706 3.1825
297.709503 90.715 3.2518
299.866821 90.724 3.3230
302.039795 90.733 3.3938
304.228485 90.744 3.4629
306.433044 90.755 3.5288
308.653595 90.767 3.5888
310.890228 90.780 3.6448
313.143066 90.791 3.6982
315.412231 90.803 3.7479
317.697845 90.816 3.7934
320.000000 90.830 3.8339
322.318848 90.843 3.8680
324.654510 90.855 3.8969
327.007080 90.868 3.9219
329.376709 90.881 3.9419
331.763519 90.894 3.9558
334.167603 90.906 3.9650
336.589142 90.916 3.9696
339.028198 90.926 3.9720
341.484924 90.936 3.9757
343.959473 90.945 3.9780
346.451935 90.954 3.9774
348.962463 90.963 3.9740
351.491211 90.972 3.9673
354.038239 90.980 3.9580
356.603760 90.987 3.9471
359.187866 90.994 3.9340
361.790680 91.001 3.9188
364.412354 91.007 3.9011
367.053040 91.012 3.8796
369.712860 91.016 3.8571
372.391968 91.018 3.8358
375.090454 91.019 3.8161
377.808533 91.020 3.7990
380.546265 91.021 3.7840
383.303864 91.020 3.7707
386.081451 91.019 3.7590
388.879150 91.018 3.7488
391.697144 91.016 3.7410
394.535522 91.012 3.7358
397.394501 91.007 3.7360
400.274170 91.001 3.7447
403.174744 90.994 3.7609
406.096313 90.988 3.7848
409.039062 90.981 3.8159
412.003113 90.974 3.8539
414.988647 90.967 3.8988
417.995850 90.960 3.9508
421.024811 90.954 4.0088
424.075714 90.948 4.0715
427.148743 90.942 4.1408
430.244049 90.935 4.2179
433.361786 90.927 4.3037
436.502106 90.921 4.3986
439.665161 90.915 4.5047
442.851166 90.908 4.6239
446.060242 90.902 4.7566
449.292572 90.898 4.9045
452.548340 90.897 5.0645
455.827698 90.898 5.2358
459.130798 90.903 5.4134
462.457855 90.912 5.5939
465.809021 90.925 5.7714
469.184448 90.942 5.9407
472.584381 90.963 6.0975
476.008911 90.987 6.2363
479.458252 91.013 6.3557
482.932617 91.040 6.4523
486.432159 91.067 6.5268
489.957031 91.094 6.5771
493.507477 91.121 6.6079
497.083618 91.145 6.6219
500.685699 91.167 6.6230
504.313873 91.186 6.6160
507.968323 91.204 6.6021
511.649292 91.220 6.5833
515.356934 91.234 6.5621
519.091370 91.246 6.5408
522.852966 91.256 6.5211
526.641724 91.265 6.5049
530.458008 91.272 6.4930
534.301941 91.278 6.4858
538.173706 91.282 6.4860
542.073547 91.285 6.4964
546.001648 91.287 6.5179
549.958191 91.289 6.5530
553.943420 91.292 6.5988
557.957520 91.297 6.6546
562.000671 91.303 6.7168
566.073181 91.310 6.7822
570.175171 91.319 6.8498
574.306885 91.329 6.9185
578.468567 91.341 6.9858
582.660400 91.354 7.0482
586.882568 91.368 7.1068
591.135376 91.382 7.1611
595.419006 91.396 7.2128
599.733643 91.411 7.2647
604.079590 91.426 7.3138
608.456970 91.443 7.3579
612.866089 91.460 7.3979
617.307190 91.476 7.4340
621.780457 91.492 7.4659
626.286133 91.510 7.4940
630.824463 91.529 7.5159
635.395691 91.548 7.5287
640.000000 91.567 7.5340
644.637695 91.585 7.5324
649.309021 91.602 7.5240
654.014160 91.619 7.5096
658.753418 91.636 7.4881
663.527039 91.653 7.4589
668.335205 91.669 7.4211
673.178284 91.683 7.3732
678.056396 91.695 7.3172
682.969849 91.705 7.2527
687.918945 91.712 7.1852
692.903870 91.714 7.1174
697.924927 91.711 7.0582
702.982422 91.704 7.0152
708.076477 91.693 6.9950
713.207520 91.678 7.0038
718.375732 91.660 7.0498
723.581360 91.640 7.1428
728.824707 91.620 7.2834
734.106079 91.603 7.4784
739.425720 91.591 7.7181
744.783936 91.588 7.9985
750.180908 91.593 8.3088
755.617065 91.607 8.6428
761.092529 91.632 8.9828
766.607727 91.671 9.3144
772.162903 91.721 9.6220
777.758301 91.780 9.8866
783.394287 91.847 10.1033
789.071045 91.919 10.2604
794.789001 91.994 10.3588
800.548340 92.069 10.3920
806.349487 92.143 10.3702
812.192627 92.211 10.2967
818.078125 92.275 10.1845
824.006226 92.333 10.0447
829.977295 92.386 9.8856
835.991699 92.434 9.7172
842.049622 92.478 9.5446
848.151428 92.519 9.3772
854.297485 92.559 9.2116
860.488098 92.599 9.0490
866.723572 92.640 8.8846
873.004211 92.681 8.7154
879.330322 92.723 8.5377
885.702332 92.766 8.3484
892.120483 92.810 8.1428
898.585144 92.855 7.9146
905.096680 92.900 7.6640
911.655396 92.943 7.3887
918.261597 92.985 7.0901
924.915710 93.025 6.7688
931.618042 93.062 6.4253
938.368896 93.096 6.0591
945.168762 93.127 5.6745
952.017822 93.153 5.2758
958.916504 93.175 4.8626
965.865234 93.195 4.4360
972.864319 93.212 3.9957
979.914062 93.224 3.5402
987.014954 93.231 3.0738
994.167236 93.232 2.5989
1001.371399 93.228 2.1187
1008.627747 93.218 1.6350
1015.936646 93.202 1.1550
1023.298584 93.178 0.6847
1030.713867 93.148 0.2304
1038.182739 93.112 -0.1994
1045.705933 93.071 -0.6043
1053.283447 93.027 -0.9812
1060.916016 92.979 -1.3296
1068.603882 92.928 -1.6460
1076.347412 92.876 -1.9359
1084.147095 92.825 -2.2030
1092.003296 92.773 -2.4492
1099.916382 92.719 -2.6782
1107.886841 92.663 -2.8882
1115.915039 92.606 -3.0788
1124.001343 92.548 -3.2494
1132.146362 92.488 -3.3994
1140.350342 92.427 -3.5276
1148.613770 92.365 -3.6323
1156.937134 92.301 -3.7147
1165.320801 92.238 -3.7745
1173.765137 92.175 -3.8139
1182.270752 92.112 -3.8362
1190.838013 92.048 -3.8380
1199.467285 91.982 -3.8186
1208.159180 91.915 -3.7732
1216.913940 91.847 -3.6977
1225.732178 91.778 -3.5905
1234.614380 91.710 -3.4485
1243.560913 91.642 -3.2727
1252.572266 91.577 -3.0617
1261.648926 91.515 -2.8200
1270.791382 91.457 -2.5485
1280.000000 91.404 -2.2572
1289.275391 91.359 -1.9535
1298.618042 91.318 -1.6463
1308.028320 91.282 -1.3473
1317.506836 91.248 -1.0552
1327.054077 91.215 -0.7743
1336.670410 91.182 -0.4991
1346.356567 91.148 -0.2274
1356.112793 91.112 0.0470
1365.939697 91.074 0.3282
1375.837891 91.033 0.6247
1385.807739 90.990 0.9460
1395.849854 90.945 1.2936
1405.964844 90.901 1.6719
1416.152954 90.857 2.0814
1426.415039 90.814 2.5242
1436.751465 90.772 3.0001
1447.162720 90.733 3.5098
1457.649414 90.696 4.0537
1468.212158 90.662 4.6322
1478.851440 90.631 5.2466
1489.567871 90.605 5.8987
1500.361816 90.584 6.5873
1511.234131 90.569 7.3133
1522.185059 90.562 8.0715
1533.215454 90.564 8.8602
1544.325806 90.576 9.6704
1555.516602 90.599 10.4967
1566.788574 90.635 11.3265
1578.142090 90.684 12.1499
1589.578003 90.745 12.9537
1601.096680 90.818 13.7236
1612.698975 90.901 14.4531
1624.385254 90.992 15.1323
1636.156250 91.090 15.7564
1648.012451 91.195 16.3167
1659.954590 91.303 16.8143
1671.983398 91.410 17.2433
1684.099243 91.517 17.6156
1696.302856 91.619 17.9383
1708.594971 91.719 18.2198
1720.976196 91.814 18.4678
1733.447144 91.906 18.6911
1746.008423 91.991 18.8975
1758.660645 92.072 19.0982
1771.404663 92.148 19.3076
1784.240967 92.224 19.5241
1797.170288 92.300 19.7523
1810.193359 92.378 19.9881
1823.310791 92.456 20.2287
1836.523193 92.535 20.4740
1849.831421 92.615 20.7227
1863.236084 92.698 20.9749
1876.737793 92.781 21.2288
1890.337524 92.867 21.4879
1904.035645 92.953 21.7548
1917.833008 93.043 22.0289
1931.730469 93.136 22.3118
1945.728638 93.234 22.5998
1959.828125 93.337 22.8916
1974.029907 93.448 23.1808
1988.334473 93.566 23.4642
2002.742798 93.691 23.7310
2017.255493 93.825 23.9722
2031.873291 93.965 24.1783
2046.597168 94.113 24.3384
2061.427734 94.266 24.4476
2076.365479 94.423 24.4973
2091.411865 94.582 24.4882
2106.566895 94.742 24.4178
2121.832031 94.900 24.2867
2137.207764 95.058 24.0926
2152.694824 95.212 23.8411
2168.294189 95.360 23.5327
2184.006592 95.501 23.1797
2199.832764 95.634 22.7906
2215.773682 95.758 22.3777
2231.830078 95.873 21.9517
2248.002686 95.981 21.5267
2264.292725 96.078 21.1167
2280.700684 96.169 20.7336
2297.227539 96.255 20.3940
2313.874268 96.340 20.0981
2330.641602 96.426 19.8537
2347.530273 96.516 19.6538
2364.541504 96.612 19.4985
2381.676025 96.716 19.3735
2398.934570 96.833 19.2706
2416.318359 96.962 19.1715
2433.827881 97.105 19.0607
2451.464355 97.260 18.9217
2469.228760 97.429 18.7377
2487.121826 97.608 18.4932
2505.144531 97.798 18.1698
2523.297852 97.996 17.7591
2541.582764 98.198 17.2475
2560.000000 98.403 16.6330
2578.550781 98.608 15.9090
2597.236084 98.811 15.0751
2616.056641 99.010 14.1251
2635.013672 99.200 13.0687
2654.108154 99.379 11.9082
2673.340820 99.544 10.6606
2692.713135 99.695 9.3388
2712.225586 99.829 7.9576
2731.879395 99.947 6.5298
2751.675781 100.049 5.0738
2771.615479 100.133 3.6077
2791.699707 100.201 2.1454
2811.929688 100.254 0.7034
2832.305908 100.294 -0.7085
2852.830078 100.321 -2.0776
2873.502930 100.338 -3.3954
2894.325439 100.346 -4.6492
2915.298828 100.349 -5.8387
2936.424316 100.349 -6.9564
2957.702881 100.350 -8.0115
2979.135742 100.354 -9.0053
3000.723633 100.364 -9.9549
3022.468262 100.384 -10.8692
3044.370117 100.415 -11.7748
3066.430908 100.458 -12.6942
3088.651611 100.511 -13.6496
3111.033203 100.573 -14.6668
3133.577148 100.640 -15.7566
3156.284180 100.709 -16.9384
3179.156006 100.776 -18.2117
3202.193359 100.837 -19.5865
3225.397949 100.889 -21.0508
3248.770508 100.928 -22.6026
3272.312500 100.952 -24.2226
3296.024902 100.957 -25.8957
3319.909180 100.945 -27.6080
3343.966797 100.915 -29.3452
3368.198486 100.866 -31.0927
3392.605713 100.796 -32.8382
3417.189941 100.704 -34.5611
3441.952393 100.592 -36.2444
3466.894287 100.458 -37.8649
3492.016846 100.301 -39.4022
3517.321289 100.125 -40.8317
3542.809326 99.929 -42.1273
3568.481934 99.719 -43.2721
3594.340576 99.496 -44.2391
3620.386719 99.267 -45.0317
3646.621582 99.039 -45.6368
3673.046387 98.818 -46.0773
3699.662842 98.609 -46.3582
3726.472168 98.418 -46.5195
3753.475586 98.253 -46.5878
3780.675049 98.113 -46.6080
3808.071289 97.998 -46.6240
3835.666016 97.905 -46.6657
3863.460938 97.832 -46.7757
3891.457275 97.770 -46.9599
3919.656250 97.713 -47.2448
3948.059814 97.654 -47.6111
3976.668945 97.586 -48.0613
4005.485596 97.505 -48.5555
4034.510986 97.404 -49.0696
4063.746582 97.284 -49.5588
4093.194336 97.142 -49.9818
4122.855469 96.984 -50.3037
4152.730957 96.808 -50.4795
4182.823730 96.624 -50.4983
4213.133789 96.439 -50.3279
4243.664062 96.261 -49.9890
4274.415527 96.099 -49.4787
4305.389648 95.959 -48.8364
4336.588379 95.847 -48.0856
4368.013184 95.765 -47.2720
4399.665527 95.719 -46.4379
4431.547363 95.702 -45.6179
4463.660156 95.713 -44.8564
4496.005371 95.747 -44.1653
4528.585449 95.797 -43.5723
4561.401367 95.859 -43.0731
4594.455078 95.928 -42.6778
4627.748535 96.001 -42.3703
4661.283203 96.072 -42.1435
4695.060547 96.143 -41.9807
4729.083008 96.210 -41.8661
4763.352051 96.277 -41.7893
4797.869141 96.342 -41.7359
4832.636719 96.407 -41.7021
4867.655762 96.472 -41.6790
4902.928711 96.540 -41.6680
4938.457520 96.612 -41.6658
4974.243652 96.688 -41.6779
5010.289062 96.769 -41.7072
5046.595703 96.855 -41.7587
5083.165527 96.946 -41.8360
5120.000000 97.043 -41.9464
5157.101562 97.146 -42.0963
5194.472168 97.253 -42.2909
5232.113281 97.364 -42.5387
5270.027344 97.476 -42.8364
5308.216309 97.588 -43.1859
5346.681641 97.698 -43.5800
5385.426270 97.807 -44.0145
5424.451172 97.913 -44.4817
5463.758789 98.018 -44.9741
5503.351562 98.121 -45.4855
5543.230957 98.221 -46.0079
5583.399414 98.322 -46.5384
5623.859375 98.426 -47.0687
5664.611816 98.535 -47.6073
5705.660156 98.652 -48.1535
5747.005859 98.777 -48.7270
5788.650879 98.915 -49.3392
5830.597656 99.062 -50.0133
5872.848633 99.221 -50.7695
5915.405762 99.387 -51.6283
5958.271484 99.560 -52.6148
6001.447266 99.733 -53.7359
6044.936523 99.901 -55.0115
6088.740234 100.058 -56.4265
6132.861816 100.199 -57.9830
6177.303223 100.320 -59.6494
6222.066406 100.417 -61.4074
6267.154297 100.488 -63.2188
6312.568359 100.531 -65.0496
6358.312012 100.550 -66.8689
6404.386719 100.545 -68.6376
6450.795898 100.523 -70.3464
6497.541016 100.488 -71.9704
6544.625000 100.443 -73.5184
6592.049805 100.394 -74.9861
6639.818359 100.340 -76.3879
6687.933594 100.287 -77.7360
6736.396973 100.230 -79.0334
6785.211426 100.170 -80.2910
6834.379883 100.106 -81.4979
6883.904785 100.037 -82.6510
6933.788574 99.964 -83.7376
6984.033691 99.887 -84.7458
7034.642578 99.810 -85.6696
7085.618652 99.735 -86.4932
7136.963867 99.667 -87.2335
7188.681152 99.615 -87.8913
7240.773438 99.580 -88.5000
7293.243164 99.565 -89.0845
7346.092773 99.569 -89.6720
7399.325684 99.591 -90.2931
7452.944336 99.629 -90.9635
7506.951172 99.679 -91.7106
7561.350098 99.737 -92.5296
7616.142578 99.796 -93.4304
7671.332031 99.857 -94.3959
7726.921875 99.916 -95.4127
7782.914551 99.978 -96.4784
7839.312500 100.042 -97.5824
7896.119629 100.112 -98.7368
7953.337891 100.187 -99.9444
8010.971191 100.268 -101.2230
8069.021973 100.355 -102.5875
8127.493164 100.445 -104.0500
8186.388672 100.534 -105.6291
8245.710938 100.620 -107.3198
8305.461914 100.696 -109.1301
8365.647461 100.760 -111.0397
8426.267578 100.807 -113.0385
8487.328125 100.839 -115.1030
8548.831055 100.852 -117.2104
8610.779297 100.849 -119.3467
8673.176758 100.832 -121.4916
8736.026367 100.802 -123.6414
8799.331055 100.760 -125.7853
8863.094727 100.708 -127.9237
8927.320312 100.648 -130.0524
8992.010742 100.580 -132.1748
9057.170898 100.505 -134.2917
9122.802734 100.423 -136.4068
9188.910156 100.336 -138.5226
9255.497070 100.243 -140.6435
9322.566406 100.143 -142.7718
9390.121094 100.039 -144.9166
9458.166016 99.929 -147.0864
9526.704102 99.813 -149.2853
9595.738281 99.687 -151.5248
9665.273438 99.549 -153.7920
9735.311523 99.395 -156.0831
9805.857422 99.224 -158.3806
9876.915039 99.035 -160.6703
9948.487305 98.828 -162.9368
10020.578125 98.601 -165.1646
10093.191406 98.355 -167.3394
10166.331055 98.091 -169.4432
10240.000000 97.811 -171.4725
10314.203125 97.518 -173.4186
10388.944336 97.211 -175.2784
10464.226562 96.893 -177.0488
10540.054688 96.562 -178.7214
10616.432617 96.219 179.7082
10693.363281 95.863 178.2563
10770.852539 95.494 176.9311
10848.902344 95.110 175.7599
10927.517578 94.711 174.7614
11006.703125 94.300 173.9687
11086.461914 93.877 173.4142
11166.798828 93.448 173.1199
11247.718750 93.020 173.1199
11329.223633 92.601 173.4107
11411.320312 92.200 174.0127
11494.011719 91.829 174.8876
11577.301758 91.501 176.0257
11661.195312 91.228 177.3611
11745.697266 91.024 178.8547
11830.811523 90.893 -179.5845
11916.542969 90.850 -178.0300
12002.894531 90.888 -176.5736
12089.873047 91.007 -175.3103
12177.480469 91.195 -174.3048
12265.723633 91.441 -173.6424
12354.606445 91.731 -173.3574
12444.132812 92.052 -173.5093
12534.308594 92.390 -174.1075
12625.136719 92.733 -175.1867
12716.624023 93.067 -176.7306
12808.773438 93.380 -178.7474
12901.591797 93.662 178.8031
12995.082031 93.905 175.9365
13089.250000 94.100 172.7170
13184.099609 94.238 169.1898
13279.636719 94.318 165.4289
13375.867188 94.335 161.5013
13472.793945 94.290 157.4730
13570.422852 94.184 153.4166
13668.759766 94.019 149.3788
13767.809570 93.799 145.4234
13867.577148 93.530 141.5730
13968.067383 93.215 137.8723
14069.285156 92.863 134.3178
14171.237305 92.480 130.9246
14273.927734 92.068 127.6797
14377.362305 91.633 124.5739
14481.546875 91.171 121.6109
14586.486328 90.686 118.7838
14692.185547 90.173 116.1170
14798.651367 89.633 113.6195
14905.888672 89.064 111.3346
15013.902344 88.463 109.2906
15122.700195 87.832 107.5410
15232.285156 87.166 106.1428
15342.664062 86.478 105.1131
15453.843750 85.775 104.4984
15565.829102 85.069 104.2672
15678.625000 84.370 104.4220
15792.239258 83.691 104.9045
15906.675781 83.046 105.6836
16021.942383 82.444 106.6811
16138.043945 81.902 107.8246
16254.986328 81.411 109.0656
16372.777344 80.969 110.3310
16491.421875 80.566 111.6228
16610.923828 80.196 112.9075
16731.294922 79.851 114.2192
16852.535156 79.520 115.5717
16974.656250 79.207 116.9941
17097.662109 78.909 118.5269
17221.558594 78.640 120.1509
17346.353516 78.407 121.8801
17472.052734 78.220 123.6542
17598.662109 78.090 125.4453
17726.189453 78.019 127.1693
17854.640625 78.018 128.7607
17984.021484 78.076 130.1351
18114.341797 78.188 131.1987
18245.605469 78.337 131.9150
18377.820312 78.506 132.2082
18510.994141 78.678 132.1038
18645.132812 78.834 131.5782
18780.242188 78.964 130.7036
18916.332031 79.054 129.5177
19053.408203 79.102 128.1016
19191.476562 79.103 126.5275
19330.546875 79.059 124.8592
19470.623047 78.971 123.1708
19611.714844 78.844 121.5034
19753.830078 78.681 119.9201
19896.974609 78.491 118.4277
