* Measurement data measured by REW V5.20.13
* Source: C:\Users\kurin\Desktop\Targets and Curves\Resolve\Img\Files\HiFiMAN_Edition_XS_5128_SPL.txt
* Format: Comma/Tab/Space delimited data
* Dated: Aug 14, 2023 5:25:10 PM
* REW Settings:
*  C-weighting compensation: Off
*  Target level: 75.0 dB
* Note: ; Measurement imported from C:\Users\kurin\Desktop\Targets and Curves\Resolve\Img\Files\HiFiMAN_Edition_XS_5128_SPL.txt Format: Comma/Tab/Space delimited data 623 values loaded, 5 Hz to 39,792 Hz log spaced 
* Measurement: HiFiMAN_Edition_XS_5128_SP
* Smoothing: 1/48 octave
* Frequency Step: 1/96 octave
* Start Frequency: 5.000 Hz
*
* Freq(Hz) SPL(dB) Phase(degrees)
5.000000 80.000 50.7630
5.036232 80.017 50.7456
5.072727 80.036 50.7270
5.109486 80.058 50.7055
5.146511 80.083 50.6810
5.183805 80.113 50.6521
5.221369 80.146 50.6210
5.259205 80.180 50.5901
5.297316 80.215 50.5580
5.335702 80.253 50.5239
5.374367 80.292 50.4890
5.413311 80.331 50.4546
5.452538 80.369 50.4200
5.492050 80.407 50.3851
5.531847 80.445 50.3500
5.571934 80.483 50.3146
5.612310 80.522 50.2790
5.652979 80.561 50.2436
5.693943 80.599 50.2080
5.735204 80.637 50.1716
5.776763 80.676 50.1350
5.818624 80.715 50.0986
5.860788 80.753 50.0620
5.903258 80.791 50.0246
5.946035 80.829 49.9870
5.989123 80.867 49.9496
6.032523 80.906 49.9120
6.076237 80.944 49.8737
6.120268 80.983 49.8350
6.164618 81.022 49.7961
6.209289 81.060 49.7570
6.254284 81.098 49.7181
6.299605 81.136 49.6790
6.345255 81.174 49.6392
6.391235 81.213 49.5990
6.437549 81.251 49.5587
6.484198 81.290 49.5180
6.531185 81.329 49.4766
6.578513 81.367 49.4350
6.626183 81.405 49.3936
6.674199 81.443 49.3520
6.722563 81.481 49.3097
6.771278 81.520 49.2670
6.820345 81.558 49.2241
6.869768 81.597 49.1810
6.919549 81.636 49.1376
6.969691 81.674 49.0940
7.020196 81.712 49.0502
7.071068 81.750 49.0060
7.122308 81.788 48.9612
7.173919 81.827 48.9160
7.225904 81.865 48.8706
7.278266 81.904 48.8250
7.331007 81.943 48.7792
7.384131 81.981 48.7330
7.437639 82.019 48.6862
7.491535 82.057 48.6390
7.545822 82.095 48.5917
7.600502 82.134 48.5440
7.655579 82.172 48.4957
7.711054 82.211 48.4470
7.766932 82.250 48.3981
7.823214 82.288 48.3490
7.879904 82.326 48.2997
7.937005 82.364 48.2500
7.994520 82.402 48.1998
8.052452 82.441 48.1490
8.110803 82.479 48.0977
8.169578 82.518 48.0460
8.228777 82.557 47.9942
8.288406 82.595 47.9420
8.348468 82.633 47.8898
8.408964 82.671 47.8370
8.469899 82.709 47.7833
8.531276 82.748 47.7290
8.593097 82.786 47.6747
8.655366 82.825 47.6200
8.718086 82.864 47.5652
8.781260 82.902 47.5100
8.844893 82.940 47.4543
8.908987 82.978 47.3980
8.973545 83.016 47.3413
9.038571 83.055 47.2840
9.104069 83.093 47.2263
9.170040 83.132 47.1680
9.236490 83.171 47.1092
9.303422 83.209 47.0500
9.370838 83.247 46.9907
9.438744 83.285 46.9310
9.507140 83.323 46.8708
9.576033 83.362 46.8100
9.645425 83.400 46.7488
9.715320 83.439 46.6870
9.785721 83.477 46.6248
9.856632 83.516 46.5620
9.928058 83.555 46.4988
10.000000 83.593 46.4350
10.072464 83.631 46.3709
10.145453 83.669 46.3061
10.218971 83.707 46.2403
10.293022 83.746 46.1740
10.367610 83.785 46.1077
10.442738 83.823 46.0410
10.518411 83.862 45.9738
10.594631 83.900 45.9060
10.671404 83.938 45.8378
10.748734 83.976 45.7690
10.826623 84.014 45.6993
10.905077 84.053 45.6291
10.984100 84.091 45.5583
11.063695 84.130 45.4870
11.143867 84.169 45.4153
11.224621 84.207 45.3430
11.305959 84.245 45.2704
11.387886 84.283 45.1971
11.470407 84.321 45.1228
11.553527 84.360 45.0480
11.637249 84.398 44.9729
11.721577 84.437 44.8971
11.806517 84.476 44.8205
11.892071 84.514 44.7431
11.978246 84.552 44.6648
12.065045 84.590 44.5860
12.152473 84.628 44.5073
12.240536 84.667 44.4280
12.329235 84.705 44.3474
12.418578 84.744 44.2661
12.508568 84.783 44.1844
12.599211 84.821 44.1020
12.690510 84.859 44.0189
12.782471 84.897 43.9351
12.875097 84.935 43.8504
12.968395 84.974 43.7651
13.062370 85.012 43.6794
13.157025 85.051 43.5930
13.252366 85.090 43.5055
13.348398 85.128 43.4171
13.445127 85.166 43.3279
13.542556 85.204 43.2381
13.640691 85.242 43.1479
13.739536 85.281 43.0570
13.839099 85.319 42.9650
13.939383 85.358 42.8721
14.040393 85.397 42.7784
14.142136 85.435 42.6840
14.244616 85.473 42.5890
14.347837 85.511 42.4930
14.451808 85.549 42.3960
14.556532 85.588 42.2980
14.662014 85.626 42.1995
14.768262 85.665 42.1001
14.875278 85.704 42.0000
14.983070 85.742 41.8991
15.091644 85.780 41.7971
15.201005 85.818 41.6941
15.311157 85.856 41.5901
15.422109 85.895 41.4851
15.533863 85.933 41.3791
15.646428 85.972 41.2721
15.759809 86.011 41.1640
15.874010 86.049 41.0551
15.989040 86.087 40.9456
16.104904 86.125 40.8351
16.221605 86.163 40.7231
16.339155 86.202 40.6101
16.457554 86.240 40.4966
16.576813 86.279 40.3821
16.696936 86.317 40.2661
16.817928 86.356 40.1491
16.939798 86.395 40.0311
17.062551 86.433 39.9122
17.186193 86.471 39.7926
17.310732 86.509 39.6721
17.436172 86.547 39.5502
17.562521 86.586 39.4271
17.689787 86.624 39.3026
17.817974 86.663 39.1771
17.947090 86.702 39.0510
18.077143 86.740 38.9241
18.208138 86.778 38.7965
18.340080 86.816 38.6681
18.472980 86.854 38.5385
18.606844 86.893 38.4081
18.741676 86.931 38.2772
18.877487 86.970 38.1461
19.014280 87.008 38.0155
19.152065 87.047 37.8852
19.290850 87.085 37.7553
19.430639 87.124 37.6261
19.571442 87.164 37.4982
19.713264 87.204 37.3702
19.856115 87.245 37.2415
20.000000 87.288 37.1101
20.144928 87.332 36.9740
20.290907 87.376 36.8321
20.437943 87.421 36.6830
20.586044 87.467 36.5261
20.735220 87.513 36.3609
20.885475 87.560 36.1862
21.036821 87.607 36.0001
21.189262 87.654 35.8043
21.342808 87.699 35.5995
21.497467 87.744 35.3863
21.653246 87.789 35.1655
21.810154 87.833 34.9373
21.968201 87.876 34.7018
22.127390 87.919 34.4603
22.287735 87.960 34.2145
22.449242 88.000 33.9632
22.611917 88.041 33.7063
22.775772 88.081 33.4423
22.940815 88.120 33.1694
23.107054 88.158 32.8894
23.274498 88.195 32.6030
23.443153 88.230 32.3114
23.613033 88.263 32.0150
23.784142 88.294 31.7163
23.956491 88.323 31.4175
24.130091 88.350 31.1203
24.304947 88.376 30.8268
24.481071 88.401 30.5374
24.658470 88.424 30.2533
24.837156 88.447 29.9744
25.017136 88.470 29.7022
25.198421 88.493 29.4323
25.381020 88.517 29.1606
25.564941 88.542 28.8873
25.750195 88.565 28.6112
25.936790 88.588 28.3313
26.124741 88.612 28.0466
26.314051 88.635 27.7564
26.504732 88.656 27.4581
26.696796 88.675 27.1564
26.890253 88.692 26.8554
27.085112 88.708 26.5543
27.281382 88.724 26.2536
27.479073 88.738 25.9534
27.678198 88.750 25.6537
27.878765 88.760 25.3564
28.080786 88.769 25.0638
28.284271 88.776 24.7754
28.489231 88.783 24.4915
28.695675 88.789 24.2114
28.903616 88.794 23.9338
29.113064 88.797 23.6604
29.324028 88.799 23.3919
29.536524 88.799 23.1303
29.750557 88.797 22.8769
29.966141 88.794 22.6343
30.183289 88.789 22.4055
30.402010 88.784 22.1903
30.622314 88.778 21.9892
30.844217 88.772 21.8022
31.067726 88.766 21.6293
31.292856 88.761 21.4702
31.519617 88.756 21.3248
31.748020 88.751 21.1922
31.978081 88.748 21.0717
32.209808 88.747 20.9621
32.443211 88.746 20.8615
32.678310 88.747 20.7711
32.915108 88.749 20.6924
33.153625 88.753 20.6231
33.393871 88.760 20.5630
33.635857 88.771 20.5071
33.879597 88.784 20.4517
34.125103 88.801 20.3931
34.372387 88.822 20.3281
34.621464 88.846 20.2511
34.872345 88.874 20.1561
35.125042 88.903 20.0412
35.379574 88.933 19.9013
35.635948 88.962 19.7402
35.894180 88.990 19.5592
36.154285 89.018 19.3603
36.416275 89.045 19.1448
36.680161 89.070 18.9164
36.945961 89.091 18.6777
37.213688 89.110 18.4324
37.483353 89.127 18.1853
37.754974 89.143 17.9354
38.028561 89.158 17.6834
38.304131 89.172 17.4293
38.581699 89.183 17.1731
38.861279 89.193 16.9164
39.142883 89.202 16.6607
39.426529 89.209 16.4064
39.712231 89.215 16.1540
40.000000 89.220 15.9044
40.289856 89.224 15.6578
40.581814 89.226 15.4153
40.875885 89.227 15.1787
41.172089 89.228 14.9464
41.470440 89.228 14.7173
41.770950 89.228 14.4914
42.073643 89.228 14.2682
42.378525 89.227 14.0473
42.685616 89.226 13.8277
42.994934 89.224 13.6103
43.306492 89.221 13.3950
43.620308 89.216 13.1843
43.936401 89.210 12.9812
44.254780 89.204 12.7843
44.575470 89.198 12.5931
44.898483 89.192 12.4073
45.223835 89.186 12.2270
45.551544 89.180 12.0512
45.881630 89.174 11.8797
46.214108 89.168 11.7103
46.548996 89.163 11.5403
46.886307 89.157 11.3713
47.226067 89.150 11.2040
47.568283 89.143 11.0383
47.912983 89.136 10.8733
48.260181 89.128 10.7113
48.609894 89.118 10.5531
48.962143 89.107 10.4012
49.316940 89.096 10.2591
49.674313 89.084 10.1252
50.034271 89.072 9.9987
50.396843 89.060 9.8812
50.762039 89.047 9.7737
51.129883 89.033 9.6772
51.500389 89.020 9.5933
51.873581 89.008 9.5211
52.249481 88.997 9.4599
52.628101 88.986 9.4111
53.009464 88.976 9.3771
53.393593 88.968 9.3540
53.780506 88.964 9.3399
54.170223 88.962 9.3310
54.562763 88.963 9.3233
54.958145 88.966 9.3160
55.356396 88.972 9.3089
55.757530 88.982 9.2960
56.161572 88.995 9.2721
56.568542 89.011 9.2351
56.978462 89.028 9.1805
57.391350 89.046 9.1101
57.807232 89.064 9.0249
58.226128 89.083 8.9232
58.648056 89.103 8.8035
59.073048 89.123 8.6662
59.501114 89.141 8.5100
59.932281 89.158 8.3393
60.366577 89.173 8.1578
60.804020 89.186 7.9663
61.244629 89.198 7.7661
61.688435 89.208 7.5594
62.135452 89.215 7.3480
62.585712 89.220 7.1344
63.039234 89.224 6.9217
63.496040 89.226 6.7094
63.956161 89.227 6.4977
64.419617 89.227 6.2864
64.886421 89.227 6.0750
65.356621 89.225 5.8634
65.830215 89.222 5.6508
66.307251 89.217 5.4384
66.787743 89.211 5.2265
67.271713 89.204 5.0164
67.759193 89.196 4.8089
68.250206 89.186 4.6054
68.744774 89.174 4.4068
69.242928 89.161 4.2143
69.744690 89.147 4.0299
70.250084 89.133 3.8523
70.759148 89.118 3.6811
71.271896 89.103 3.5163
71.788361 89.087 3.3579
72.308571 89.070 3.2053
72.832550 89.054 3.0582
73.360321 89.037 2.9163
73.891922 89.020 2.7783
74.427376 89.002 2.6462
74.966705 88.983 2.5215
75.509949 88.963 2.4042
76.057121 88.945 2.2954
76.608261 88.927 2.1932
77.163399 88.909 2.0953
77.722557 88.890 2.0032
78.285767 88.871 1.9184
78.853058 88.853 1.8392
79.424461 88.836 1.7646
80.000000 88.820 1.6941
80.579712 88.803 1.6265
81.163628 88.786 1.5631
81.751770 88.769 1.5055
82.344177 88.753 1.4521
82.940880 88.738 1.4019
83.541901 88.724 1.3551
84.147285 88.709 1.3113
84.757050 88.694 1.2711
85.371231 88.681 1.2357
85.989868 88.668 1.2021
86.612984 88.657 1.1673
87.240616 88.646 1.1321
87.872803 88.635 1.0958
88.509560 88.624 1.0601
89.150940 88.613 1.0272
89.796967 88.602 0.9951
90.447670 88.593 0.9620
91.103088 88.584 0.9291
91.763260 88.574 0.8958
92.428215 88.563 0.8651
93.097992 88.553 0.8404
93.772614 88.544 0.8190
94.452133 88.536 0.8000
95.136566 88.529 0.7820
95.825966 88.522 0.7636
96.520363 88.516 0.7450
97.219788 88.511 0.7272
97.924286 88.508 0.7070
98.633881 88.506 0.6817
99.348625 88.504 0.6511
100.068542 88.503 0.6143
100.793686 88.502 0.5711
101.524078 88.502 0.5207
102.259766 88.502 0.4631
103.000778 88.502 0.3985
103.747162 88.502 0.3261
104.498962 88.502 0.2460
105.256203 88.502 0.1572
106.018929 88.501 0.0589
106.787186 88.500 -0.0488
107.561012 88.498 -0.1668
108.340446 88.494 -0.2938
109.125526 88.488 -0.4293
109.916290 88.480 -0.5707
110.712791 88.469 -0.7165
111.515060 88.455 -0.8627
112.323143 88.438 -1.0061
113.137085 88.419 -1.1437
113.956924 88.397 -1.2720
114.782700 88.373 -1.3887
115.614464 88.347 -1.4909
116.452255 88.319 -1.5778
117.296112 88.290 -1.6474
118.146095 88.261 -1.7009
119.002228 88.232 -1.7381
119.864563 88.204 -1.7610
120.733154 88.177 -1.7703
121.608040 88.151 -1.7690
122.489258 88.126 -1.7602
123.376869 88.102 -1.7440
124.270905 88.079 -1.7217
125.171425 88.057 -1.6941
126.078468 88.036 -1.6620
126.992081 88.016 -1.6271
127.912323 87.996 -1.5923
128.839233 87.977 -1.5541
129.772842 87.957 -1.5100
130.713242 87.937 -1.4601
131.660431 87.919 -1.4026
132.614502 87.902 -1.3402
133.575485 87.886 -1.2753
134.543427 87.871 -1.2071
135.518387 87.856 -1.1359
136.500412 87.841 -1.0611
137.489548 87.829 -0.9811
138.485855 87.818 -0.9002
139.489380 87.809 -0.8227
140.500168 87.802 -0.7482
141.518295 87.795 -0.6778
142.543793 87.788 -0.6112
143.576721 87.782 -0.5479
144.617142 87.777 -0.4891
145.665100 87.773 -0.4366
146.720642 87.768 -0.3881
147.783844 87.762 -0.3429
148.854752 87.756 -0.2991
149.933411 87.751 -0.2546
151.019897 87.745 -0.2101
152.114243 87.739 -0.1662
153.216522 87.733 -0.1221
154.326797 87.727 -0.0767
155.445114 87.722 -0.0321
156.571533 87.718 0.0100
157.706116 87.714 0.0499
158.848923 87.709 0.0866
160.000000 87.703 0.1229
161.159424 87.697 0.1615
162.327255 87.691 0.2019
163.503540 87.686 0.2447
164.688354 87.680 0.2899
165.881760 87.674 0.3380
167.083801 87.668 0.3889
168.294571 87.663 0.4435
169.514099 87.660 0.4989
170.742462 87.658 0.5527
171.979736 87.657 0.6039
173.225967 87.656 0.6505
174.481232 87.655 0.6929
175.745605 87.655 0.7306
177.019119 87.655 0.7639
178.301880 87.655 0.7929
179.593933 87.655 0.8179
180.895340 87.655 0.8396
182.206177 87.655 0.8570
183.526520 87.655 0.8695
184.856430 87.655 0.8770
186.195984 87.655 0.8788
187.545227 87.654 0.8750
188.904266 87.653 0.8650
190.273132 87.650 0.8500
191.651932 87.646 0.8304
193.040726 87.641 0.8081
194.439575 87.634 0.7851
195.848572 87.626 0.7621
197.267761 87.617 0.7392
198.697250 87.606 0.7190
200.137085 87.593 0.7042
201.587372 87.578 0.6950
203.048157 87.563 0.6922
204.519531 87.546 0.6980
206.001556 87.528 0.7142
207.494324 87.508 0.7419
208.997925 87.488 0.7827
210.512405 87.468 0.8369
212.037857 87.448 0.9058
213.574371 87.428 0.9878
215.122025 87.409 1.0822
216.680893 87.392 1.1877
218.251053 87.376 1.3028
219.832581 87.361 1.4266
221.425583 87.348 1.5590
223.030121 87.336 1.6966
224.646286 87.326 1.8363
226.274170 87.318 1.9776
227.913849 87.311 2.1187
229.565399 87.305 2.2606
231.228928 87.300 2.4045
232.904510 87.297 2.5486
234.592224 87.295 2.6917
236.292191 87.293 2.8336
238.004456 87.292 2.9736
239.729126 87.293 3.1126
241.466309 87.294 3.2518
243.216080 87.297 3.3896
244.978516 87.300 3.5252
246.753738 87.305 3.6576
248.541809 87.311 3.7854
250.342850 87.318 3.9087
252.156937 87.325 4.0269
253.984161 87.332 4.1397
255.824646 87.341 4.2469
257.678467 87.350 4.3468
259.545685 87.360 4.4368
261.426483 87.369 4.5198
263.320862 87.377 4.5967
265.229004 87.384 4.6698
267.150970 87.391 4.7419
269.086853 87.397 4.8128
271.036774 87.402 4.8828
273.000824 87.407 4.9538
274.979095 87.411 5.0280
276.971710 87.415 5.1048
278.978760 87.420 5.1851
281.000336 87.426 5.2668
283.036591 87.432 5.3474
285.087585 87.438 5.4278
287.153442 87.444 5.5082
289.234283 87.450 5.5878
291.330200 87.457 5.6657
293.441284 87.464 5.7418
295.567688 87.472 5.8153
297.709503 87.479 5.8868
299.866821 87.486 5.9565
302.039795 87.492 6.0248
304.228485 87.499 6.0922
306.433044 87.505 6.1588
308.653595 87.511 6.2248
310.890228 87.517 6.2908
313.143066 87.522 6.3568
315.412231 87.526 6.4248
317.697845 87.529 6.4958
320.000000 87.531 6.5728
322.318848 87.533 6.6588
324.654510 87.534 6.7547
327.007080 87.535 6.8624
329.376709 87.537 6.9816
331.763519 87.540 7.1131
334.167603 87.545 7.2555
336.589142 87.551 7.4087
339.028198 87.559 7.5705
341.484924 87.570 7.7399
343.959473 87.585 7.9135
346.451935 87.602 8.0889
348.962463 87.623 8.2625
351.491211 87.648 8.4312
354.038239 87.676 8.5915
356.603760 87.707 8.7401
359.187866 87.741 8.8746
361.790680 87.778 8.9919
364.412354 87.817 9.0907
367.053040 87.858 9.1689
369.712860 87.900 9.2259
372.391968 87.943 9.2602
375.090454 87.988 9.2720
377.808533 88.033 9.2610
380.546265 88.078 9.2271
383.303864 88.123 9.1707
386.081451 88.168 9.0903
388.879150 88.213 8.9850
391.697144 88.258 8.8534
394.535522 88.302 8.6942
397.394501 88.344 8.5066
400.274170 88.385 8.2894
403.174744 88.423 8.0428
406.096313 88.459 7.7666
409.039062 88.491 7.4610
412.003113 88.519 7.1254
414.988647 88.543 6.7622
417.995850 88.560 6.3723
421.024811 88.571 5.9593
424.075714 88.576 5.5261
427.148743 88.573 5.0764
430.244049 88.561 4.6115
433.361786 88.539 4.1425
436.502106 88.506 3.6773
439.665161 88.461 3.2274
442.851166 88.406 2.8027
446.060242 88.339 2.4161
449.292572 88.261 2.0788
452.548340 88.172 1.8057
455.827698 88.073 1.6135
459.130798 87.968 1.5082
462.457855 87.860 1.5026
465.809021 87.751 1.5926
469.184448 87.644 1.7821
472.584381 87.542 2.0600
476.008911 87.449 2.4229
479.458252 87.366 2.8506
482.932617 87.297 3.3270
486.432159 87.240 3.8364
489.957031 87.195 4.3605
493.507477 87.161 4.8894
497.083618 87.137 5.4071
500.685699 87.121 5.9134
504.313873 87.109 6.3992
507.968323 87.100 6.8745
511.649292 87.092 7.3438
515.356934 87.085 7.8144
519.091370 87.080 8.2942
522.852966 87.077 8.7863
526.641724 87.078 9.2979
530.458008 87.084 9.8252
534.301941 87.097 10.3709
538.173706 87.119 10.9231
542.073547 87.150 11.4751
546.001648 87.191 12.0152
549.958191 87.241 12.5321
553.943420 87.300 13.0175
557.957520 87.366 13.4610
562.000671 87.439 13.8577
566.073181 87.516 14.1979
570.175171 87.595 14.4861
574.306885 87.673 14.7213
578.468567 87.750 14.9114
582.660400 87.825 15.0627
586.882568 87.898 15.1796
591.135376 87.968 15.2669
595.419006 88.037 15.3298
599.733643 88.103 15.3757
604.079590 88.168 15.4039
608.456970 88.233 15.4183
612.866089 88.299 15.4131
617.307190 88.364 15.3840
621.780457 88.430 15.3302
626.286133 88.494 15.2496
630.824463 88.558 15.1414
635.395691 88.619 15.0033
640.000000 88.678 14.8376
644.637695 88.733 14.6445
649.309021 88.784 14.4288
654.014160 88.830 14.1936
658.753418 88.872 13.9439
663.527039 88.908 13.6861
668.335205 88.940 13.4189
673.178284 88.970 13.1433
678.056396 88.995 12.8590
682.969849 89.015 12.5643
687.918945 89.029 12.2651
692.903870 89.037 11.9635
697.924927 89.038 11.6690
702.982422 89.031 11.3870
708.076477 89.016 11.1309
713.207520 88.993 10.9133
718.375732 88.964 10.7425
723.581360 88.931 10.6317
728.824707 88.896 10.5791
734.106079 88.863 10.5909
739.425720 88.833 10.6557
744.783936 88.810 10.7698
750.180908 88.795 10.9154
755.617065 88.790 11.0775
761.092529 88.793 11.2434
766.607727 88.803 11.3960
772.162903 88.817 11.5335
777.758301 88.833 11.6456
783.394287 88.850 11.7417
789.071045 88.864 11.8236
794.789001 88.876 11.9047
800.548340 88.885 11.9966
806.349487 88.893 12.1066
812.192627 88.900 12.2455
818.078125 88.909 12.4133
824.006226 88.922 12.6170
829.977295 88.942 12.8461
835.991699 88.971 13.0987
842.049622 89.011 13.3561
848.151428 89.063 13.6044
854.297485 89.127 13.8272
860.488098 89.200 14.0065
866.723572 89.282 14.1336
873.004211 89.370 14.1946
879.330322 89.463 14.1881
885.702332 89.557 14.1069
892.120483 89.651 13.9547
898.585144 89.743 13.7317
905.096680 89.832 13.4422
911.655396 89.917 13.0892
918.261597 89.997 12.6766
924.915710 90.071 12.2082
931.618042 90.140 11.6870
938.368896 90.201 11.1155
945.168762 90.253 10.4994
952.017822 90.295 9.8428
958.916504 90.328 9.1527
965.865234 90.350 8.4342
972.864319 90.360 7.6968
979.914062 90.358 6.9488
987.014954 90.343 6.1988
994.167236 90.317 5.4561
1001.371399 90.278 4.7266
1008.627747 90.228 4.0159
1015.936646 90.166 3.3338
1023.298584 90.091 2.6875
1030.713867 90.003 2.0908
1038.182739 89.903 1.5548
1045.705933 89.792 1.0948
1053.283447 89.668 0.7247
1060.916016 89.536 0.4599
1068.603882 89.395 0.3198
1076.347412 89.251 0.3068
1084.147095 89.108 0.4342
1092.003296 88.971 0.6879
1099.916382 88.847 1.0663
1107.886841 88.737 1.5438
1115.915039 88.648 2.1067
1124.001343 88.580 2.7177
1132.146362 88.539 3.3455
1140.350342 88.521 3.9577
1148.613770 88.525 4.5167
1156.937134 88.545 5.0071
1165.320801 88.578 5.4013
1173.765137 88.618 5.6989
1182.270752 88.660 5.8850
1190.838013 88.700 5.9758
1199.467285 88.732 5.9748
1208.159180 88.755 5.9064
1216.913940 88.765 5.7898
1225.732178 88.763 5.6446
1234.614380 88.749 5.4935
1243.560913 88.725 5.3465
1252.572266 88.692 5.2210
1261.648926 88.652 5.1174
1270.791382 88.608 5.0438
1280.000000 88.559 4.9942
1289.275391 88.509 4.9673
1298.618042 88.456 4.9560
1308.028320 88.401 4.9522
1317.506836 88.342 4.9580
1327.054077 88.277 4.9672
1336.670410 88.203 4.9958
1346.356567 88.118 5.0472
1356.112793 88.020 5.1525
1365.939697 87.907 5.3331
1375.837891 87.781 5.6225
1385.807739 87.642 6.0575
1395.849854 87.500 6.6503
1405.964844 87.358 7.4329
1416.152954 87.226 8.3832
1426.415039 87.115 9.5051
1436.751465 87.029 10.7520
1447.162720 86.978 12.0978
1457.649414 86.962 13.4844
1468.212158 86.988 14.8606
1478.851440 87.048 16.1801
1489.567871 87.138 17.3829
1500.361816 87.248 18.4591
1511.234131 87.369 19.3734
1522.185059 87.494 20.1439
1533.215454 87.617 20.7664
1544.325806 87.734 21.2730
1555.516602 87.837 21.6845
1566.788574 87.929 22.0306
1578.142090 88.008 22.3435
1589.578003 88.079 22.6368
1601.096680 88.141 22.9335
1612.698975 88.197 23.2377
1624.385254 88.249 23.5611
1636.156250 88.298 23.9034
1648.012451 88.345 24.2689
1659.954590 88.391 24.6565
1671.983398 88.438 25.0662
1684.099243 88.485 25.4991
1696.302856 88.533 25.9550
1708.594971 88.582 26.4378
1720.976196 88.633 26.9516
1733.447144 88.688 27.4956
1746.008423 88.748 28.0726
1758.660645 88.816 28.6745
1771.404663 88.894 29.2997
1784.240967 88.985 29.9314
1797.170288 89.088 30.5584
1810.193359 89.204 31.1617
1823.310791 89.332 31.7220
1836.523193 89.470 32.2291
1849.831421 89.615 32.6669
1863.236084 89.763 33.0345
1876.737793 89.914 33.3240
1890.337524 90.065 33.5412
1904.035645 90.213 33.6845
1917.833008 90.356 33.7688
1931.730469 90.491 33.8036
1945.728638 90.617 33.8041
1959.828125 90.738 33.7855
1974.029907 90.852 33.7561
1988.334473 90.960 33.7275
2002.742798 91.064 33.7041
2017.255493 91.164 33.6941
2031.873291 91.264 33.6980
2046.597168 91.362 33.7208
2061.427734 91.463 33.7558
2076.365479 91.566 33.8014
2091.411865 91.674 33.8478
2106.566895 91.785 33.8861
2121.832031 91.899 33.9119
2137.207764 92.013 33.9158
2152.694824 92.127 33.9041
2168.294189 92.237 33.8769
2184.006592 92.345 33.8442
2199.832764 92.450 33.8112
2215.773682 92.553 33.7920
2231.830078 92.651 33.8005
2248.002686 92.750 33.8417
2264.292725 92.853 33.9289
2280.700684 92.963 34.0514
2297.227539 93.082 34.2090
2313.874268 93.214 34.3833
2330.641602 93.362 34.5645
2347.530273 93.524 34.7264
2364.541504 93.704 34.8458
2381.676025 93.898 34.9029
2398.934570 94.104 34.8718
2416.318359 94.317 34.7468
2433.827881 94.534 34.5144
2451.464355 94.753 34.1727
2469.228760 94.972 33.7124
2487.121826 95.187 33.1417
2505.144531 95.392 32.4584
2523.297852 95.586 31.6837
2541.582764 95.765 30.8312
2560.000000 95.929 29.9211
2578.550781 96.079 28.9716
2597.236084 96.214 28.0025
2616.056641 96.333 27.0332
2635.013672 96.439 26.0830
2654.108154 96.532 25.1763
2673.340820 96.619 24.3166
2692.713135 96.702 23.5188
2712.225586 96.786 22.7724
2731.879395 96.872 22.0775
2751.675781 96.965 21.4170
2771.615479 97.067 20.7810
2791.699707 97.178 20.1468
2811.929688 97.299 19.4928
2832.305908 97.427 18.8063
2852.830078 97.561 18.0680
2873.502930 97.696 17.2776
2894.325439 97.832 16.4257
2915.298828 97.966 15.5202
2936.424316 98.096 14.5623
2957.702881 98.221 13.5624
2979.135742 98.343 12.5318
3000.723633 98.461 11.4707
3022.468262 98.579 10.3866
3044.370117 98.696 9.2693
3066.430908 98.816 8.1137
3088.651611 98.935 6.9095
3111.033203 99.055 5.6471
3133.577148 99.171 4.3195
3156.284180 99.285 2.9173
3179.156006 99.394 1.4382
3202.193359 99.495 -0.1254
3225.397949 99.586 -1.7660
3248.770508 99.662 -3.4837
3272.312500 99.723 -5.2629
3296.024902 99.766 -7.0927
3319.909180 99.791 -8.9593
3343.966797 99.797 -10.8505
3368.198486 99.784 -12.7510
3392.605713 99.750 -14.6469
3417.189941 99.695 -16.5214
3441.952393 99.620 -18.3597
3466.894287 99.523 -20.1421
3492.016846 99.406 -21.8510
3517.321289 99.269 -23.4658
3542.809326 99.114 -24.9646
3568.481934 98.944 -26.3340
3594.340576 98.761 -27.5556
3620.386719 98.569 -28.6223
3646.621582 98.371 -29.5186
3673.046387 98.174 -30.2519
3699.662842 97.982 -30.8158
3726.472168 97.801 -31.2364
3753.475586 97.637 -31.5278
3780.675049 97.493 -31.7203
3808.071289 97.369 -31.8388
3835.666016 97.268 -31.9137
3863.460938 97.193 -31.9746
3891.457275 97.139 -32.0486
3919.656250 97.106 -32.1673
3948.059814 97.090 -32.3470
3976.668945 97.087 -32.6118
4005.485596 97.093 -32.9690
4034.510986 97.104 -33.4369
4063.746582 97.115 -34.0070
4093.194336 97.119 -34.6865
4122.855469 97.112 -35.4471
4152.730957 97.088 -36.2794
4182.823730 97.045 -37.1339
4213.133789 96.976 -37.9748
4243.664062 96.886 -38.7525
4274.415527 96.775 -39.4097
4305.389648 96.655 -39.9338
4336.588379 96.532 -40.2806
4368.013184 96.420 -40.4883
4399.665527 96.331 -40.5535
4431.547363 96.270 -40.5580
4463.660156 96.253 -40.5553
4496.005371 96.271 -40.6283
4528.585449 96.324 -40.8703
4561.401367 96.393 -41.3044
4594.455078 96.462 -42.0010
4627.748535 96.519 -42.9111
4661.283203 96.545 -44.0420
4695.060547 96.533 -45.2927
4729.083008 96.469 -46.5972
4763.352051 96.359 -47.8553
4797.869141 96.199 -48.9578
4832.636719 96.006 -49.8660
4867.655762 95.788 -50.4961
4902.928711 95.562 -50.8748
4938.457520 95.343 -50.9771
4974.243652 95.142 -50.8759
5010.289062 94.977 -50.6132
5046.595703 94.844 -50.2579
5083.165527 94.747 -49.8842
5120.000000 94.677 -49.5187
5157.101562 94.628 -49.2149
5194.472168 94.591 -48.9651
5232.113281 94.559 -48.7887
5270.027344 94.527 -48.6566
5308.216309 94.488 -48.5584
5346.681641 94.442 -48.4566
5385.426270 94.385 -48.3206
5424.451172 94.320 -48.1182
5463.758789 94.250 -47.8120
5503.351562 94.180 -47.3874
5543.230957 94.118 -46.8128
5583.399414 94.071 -46.1018
5623.859375 94.048 -45.2432
5664.611816 94.059 -44.2799
5705.660156 94.115 -43.2264
5747.005859 94.221 -42.1584
5788.650879 94.388 -41.1299
5830.597656 94.606 -40.2222
5872.848633 94.876 -39.5164
5915.405762 95.184 -39.0685
5958.271484 95.521 -38.9587
6001.447266 95.868 -39.1958
6044.936523 96.209 -39.8294
6088.740234 96.532 -40.8172
6132.861816 96.825 -42.1559
6177.303223 97.081 -43.7772
6222.066406 97.292 -45.6371
6267.154297 97.456 -47.6586
6312.568359 97.569 -49.7693
6358.312012 97.636 -51.9103
6404.386719 97.660 -54.0103
6450.795898 97.645 -56.0329
6497.541016 97.595 -57.9254
6544.625000 97.516 -59.6657
6592.049805 97.415 -61.2126
6639.818359 97.299 -62.5705
6687.933594 97.178 -63.7235
6736.396973 97.057 -64.6915
6785.211426 96.942 -65.4797
6834.379883 96.839 -66.1171
6883.904785 96.756 -66.6242
6933.788574 96.692 -67.0321
6984.033691 96.652 -67.3698
7034.642578 96.635 -67.6646
7085.618652 96.642 -67.9462
7136.963867 96.673 -68.2365
7188.681152 96.726 -68.5616
7240.773438 96.800 -68.9380
7293.243164 96.892 -69.3855
7346.092773 97.002 -69.9191
7399.325684 97.129 -70.5558
7452.944336 97.270 -71.3089
7506.951172 97.422 -72.1923
7561.350098 97.584 -73.2213
7616.142578 97.756 -74.4120
7671.332031 97.932 -75.7755
7726.921875 98.108 -77.3275
7782.914551 98.280 -79.0695
7839.312500 98.444 -81.0089
7896.119629 98.597 -83.1462
7953.337891 98.736 -85.4890
8010.971191 98.854 -88.0231
8069.021973 98.945 -90.7462
8127.493164 99.005 -93.6294
8186.388672 99.030 -96.6549
8245.710938 99.017 -99.7872
8305.461914 98.963 -103.0007
8365.647461 98.866 -106.2478
8426.267578 98.720 -109.4860
8487.328125 98.530 -112.6734
8548.831055 98.297 -115.7623
8610.779297 98.025 -118.7257
8673.176758 97.714 -121.5273
8736.026367 97.368 -124.1483
8799.331055 96.990 -126.5608
8863.094727 96.586 -128.7560
8927.320312 96.161 -130.7181
8992.010742 95.718 -132.4415
9057.170898 95.261 -133.9196
9122.802734 94.792 -135.1402
9188.910156 94.313 -136.0923
9255.497070 93.830 -136.7661
9322.566406 93.345 -137.1449
9390.121094 92.867 -137.2392
9458.166016 92.404 -137.0406
9526.704102 91.964 -136.5910
9595.738281 91.558 -135.9079
9665.273438 91.194 -135.0578
9735.311523 90.881 -134.0882
9805.857422 90.620 -133.0745
9876.915039 90.417 -132.0896
9948.487305 90.262 -131.1895
10020.578125 90.150 -130.4481
10093.191406 90.067 -129.8845
10166.331055 90.004 -129.5486
10240.000000 89.946 -129.4211
10314.203125 89.880 -129.5198
10388.944336 89.796 -129.7824
10464.226562 89.681 -130.1795
10540.054688 89.531 -130.6283
10616.432617 89.340 -131.0700
10693.363281 89.108 -131.4035
10770.852539 88.825 -131.5401
10848.902344 88.504 -131.3838
10927.517578 88.146 -130.8210
11006.703125 87.774 -129.8167
11086.461914 87.399 -128.2854
11166.798828 87.053 -126.2666
11247.718750 86.759 -123.7267
11329.223633 86.554 -120.8009
11411.320312 86.477 -117.5425
11494.011719 86.538 -114.1673
11577.301758 86.776 -110.8526
11661.195312 87.151 -107.7691
11745.697266 87.642 -105.1168
11830.811523 88.221 -102.9859
11916.542969 88.858 -101.5226
12002.894531 89.525 -100.7572
12089.873047 90.191 -100.7934
12177.480469 90.835 -101.5556
12265.723633 91.428 -103.0429
12354.606445 91.967 -105.1332
12444.132812 92.439 -107.7354
12534.308594 92.844 -110.7527
12625.136719 93.180 -114.0870
12716.624023 93.449 -117.6507
12808.773438 93.648 -121.3453
12901.591797 93.784 -125.1056
12995.082031 93.863 -128.8437
13089.250000 93.892 -132.5297
13184.099609 93.879 -136.1018
13279.636719 93.832 -139.5694
13375.867188 93.764 -142.9105
13472.793945 93.677 -146.1578
13570.422852 93.577 -149.3245
13668.759766 93.467 -152.4475
13767.809570 93.353 -155.5591
13867.577148 93.229 -158.6857
13968.067383 93.093 -161.8677
14069.285156 92.939 -165.0965
14171.237305 92.759 -168.3879
14273.927734 92.549 -171.7094
14377.362305 92.305 -175.0513
14481.546875 92.023 -178.3601
14586.486328 91.694 178.3987
14692.185547 91.319 175.2925
14798.651367 90.896 172.3824
14905.888672 90.430 169.7256
15013.902344 89.921 167.3912
15122.700195 89.381 165.4052
15232.285156 88.816 163.8197
15342.664062 88.240 162.6251
15453.843750 87.661 161.8453
15565.829102 87.099 161.4313
15678.625000 86.571 161.3779
15792.239258 86.094 161.5744
15906.675781 85.692 161.9521
16021.942383 85.363 162.3788
16138.043945 85.120 162.7309
16254.986328 84.947 162.9117
16372.777344 84.839 162.7999
16491.421875 84.775 162.3446
16610.923828 84.741 161.4474
16731.294922 84.710 160.1309
16852.535156 84.658 158.3485
16974.656250 84.568 156.2119
17097.662109 84.414 153.7714
17221.558594 84.195 151.1681
17346.353516 83.897 148.5208
17472.052734 83.525 145.9482
17598.662109 83.074 143.5902
17726.189453 82.559 141.5012
17854.640625 81.989 139.7915
17984.021484 81.380 138.4316
18114.341797 80.751 137.4372
18245.605469 80.108 136.7798
18377.820312 79.459 136.4428
18510.994141 78.816 136.4054
18645.132812 78.192 136.6473
18780.242188 77.585 137.1506
18916.332031 77.001 137.8887
19053.408203 76.434 138.8668
19191.476562 75.879 140.0942
19330.546875 75.350 141.5337
19470.623047 74.859 143.1691
19611.714844 74.408 144.9456
19753.830078 74.000 146.8213
19896.974609 73.641 148.7403
