* Measurement data measured by REW V5.20.13
* Source: C:\Users\kurin\Desktop\Targets and Curves\Resolve\Img\Lecram\Audeze_LCD-XC_2021_5128_SPL.txt
* Format: Comma/Tab/Space delimited data
* Dated: Aug 15, 2023 3:21:07 PM
* REW Settings:
*  C-weighting compensation: Off
*  Target level: 75.0 dB
* Note: ; Measurement imported from C:\Users\kurin\Desktop\Targets and Curves\Resolve\Img\Lecram\Audeze_LCD-XC_2021_5128_SPL.txt Format: Comma/Tab/Space delimited data 623 values loaded, 5 Hz to 39,792 Hz log spaced 
* Measurement: Audeze_LCD-XC_2021_5128_
* Smoothing: 1/48 octave
* Frequency Step: 1/96 octave
* Start Frequency: 5.000 Hz
*
* Freq(Hz) SPL(dB) Phase(degrees)
5.000000 70.943 88.9110
5.036232 70.973 88.8864
5.072727 71.005 88.8600
5.109486 71.043 88.8291
5.146511 71.086 88.7940
5.183805 71.138 88.7529
5.221369 71.195 88.7090
5.259205 71.253 88.6653
5.297316 71.314 88.6200
5.335702 71.379 88.5719
5.374367 71.446 88.5230
5.413311 71.512 88.4750
5.452538 71.579 88.4270
5.492050 71.645 88.3786
5.531847 71.711 88.3300
5.571934 71.777 88.2811
5.612310 71.843 88.2320
5.652979 71.909 88.1827
5.693943 71.975 88.1330
5.735204 72.041 88.0827
5.776763 72.108 88.0320
5.818624 72.174 87.9811
5.860788 72.240 87.9300
5.903258 72.306 87.8787
5.946035 72.372 87.8270
5.989123 72.438 87.7747
6.032523 72.504 87.7220
6.076237 72.570 87.6691
6.120268 72.636 87.6160
6.164618 72.702 87.5628
6.209289 72.769 87.5090
6.254284 72.835 87.4542
6.299605 72.901 87.3990
6.345255 72.967 87.3441
6.391235 73.033 87.2890
6.437549 73.099 87.2333
6.484198 73.165 87.1770
6.531185 73.231 87.1203
6.578513 73.297 87.0630
6.626183 73.363 87.0052
6.674199 73.430 86.9470
6.722563 73.496 86.8887
6.771278 73.562 86.8300
6.820345 73.628 86.7707
6.869768 73.694 86.7110
6.919549 73.760 86.6512
6.969691 73.826 86.5910
7.020196 73.892 86.5303
7.071068 73.958 86.4690
7.122308 74.024 86.4073
7.173919 74.091 86.3450
7.225904 74.157 86.2823
7.278266 74.223 86.2190
7.331007 74.289 86.1553
7.384131 74.355 86.0910
7.437639 74.421 86.0262
7.491535 74.487 85.9610
7.545822 74.553 85.8958
7.600502 74.619 85.8300
7.655579 74.685 85.7633
7.711054 74.752 85.6960
7.766932 74.818 85.6288
7.823214 74.884 85.5610
7.879904 74.950 85.4923
7.937005 75.016 85.4230
7.994520 75.082 85.3538
8.052452 75.148 85.2840
8.110803 75.214 85.2133
8.169578 75.280 85.1420
8.228777 75.346 85.0703
8.288406 75.413 84.9980
8.348468 75.479 84.9253
8.408964 75.545 84.8520
8.469899 75.611 84.7783
8.531276 75.677 84.7040
8.593097 75.743 84.6293
8.655366 75.809 84.5540
8.718086 75.875 84.4778
8.781260 75.941 84.4010
8.844893 76.007 84.3238
8.908987 76.074 84.2460
8.973545 76.140 84.1673
9.038571 76.206 84.0880
9.104069 76.272 84.0083
9.170040 76.338 83.9280
9.236490 76.404 83.8473
9.303422 76.470 83.7660
9.370838 76.536 83.6839
9.438744 76.603 83.6010
9.507140 76.669 83.5173
9.576033 76.735 83.4330
9.645425 76.801 83.3484
9.715320 76.867 83.2630
9.785721 76.933 83.1768
9.856632 76.999 83.0900
9.928058 77.065 83.0029
10.000000 77.131 82.9150
10.072464 77.197 82.8260
10.145453 77.264 82.7361
10.218971 77.330 82.6459
10.293022 77.396 82.5550
10.367610 77.462 82.4634
10.442738 77.528 82.3710
10.518411 77.594 82.2779
10.594631 77.660 82.1840
10.671404 77.726 82.0894
10.748734 77.792 81.9940
10.826623 77.858 81.8979
10.905077 77.925 81.8011
10.984100 77.991 81.7035
11.063695 78.057 81.6051
11.143867 78.123 81.5054
11.224621 78.189 81.4050
11.305959 78.255 81.3045
11.387886 78.321 81.2031
11.470407 78.387 81.1000
11.553527 78.453 80.9960
11.637249 78.519 80.8919
11.721577 78.586 80.7871
11.806517 78.652 80.6811
11.892071 78.718 80.5741
11.978246 78.784 80.4660
12.065045 78.850 80.3570
12.152473 78.916 80.2474
12.240536 78.982 80.1370
12.329235 79.048 80.0256
12.418578 79.114 79.9131
12.508568 79.180 79.7996
12.599211 79.247 79.6851
12.690510 79.313 79.5696
12.782471 79.379 79.4531
12.875097 79.445 79.3356
12.968395 79.511 79.2171
13.062370 79.577 79.0976
13.157025 79.643 78.9770
13.252366 79.709 78.8556
13.348398 79.775 78.7331
13.445127 79.841 78.6092
13.542556 79.908 78.4841
13.640691 79.974 78.3582
13.739536 80.040 78.2310
13.839099 80.106 78.1027
13.939383 80.172 77.9731
14.040393 80.238 77.8421
14.142136 80.304 77.7100
14.244616 80.370 77.5772
14.347837 80.436 77.4431
14.451808 80.502 77.3072
14.556532 80.569 77.1701
14.662014 80.635 77.0318
14.768262 80.701 76.8922
14.875278 80.767 76.7509
14.983070 80.833 76.6082
15.091644 80.899 76.4638
15.201005 80.965 76.3181
15.311157 81.031 76.1714
15.422109 81.098 76.0231
15.533863 81.164 75.8730
15.646428 81.230 75.7211
15.759809 81.296 75.5674
15.874010 81.362 75.4121
15.989040 81.428 75.2555
16.104904 81.494 75.0971
16.221605 81.560 74.9366
16.339155 81.626 74.7742
16.457554 81.692 74.6101
16.576813 81.759 74.4441
16.696936 81.825 74.2762
16.817928 81.891 74.1061
16.939798 81.957 73.9338
17.062551 82.023 73.7592
17.186193 82.089 73.5824
17.310732 82.155 73.4031
17.436172 82.221 73.2215
17.562521 82.287 73.0371
17.689787 82.353 72.8497
17.817974 82.420 72.6592
17.947090 82.486 72.4653
18.077143 82.552 72.2681
18.208138 82.618 72.0677
18.340080 82.684 71.8632
18.472980 82.750 71.6537
18.606844 82.816 71.4391
18.741676 82.882 71.2196
18.877487 82.948 70.9932
19.014280 83.015 70.7585
19.152065 83.081 70.5143
19.290850 83.146 70.2589
19.430639 83.209 69.9932
19.571442 83.271 69.7159
19.713264 83.331 69.4314
19.856115 83.386 69.1408
20.000000 83.437 68.8523
20.144928 83.484 68.5739
20.290907 83.529 68.3073
20.437943 83.572 68.0562
20.586044 83.614 67.8222
20.735220 83.654 67.6071
20.885475 83.693 67.4132
21.036821 83.732 67.2442
21.189262 83.773 67.0972
21.342808 83.816 66.9712
21.497467 83.861 66.8641
21.653246 83.909 66.7746
21.810154 83.960 66.6991
21.968201 84.016 66.6369
22.127390 84.079 66.5781
22.287735 84.149 66.5163
22.449242 84.225 66.4391
22.611917 84.308 66.3347
22.775772 84.397 66.1952
22.940815 84.489 66.0093
23.107054 84.583 65.7744
23.274498 84.676 65.4805
23.443153 84.765 65.1385
23.613033 84.847 64.7511
23.784142 84.923 64.3334
23.956491 84.991 63.8989
24.130091 85.052 63.4545
24.304947 85.108 63.0119
24.481071 85.159 62.5706
24.658470 85.207 62.1366
24.837156 85.252 61.7026
25.017136 85.296 61.2651
25.198421 85.338 60.8185
25.381020 85.377 60.3534
25.564941 85.409 59.8774
25.750195 85.431 59.3876
25.936790 85.442 58.9066
26.124741 85.440 58.4461
26.314051 85.424 58.0355
26.504732 85.393 57.7010
26.696796 85.353 57.4642
26.890253 85.305 57.3574
27.085112 85.258 57.3759
27.281382 85.218 57.5355
27.479073 85.191 57.8076
27.678198 85.184 58.1827
27.878765 85.200 58.6194
28.080786 85.244 59.0863
28.284271 85.312 59.5434
28.489231 85.405 59.9463
28.695675 85.516 60.2766
28.903616 85.639 60.4982
29.113064 85.768 60.6209
29.324028 85.896 60.6355
29.536524 86.022 60.5631
29.750557 86.140 60.4149
29.966141 86.252 60.2112
30.183289 86.355 59.9710
30.402010 86.451 59.7093
30.622314 86.541 59.4464
30.844217 86.627 59.1863
31.067726 86.711 58.9421
31.292856 86.795 58.7074
31.519617 86.883 58.4834
31.748020 86.974 58.2603
31.978081 87.069 58.0316
32.209808 87.169 57.7873
32.443211 87.275 57.5189
32.678310 87.386 57.2154
32.915108 87.501 56.8654
33.153625 87.618 56.4615
33.393871 87.736 55.9926
33.635857 87.853 55.4589
33.879597 87.964 54.8520
34.125103 88.067 54.1859
34.372387 88.158 53.4653
34.621464 88.238 52.7102
34.872345 88.304 51.9360
35.125042 88.357 51.1619
35.379574 88.396 50.4069
35.635948 88.424 49.6868
35.894180 88.441 49.0237
36.154285 88.453 48.4188
36.416275 88.463 47.8845
36.680161 88.474 47.4107
36.945961 88.488 46.9972
37.213688 88.509 46.6265
37.483353 88.539 46.2873
37.754974 88.578 45.9605
38.028561 88.626 45.6274
38.304131 88.682 45.2755
38.581699 88.744 44.8873
38.861279 88.810 44.4597
39.142883 88.877 43.9820
39.426529 88.943 43.4588
39.712231 89.005 42.8870
40.000000 89.062 42.2789
40.289856 89.112 41.6425
40.581814 89.156 40.9880
40.875885 89.193 40.3266
41.172089 89.224 39.6630
41.470440 89.250 39.0049
41.770950 89.271 38.3541
42.073643 89.288 37.7160
42.378525 89.303 37.0879
42.685616 89.316 36.4692
42.994934 89.327 35.8589
43.306492 89.335 35.2547
43.620308 89.340 34.6589
43.936401 89.343 34.0725
44.254780 89.343 33.4969
44.575470 89.340 32.9332
44.898483 89.335 32.3839
45.223835 89.328 31.8519
45.551544 89.319 31.3367
45.881630 89.310 30.8403
46.214108 89.300 30.3587
46.548996 89.291 29.8890
46.886307 89.282 29.4297
47.226067 89.273 28.9788
47.568283 89.264 28.5347
47.912983 89.256 28.0955
48.260181 89.247 27.6597
48.609894 89.238 27.2247
48.962143 89.228 26.7926
49.316940 89.216 26.3642
49.674313 89.202 25.9417
50.034271 89.187 25.5274
50.396843 89.171 25.1216
50.762039 89.154 24.7253
51.129883 89.136 24.3387
51.500389 89.117 23.9621
51.873581 89.097 23.5966
52.249481 89.076 23.2431
52.628101 89.055 22.9026
53.009464 89.033 22.5758
53.393593 89.010 22.2635
53.780506 88.988 21.9672
54.170223 88.966 21.6845
54.562763 88.946 21.4136
54.958145 88.927 21.1534
55.356396 88.909 20.9031
55.757530 88.892 20.6594
56.161572 88.878 20.4191
56.568542 88.865 20.1804
56.978462 88.853 19.9406
57.391350 88.842 19.6994
57.807232 88.831 19.4555
58.226128 88.821 19.2094
58.648056 88.811 18.9605
59.073048 88.800 18.7114
59.501114 88.788 18.4649
59.932281 88.775 18.2204
60.366577 88.764 17.9789
60.804020 88.752 17.7394
61.244629 88.740 17.5011
61.688435 88.727 17.2644
62.135452 88.715 17.0299
62.585712 88.703 16.7964
63.039234 88.691 16.5625
63.496040 88.678 16.3294
63.956161 88.665 16.0977
64.419617 88.651 15.8684
64.886421 88.636 15.6431
65.356621 88.621 15.4214
65.830215 88.606 15.2035
66.307251 88.591 14.9894
66.787743 88.575 14.7792
67.271713 88.558 14.5734
67.759193 88.542 14.3722
68.250206 88.525 14.1764
68.744774 88.508 13.9871
69.242928 88.491 13.8033
69.744690 88.474 13.6241
70.250084 88.457 13.4503
70.759148 88.440 13.2831
71.271896 88.423 13.1213
71.788361 88.407 12.9644
72.308571 88.392 12.8113
72.832550 88.377 12.6610
73.360321 88.363 12.5133
73.891922 88.349 12.3681
74.427376 88.336 12.2243
74.966705 88.323 12.0799
75.509949 88.311 11.9363
76.057121 88.298 11.7949
76.608261 88.286 11.6533
77.163399 88.275 11.5094
77.722557 88.265 11.3633
78.285767 88.254 11.2140
78.853058 88.242 11.0633
79.424461 88.230 10.9133
80.000000 88.218 10.7623
80.579712 88.206 10.6086
81.163628 88.193 10.4543
81.751770 88.179 10.3006
82.344177 88.164 10.1483
82.940880 88.149 9.9984
83.541901 88.133 9.8523
84.147285 88.115 9.7118
84.757050 88.097 9.5773
85.371231 88.079 9.4502
85.989868 88.061 9.3292
86.612984 88.043 9.2134
87.240616 88.025 9.1032
87.872803 88.007 8.9991
88.509560 87.989 8.9002
89.150940 87.972 8.8062
89.796967 87.956 8.7152
90.447670 87.940 8.6249
91.103088 87.925 8.5362
91.763260 87.909 8.4490
92.428215 87.894 8.3632
93.097992 87.879 8.2786
93.772614 87.864 8.1952
94.452133 87.849 8.1124
95.136566 87.833 8.0312
95.825966 87.818 7.9521
96.520363 87.802 7.8752
97.219788 87.786 7.7997
97.924286 87.769 7.7281
98.633881 87.751 7.6621
99.348625 87.733 7.6031
100.068542 87.715 7.5534
100.793686 87.697 7.5121
101.524078 87.680 7.4783
102.259766 87.663 7.4540
103.000778 87.646 7.4426
103.747162 87.630 7.4400
104.498962 87.618 7.4450
105.256203 87.608 7.4530
106.018929 87.600 7.4596
106.787186 87.595 7.4620
107.561012 87.592 7.4578
108.340446 87.592 7.4420
109.125526 87.594 7.4086
109.916290 87.596 7.3591
110.712791 87.596 7.2912
111.515060 87.595 7.2102
112.323143 87.592 7.1200
113.137085 87.587 7.0232
113.956924 87.580 6.9219
114.782700 87.570 6.8213
115.614464 87.556 6.7261
116.452255 87.541 6.6392
117.296112 87.525 6.5653
118.146095 87.509 6.5021
119.002228 87.493 6.4491
119.864563 87.477 6.4051
120.733154 87.462 6.3697
121.608040 87.447 6.3401
122.489258 87.434 6.3133
123.376869 87.421 6.2891
124.270905 87.408 6.2655
125.171425 87.395 6.2440
126.078468 87.382 6.2255
126.992081 87.370 6.2090
127.912323 87.358 6.1933
128.839233 87.346 6.1800
129.772842 87.334 6.1706
130.713242 87.322 6.1640
131.660431 87.311 6.1606
132.614502 87.301 6.1580
133.575485 87.292 6.1533
134.543427 87.282 6.1480
135.518387 87.272 6.1422
136.500412 87.261 6.1370
137.489548 87.251 6.1331
138.485855 87.240 6.1320
139.489380 87.228 6.1347
140.500168 87.216 6.1430
141.518295 87.204 6.1595
142.543793 87.193 6.1829
143.576721 87.182 6.2139
144.617142 87.173 6.2499
145.665100 87.166 6.2896
146.720642 87.161 6.3299
147.783844 87.157 6.3673
148.854752 87.154 6.4009
149.933411 87.153 6.4285
151.019897 87.152 6.4500
152.114243 87.152 6.4642
153.216522 87.152 6.4720
154.326797 87.152 6.4736
155.445114 87.152 6.4690
156.571533 87.151 6.4578
157.706116 87.150 6.4410
158.848923 87.149 6.4190
160.000000 87.147 6.3931
161.159424 87.144 6.3639
162.327255 87.139 6.3341
163.503540 87.133 6.3063
164.688354 87.127 6.2801
165.881760 87.121 6.2557
167.083801 87.114 6.2331
168.294571 87.107 6.2114
169.514099 87.099 6.1920
170.742462 87.091 6.1768
171.979736 87.083 6.1640
173.225967 87.075 6.1527
174.481232 87.068 6.1420
175.745605 87.060 6.1311
177.019119 87.053 6.1190
178.301880 87.046 6.1042
179.593933 87.039 6.0880
180.895340 87.030 6.0717
182.206177 87.021 6.0550
183.526520 87.012 6.0382
184.856430 87.003 6.0210
186.195984 86.992 6.0028
187.545227 86.980 5.9860
188.904266 86.967 5.9728
190.273132 86.954 5.9640
191.651932 86.940 5.9613
193.040726 86.925 5.9640
194.439575 86.910 5.9718
195.848572 86.895 5.9850
197.267761 86.880 6.0035
198.697250 86.865 6.0269
200.137085 86.850 6.0546
201.587372 86.835 6.0869
203.048157 86.820 6.1244
204.519531 86.804 6.1669
206.001556 86.789 6.2144
207.494324 86.774 6.2669
208.997925 86.759 6.3241
210.512405 86.745 6.3858
212.037857 86.731 6.4520
213.574371 86.718 6.5218
215.122025 86.705 6.5948
216.680893 86.693 6.6698
218.251053 86.681 6.7448
219.832581 86.670 6.8218
221.425583 86.658 6.9028
223.030121 86.647 6.9858
224.646286 86.637 7.0688
226.274170 86.628 7.1528
227.913849 86.617 7.2368
229.565399 86.606 7.3238
231.228928 86.596 7.4175
232.904510 86.586 7.5147
234.592224 86.578 7.6135
236.292191 86.571 7.7127
238.004456 86.564 7.8105
239.729126 86.558 7.9067
241.466309 86.553 8.0018
243.216080 86.549 8.0928
244.978516 86.546 8.1763
246.753738 86.542 8.2538
248.541809 86.537 8.3242
250.342850 86.531 8.3908
252.156937 86.524 8.4562
253.984161 86.516 8.5218
255.824646 86.507 8.5891
257.678467 86.497 8.6608
259.545685 86.485 8.7404
261.426483 86.472 8.8268
263.320862 86.460 8.9207
265.229004 86.449 9.0207
267.150970 86.438 9.1251
269.086853 86.426 9.2347
271.036774 86.414 9.3507
273.000824 86.403 9.4706
274.979095 86.394 9.5921
276.971710 86.385 9.7156
278.978760 86.375 9.8402
281.000336 86.364 9.9686
283.036591 86.354 10.1045
285.087585 86.344 10.2446
287.153442 86.335 10.3865
289.234283 86.327 10.5306
291.330200 86.319 10.6757
293.441284 86.310 10.8236
295.567688 86.301 10.9756
297.709503 86.293 11.1316
299.866821 86.286 11.2922
302.039795 86.279 11.4565
304.228485 86.272 11.6238
306.433044 86.266 11.7945
308.653595 86.260 11.9690
310.890228 86.254 12.1465
313.143066 86.250 12.3271
315.412231 86.247 12.5085
317.697845 86.245 12.6888
320.000000 86.244 12.8675
322.318848 86.243 13.0435
324.654510 86.242 13.2165
327.007080 86.242 13.3853
329.376709 86.242 13.5505
331.763519 86.242 13.7119
334.167603 86.241 13.8705
336.589142 86.240 14.0267
339.028198 86.238 14.1816
341.484924 86.234 14.3357
343.959473 86.229 14.4916
346.451935 86.223 14.6516
348.962463 86.216 14.8155
351.491211 86.209 14.9835
354.038239 86.200 15.1575
356.603760 86.189 15.3380
359.187866 86.177 15.5294
361.790680 86.163 15.7362
364.412354 86.148 15.9583
367.053040 86.133 16.1965
369.712860 86.118 16.4522
372.391968 86.102 16.7257
375.090454 86.085 17.0211
377.808533 86.069 17.3434
380.546265 86.054 17.6899
383.303864 86.042 18.0602
386.081451 86.032 18.4528
388.879150 86.025 18.8666
391.697144 86.021 19.3007
394.535522 86.021 19.7553
397.394501 86.025 20.2256
400.274170 86.034 20.7080
403.174744 86.049 21.1994
406.096313 86.069 21.6977
409.039062 86.095 22.1975
412.003113 86.127 22.6951
414.988647 86.166 23.1834
417.995850 86.210 23.6552
421.024811 86.260 24.1076
424.075714 86.314 24.5356
427.148743 86.371 24.9388
430.244049 86.431 25.3160
433.361786 86.494 25.6649
436.502106 86.559 25.9820
439.665161 86.626 26.2692
442.851166 86.691 26.5260
446.060242 86.757 26.7563
449.292572 86.822 26.9633
452.548340 86.886 27.1485
455.827698 86.948 27.3131
459.130798 87.009 27.4605
462.457855 87.068 27.5934
465.809021 87.125 27.7146
469.184448 87.180 27.8274
472.584381 87.234 27.9337
476.008911 87.286 28.0361
479.458252 87.337 28.1357
482.932617 87.388 28.2356
486.432159 87.439 28.3327
489.957031 87.490 28.4259
493.507477 87.542 28.5127
497.083618 87.594 28.5901
500.685699 87.647 28.6588
504.313873 87.699 28.7186
507.968323 87.750 28.7689
511.649292 87.801 28.8089
515.356934 87.852 28.8389
519.091370 87.901 28.8578
522.852966 87.949 28.8690
526.641724 87.994 28.8754
530.458008 88.038 28.8780
534.301941 88.081 28.8794
538.173706 88.124 28.8780
542.073547 88.165 28.8724
546.001648 88.205 28.8650
549.958191 88.243 28.8580
553.943420 88.281 28.8510
557.957520 88.317 28.8441
562.000671 88.353 28.8380
566.073181 88.387 28.8326
570.175171 88.421 28.8300
574.306885 88.453 28.8325
578.468567 88.485 28.8400
582.660400 88.516 28.8528
586.882568 88.547 28.8709
591.135376 88.577 28.8948
595.419006 88.608 28.9239
599.733643 88.639 28.9580
604.079590 88.670 28.9969
608.456970 88.702 29.0405
612.866089 88.734 29.0878
617.307190 88.767 29.1381
621.780457 88.801 29.1898
626.286133 88.836 29.2414
630.824463 88.872 29.2928
635.395691 88.908 29.3436
640.000000 88.945 29.3938
644.637695 88.982 29.4435
649.309021 89.020 29.4918
654.014160 89.059 29.5381
658.753418 89.100 29.5819
663.527039 89.140 29.6221
668.335205 89.181 29.6599
673.178284 89.222 29.6966
678.056396 89.265 29.7299
682.969849 89.309 29.7583
687.918945 89.354 29.7809
692.903870 89.399 29.7970
697.924927 89.446 29.8050
702.982422 89.494 29.8033
708.076477 89.542 29.7911
713.207520 89.590 29.7666
718.375732 89.639 29.7311
723.581360 89.687 29.6859
728.824707 89.735 29.6292
734.106079 89.783 29.5598
739.425720 89.831 29.4783
744.783936 89.877 29.3844
750.180908 89.923 29.2794
755.617065 89.967 29.1644
761.092529 90.011 29.0395
766.607727 90.053 28.9046
772.162903 90.093 28.7615
777.758301 90.131 28.6124
783.394287 90.168 28.4566
789.071045 90.204 28.2938
794.789001 90.238 28.1246
800.548340 90.270 27.9498
806.349487 90.301 27.7687
812.192627 90.330 27.5813
818.078125 90.358 27.3867
824.006226 90.383 27.1828
829.977295 90.406 26.9728
835.991699 90.425 26.7586
842.049622 90.440 26.5418
848.151428 90.452 26.3232
854.297485 90.461 26.1068
860.488098 90.465 25.8953
866.723572 90.464 25.6937
873.004211 90.459 25.5076
879.330322 90.451 25.3376
885.702332 90.440 25.1857
892.120483 90.427 25.0534
898.585144 90.410 24.9421
905.096680 90.391 24.8543
911.655396 90.370 24.7927
918.261597 90.346 24.7581
924.915710 90.320 24.7510
931.618042 90.293 24.7739
938.368896 90.265 24.8284
945.168762 90.236 24.9166
952.017822 90.207 25.0408
958.916504 90.177 25.2023
965.865234 90.148 25.4037
972.864319 90.121 25.6440
979.914062 90.096 25.9240
987.014954 90.074 26.2417
994.167236 90.056 26.5962
1001.371399 90.043 26.9855
1008.627747 90.034 27.4086
1015.936646 90.031 27.8620
1023.298584 90.035 28.3446
1030.713867 90.047 28.8483
1038.182739 90.067 29.3658
1045.705933 90.094 29.8937
1053.283447 90.129 30.4285
1060.916016 90.172 30.9637
1068.603882 90.224 31.4940
1076.347412 90.285 32.0119
1084.147095 90.354 32.5099
1092.003296 90.431 32.9835
1099.916382 90.513 33.4260
1107.886841 90.601 33.8363
1115.915039 90.693 34.2118
1124.001343 90.790 34.5498
1132.146362 90.890 34.8467
1140.350342 90.993 35.1041
1148.613770 91.096 35.3215
1156.937134 91.201 35.5013
1165.320801 91.305 35.6448
1173.765137 91.409 35.7546
1182.270752 91.511 35.8327
1190.838013 91.612 35.8828
1199.467285 91.711 35.9088
1208.159180 91.810 35.9130
1216.913940 91.905 35.8987
1225.732178 91.999 35.8681
1234.614380 92.091 35.8241
1243.560913 92.183 35.7682
1252.572266 92.272 35.7024
1261.648926 92.361 35.6283
1270.791382 92.448 35.5484
1280.000000 92.535 35.4623
1289.275391 92.622 35.3714
1298.618042 92.710 35.2734
1308.028320 92.797 35.1663
1317.506836 92.886 35.0505
1327.054077 92.974 34.9269
1336.670410 93.064 34.7916
1346.356567 93.156 34.6420
1356.112793 93.249 34.4747
1365.939697 93.341 34.2849
1375.837891 93.434 34.0729
1385.807739 93.526 33.8386
1395.849854 93.619 33.5791
1405.964844 93.711 33.2906
1416.152954 93.801 32.9752
1426.415039 93.887 32.6321
1436.751465 93.970 32.2654
1447.162720 94.048 31.8777
1457.649414 94.122 31.4727
1468.212158 94.191 31.0530
1478.851440 94.254 30.6247
1489.567871 94.310 30.1919
1500.361816 94.361 29.7626
1511.234131 94.405 29.3437
1522.185059 94.444 28.9418
1533.215454 94.477 28.5645
1544.325806 94.506 28.2155
1555.516602 94.531 27.8997
1566.788574 94.554 27.6211
1578.142090 94.575 27.3850
1589.578003 94.596 27.1917
1601.096680 94.618 27.0447
1612.698975 94.643 26.9394
1624.385254 94.673 26.8746
1636.156250 94.709 26.8441
1648.012451 94.752 26.8453
1659.954590 94.803 26.8659
1671.983398 94.865 26.8969
1684.099243 94.937 26.9259
1696.302856 95.018 26.9417
1708.594971 95.110 26.9321
1720.976196 95.211 26.8849
1733.447144 95.320 26.7895
1746.008423 95.435 26.6328
1758.660645 95.555 26.4111
1771.404663 95.676 26.1152
1784.240967 95.798 25.7477
1797.170288 95.916 25.3048
1810.193359 96.029 24.7961
1823.310791 96.133 24.2258
1836.523193 96.230 23.6065
1849.831421 96.317 22.9488
1863.236084 96.394 22.2641
1876.737793 96.460 21.5635
1890.337524 96.517 20.8591
1904.035645 96.563 20.1648
1917.833008 96.601 19.4857
1931.730469 96.633 18.8304
1945.728638 96.658 18.2016
1959.828125 96.677 17.6042
1974.029907 96.692 17.0403
1988.334473 96.703 16.5134
2002.742798 96.711 16.0239
2017.255493 96.718 15.5726
2031.873291 96.723 15.1615
2046.597168 96.727 14.7933
2061.427734 96.731 14.4673
2076.365479 96.737 14.1852
2091.411865 96.746 13.9439
2106.566895 96.758 13.7425
2121.832031 96.774 13.5766
2137.207764 96.796 13.4437
2152.694824 96.824 13.3384
2168.294189 96.859 13.2562
2184.006592 96.901 13.1913
2199.832764 96.951 13.1373
2215.773682 97.009 13.0902
2231.830078 97.075 13.0456
2248.002686 97.149 12.9982
2264.292725 97.231 12.9433
2280.700684 97.323 12.8743
2297.227539 97.424 12.7860
2313.874268 97.535 12.6705
2330.641602 97.654 12.5217
2347.530273 97.782 12.3289
2364.541504 97.921 12.0839
2381.676025 98.069 11.7736
2398.934570 98.226 11.3843
2416.318359 98.387 10.9093
2433.827881 98.551 10.3372
2451.464355 98.715 9.6690
2469.228760 98.877 8.8996
2487.121826 99.034 8.0359
2505.144531 99.184 7.0784
2523.297852 99.324 6.0419
2541.582764 99.453 4.9363
2560.000000 99.572 3.7762
2578.550781 99.678 2.5764
2597.236084 99.774 1.3457
2616.056641 99.859 0.0973
2635.013672 99.936 -1.1666
2654.108154 100.006 -2.4388
2673.340820 100.069 -3.7214
2692.713135 100.126 -5.0131
2712.225586 100.177 -6.3169
2731.879395 100.223 -7.6342
2751.675781 100.264 -8.9678
2771.615479 100.298 -10.3220
2791.699707 100.325 -11.6929
2811.929688 100.343 -13.0801
2832.305908 100.352 -14.4764
2852.830078 100.351 -15.8769
2873.502930 100.341 -17.2739
2894.325439 100.320 -18.6612
2915.298828 100.289 -20.0298
2936.424316 100.249 -21.3717
2957.702881 100.199 -22.6784
2979.135742 100.141 -23.9392
3000.723633 100.077 -25.1528
3022.468262 100.010 -26.3121
3044.370117 99.940 -27.4230
3066.430908 99.871 -28.4851
3088.651611 99.803 -29.5115
3111.033203 99.740 -30.5100
3133.577148 99.681 -31.4963
3156.284180 99.627 -32.4849
3179.156006 99.575 -33.4862
3202.193359 99.525 -34.5147
3225.397949 99.474 -35.5719
3248.770508 99.421 -36.6664
3272.312500 99.362 -37.7909
3296.024902 99.295 -38.9461
3319.909180 99.218 -40.1156
3343.966797 99.128 -41.2889
3368.198486 99.026 -42.4476
3392.605713 98.909 -43.5738
3417.189941 98.782 -44.6541
3441.952393 98.644 -45.6696
3466.894287 98.499 -46.6189
3492.016846 98.350 -47.4913
3517.321289 98.199 -48.2964
3542.809326 98.049 -49.0361
3568.481934 97.901 -49.7229
3594.340576 97.756 -50.3654
3620.386719 97.616 -50.9771
3646.621582 97.481 -51.5719
3673.046387 97.349 -52.1572
3699.662842 97.218 -52.7472
3726.472168 97.086 -53.3363
3753.475586 96.949 -53.9282
3780.675049 96.807 -54.5094
3808.071289 96.658 -55.0726
3835.666016 96.501 -55.6026
3863.460938 96.334 -56.0857
3891.457275 96.161 -56.5101
3919.656250 95.981 -56.8611
3948.059814 95.797 -57.1339
3976.668945 95.611 -57.3177
4005.485596 95.425 -57.4167
4034.510986 95.242 -57.4281
4063.746582 95.065 -57.3625
4093.194336 94.895 -57.2241
4122.855469 94.734 -57.0291
4152.730957 94.584 -56.7915
4182.823730 94.444 -56.5213
4213.133789 94.311 -56.2330
4243.664062 94.186 -55.9275
4274.415527 94.065 -55.6129
4305.389648 93.948 -55.2817
4336.588379 93.832 -54.9342
4368.013184 93.717 -54.5549
4399.665527 93.599 -54.1329
4431.547363 93.482 -53.6535
4463.660156 93.365 -53.0991
4496.005371 93.254 -52.4674
4528.585449 93.150 -51.7458
4561.401367 93.057 -50.9470
4594.455078 92.981 -50.0720
4627.748535 92.922 -49.1426
4661.283203 92.886 -48.1727
4695.060547 92.872 -47.1868
4729.083008 92.881 -46.2088
4763.352051 92.911 -45.2545
4797.869141 92.960 -44.3458
4832.636719 93.026 -43.4882
4867.655762 93.106 -42.6952
4902.928711 93.199 -41.9644
4938.457520 93.300 -41.3002
4974.243652 93.409 -40.6957
5010.289062 93.527 -40.1459
5046.595703 93.653 -39.6494
5083.165527 93.789 -39.2018
5120.000000 93.935 -38.8078
5157.101562 94.092 -38.4665
5194.472168 94.260 -38.1902
5232.113281 94.443 -37.9846
5270.027344 94.640 -37.8683
5308.216309 94.850 -37.8565
5346.681641 95.073 -37.9661
5385.426270 95.306 -38.2139
5424.451172 95.548 -38.6156
5463.758789 95.795 -39.1897
5503.351562 96.044 -39.9458
5543.230957 96.289 -40.9022
5583.399414 96.525 -42.0519
5623.859375 96.746 -43.4008
5664.611816 96.949 -44.9291
5705.660156 97.129 -46.6273
5747.005859 97.282 -48.4692
5788.650879 97.406 -50.4349
5830.597656 97.500 -52.4932
5872.848633 97.560 -54.6164
5915.405762 97.587 -56.7738
5958.271484 97.581 -58.9349
6001.447266 97.543 -61.0711
6044.936523 97.473 -63.1515
6088.740234 97.373 -65.1532
6132.861816 97.245 -67.0487
6177.303223 97.093 -68.8214
6222.066406 96.918 -70.4490
6267.154297 96.724 -71.9210
6312.568359 96.514 -73.2209
6358.312012 96.293 -74.3448
6404.386719 96.064 -75.2822
6450.795898 95.831 -76.0366
6497.541016 95.599 -76.6036
6544.625000 95.372 -76.9965
6592.049805 95.155 -77.2198
6639.818359 94.952 -77.2950
6687.933594 94.766 -77.2362
6736.396973 94.600 -77.0691
6785.211426 94.457 -76.8139
6834.379883 94.338 -76.5007
6883.904785 94.244 -76.1590
6933.788574 94.173 -75.8118
6984.033691 94.123 -75.4899
7034.642578 94.089 -75.1994
7085.618652 94.067 -74.9612
7136.963867 94.052 -74.7599
7188.681152 94.038 -74.5970
7240.773438 94.025 -74.4428
7293.243164 94.008 -74.2790
7346.092773 93.990 -74.0722
7399.325684 93.970 -73.7878
7452.944336 93.957 -73.4102
7506.951172 93.955 -72.9067
7561.350098 93.977 -72.2934
7616.142578 94.031 -71.5564
7671.332031 94.129 -70.7542
7726.921875 94.287 -69.9112
7782.914551 94.506 -69.1178
7839.312500 94.793 -68.4433
7896.119629 95.141 -67.9758
7953.337891 95.547 -67.8014
8010.971191 95.996 -67.9959
8069.021973 96.477 -68.6531
8127.493164 96.970 -69.8045
8186.388672 97.455 -71.5232
8245.710938 97.916 -73.7777
8305.461914 98.333 -76.5819
8365.647461 98.698 -79.8704
8426.267578 98.999 -83.6117
8487.328125 99.230 -87.7165
8548.831055 99.381 -92.1191
8610.779297 99.451 -96.7144
8673.176758 99.434 -101.4093
8736.026367 99.332 -106.1008
8799.331055 99.142 -110.6829
8863.094727 98.871 -115.0705
8927.320312 98.522 -119.1634
8992.010742 98.103 -122.9013
9057.170898 97.618 -126.1967
9122.802734 97.081 -129.0313
9188.910156 96.502 -131.3480
9255.497070 95.896 -133.1764
9322.566406 95.278 -134.5144
9390.121094 94.658 -135.4015
9458.166016 94.050 -135.8596
9526.704102 93.463 -135.9395
9595.738281 92.913 -135.6848
9665.273438 92.400 -135.1386
9735.311523 91.926 -134.3545
9805.857422 91.491 -133.3450
9876.915039 91.091 -132.1308
9948.487305 90.735 -130.7400
10020.578125 90.428 -129.1916
10093.191406 90.171 -127.5332
10166.331055 89.967 -125.8018
10240.000000 89.818 -124.0482
10314.203125 89.727 -122.3203
10388.944336 89.687 -120.6646
10464.226562 89.696 -119.1415
10540.054688 89.741 -117.7568
10616.432617 89.811 -116.5432
10693.363281 89.902 -115.4799
10770.852539 90.006 -114.5642
10848.902344 90.122 -113.7710
10927.517578 90.248 -113.0765
11006.703125 90.388 -112.4730
11086.461914 90.545 -111.9378
11166.798828 90.723 -111.4932
11247.718750 90.929 -111.1403
11329.223633 91.161 -110.9207
11411.320312 91.421 -110.8650
11494.011719 91.702 -111.0076
11577.301758 92.002 -111.3916
11661.195312 92.310 -112.0228
11745.697266 92.619 -112.9256
11830.811523 92.926 -114.0860
11916.542969 93.225 -115.5023
12002.894531 93.515 -117.1611
12089.873047 93.794 -119.0501
12177.480469 94.060 -121.1644
12265.723633 94.311 -123.4920
12354.606445 94.548 -126.0416
12444.132812 94.769 -128.8172
12534.308594 94.968 -131.8201
12625.136719 95.139 -135.0604
12716.624023 95.277 -138.5162
12808.773438 95.377 -142.1822
12901.591797 95.432 -146.0178
12995.082031 95.437 -150.0008
13089.250000 95.389 -154.0704
13184.099609 95.285 -158.1745
13279.636719 95.128 -162.2641
13375.867188 94.917 -166.2827
13472.793945 94.657 -170.2001
13570.422852 94.349 -173.9725
13668.759766 93.998 -177.5840
13767.809570 93.610 178.9926
13867.577148 93.188 175.7662
13968.067383 92.735 172.7474
14069.285156 92.254 169.9562
14171.237305 91.744 167.4073
14273.927734 91.209 165.1263
14377.362305 90.652 163.1375
14481.546875 90.077 161.4588
14586.486328 89.484 160.1181
14692.185547 88.884 159.1109
14798.651367 88.284 158.4545
14905.888672 87.695 158.1131
15013.902344 87.128 158.0753
15122.700195 86.592 158.2842
15232.285156 86.099 158.7025
15342.664062 85.653 159.2583
15453.843750 85.264 159.8889
15565.829102 84.927 160.5286
15678.625000 84.643 161.1055
15792.239258 84.403 161.5758
15906.675781 84.202 161.8770
16021.942383 84.027 161.9949
16138.043945 83.867 161.8870
16254.986328 83.711 161.5764
16372.777344 83.547 161.0469
16491.421875 83.363 160.3740
16610.923828 83.142 159.5988
16731.294922 82.888 158.8105
16852.535156 82.594 158.0961
16974.656250 82.269 157.5051
17097.662109 81.914 157.1097
17221.558594 81.540 156.9274
17346.353516 81.151 157.0135
17472.052734 80.767 157.3264
17598.662109 80.407 157.8699
17726.189453 80.079 158.5607
17854.640625 79.797 159.3362
17984.021484 79.555 160.1366
18114.341797 79.355 160.8932
18245.605469 79.190 161.5705
18377.820312 79.058 162.1098
18510.994141 78.945 162.5121
18645.132812 78.837 162.7474
18780.242188 78.731 162.8508
18916.332031 78.616 162.8370
19053.408203 78.493 162.7388
19191.476562 78.357 162.5884
19330.546875 78.212 162.4021
19470.623047 78.058 162.2030
19611.714844 77.897 162.0021
19753.830078 77.726 161.8174
19896.974609 77.551 161.6509
