* Measurement data measured by REW V5.20.13
* Source: C:\Users\kurin\Desktop\Targets and Curves\Resolve\Img\Files\Focal_Utopia_2022_5128_SPL.txt
* Format: Comma/Tab/Space delimited data
* Dated: Aug 14, 2023 3:54:21 PM
* REW Settings:
*  C-weighting compensation: Off
*  Target level: 75.0 dB
* Note: ; Measurement imported from C:\Users\kurin\Desktop\Targets and Curves\Resolve\Img\Files\Focal_Utopia_2022_5128_SPL.txt Format: Comma/Tab/Space delimited data 623 values loaded, 5 Hz to 39,792 Hz log spaced 
* Measurement: Focal_Utopia_2022_5128_SPL
* Smoothing: 1/48 octave
* Frequency Step: 1/96 octave
* Start Frequency: 5.000 Hz
*
* Freq(Hz) SPL(dB) Phase(degrees)
5.000000 75.954 51.8520
5.036232 75.971 51.8424
5.072727 75.989 51.8320
5.109486 76.010 51.8198
5.146511 76.035 51.8060
5.183805 76.065 51.7904
5.221369 76.097 51.7740
5.259205 76.130 51.7582
5.297316 76.165 51.7420
5.335702 76.202 51.7246
5.374367 76.240 51.7070
5.413311 76.277 51.6899
5.452538 76.315 51.6730
5.492050 76.352 51.6561
5.531847 76.390 51.6390
5.571934 76.427 51.6216
5.612310 76.465 51.6040
5.652979 76.502 51.5865
5.693943 76.540 51.5690
5.735204 76.577 51.5516
5.776763 76.615 51.5340
5.818624 76.653 51.5161
5.860788 76.691 51.4980
5.903258 76.729 51.4801
5.946035 76.766 51.4620
5.989123 76.803 51.4436
6.032523 76.841 51.4250
6.076237 76.878 51.4065
6.120268 76.916 51.3880
6.164618 76.953 51.3696
6.209289 76.991 51.3510
6.254284 77.028 51.3321
6.299605 77.066 51.3130
6.345255 77.103 51.2936
6.391235 77.141 51.2740
6.437549 77.179 51.2545
6.484198 77.217 51.2350
6.531185 77.255 51.2156
6.578513 77.292 51.1960
6.626183 77.329 51.1756
6.674199 77.367 51.1550
6.722563 77.404 51.1350
6.771278 77.442 51.1150
6.820345 77.479 51.0946
6.869768 77.517 51.0740
6.919549 77.554 51.0531
6.969691 77.592 51.0320
7.020196 77.629 51.0111
7.071068 77.667 50.9900
7.122308 77.704 50.9686
7.173919 77.742 50.9470
7.225904 77.780 50.9251
7.278266 77.818 50.9030
7.331007 77.856 50.8811
7.384131 77.893 50.8590
7.437639 77.930 50.8366
7.491535 77.968 50.8140
7.545822 78.005 50.7916
7.600502 78.043 50.7690
7.655579 78.080 50.7461
7.711054 78.118 50.7230
7.766932 78.155 50.6996
7.823214 78.193 50.6760
7.879904 78.230 50.6526
7.937005 78.268 50.6290
7.994520 78.306 50.6046
8.052452 78.344 50.5800
8.110803 78.382 50.5561
8.169578 78.419 50.5320
8.228777 78.456 50.5071
8.288406 78.494 50.4820
8.348468 78.531 50.4571
8.408964 78.569 50.4320
8.469899 78.606 50.4066
8.531276 78.644 50.3810
8.593097 78.681 50.3551
8.655366 78.719 50.3290
8.718086 78.756 50.3031
8.781260 78.794 50.2770
8.844893 78.832 50.2506
8.908987 78.870 50.2240
8.973545 78.908 50.1971
9.038571 78.945 50.1700
9.104069 78.982 50.1426
9.170040 79.020 50.1150
9.236490 79.057 50.0876
9.303422 79.095 50.0600
9.370838 79.132 50.0316
9.438744 79.170 50.0030
9.507140 79.207 49.9746
9.576033 79.245 49.9460
9.645425 79.282 49.9171
9.715320 79.320 49.8880
9.785721 79.358 49.8591
9.856632 79.396 49.8300
9.928058 79.434 49.8002
10.000000 79.471 49.7700
10.072464 79.508 49.7396
10.145453 79.546 49.7090
10.218971 79.583 49.6786
10.293022 79.621 49.6480
10.367610 79.659 49.6166
10.442738 79.696 49.5850
10.518411 79.733 49.5536
10.594631 79.771 49.5220
10.671404 79.809 49.4902
10.748734 79.846 49.4580
10.826623 79.883 49.4251
10.905077 79.921 49.3920
10.984100 79.959 49.3591
11.063695 79.997 49.3260
11.143867 80.035 49.2926
11.224621 80.072 49.2590
11.305959 80.109 49.2252
11.387886 80.147 49.1910
11.470407 80.184 49.1561
11.553527 80.222 49.1210
11.637249 80.259 49.0861
11.721577 80.297 49.0510
11.806517 80.334 49.0157
11.892071 80.372 48.9800
11.978246 80.409 48.9436
12.065045 80.447 48.9070
12.152473 80.485 48.8706
12.240536 80.523 48.8340
12.329235 80.561 48.7967
12.418578 80.598 48.7590
12.508568 80.635 48.7211
12.599211 80.673 48.6830
12.690510 80.710 48.6447
12.782471 80.748 48.6060
12.875097 80.785 48.5672
12.968395 80.823 48.5280
13.062370 80.860 48.4887
13.157025 80.898 48.4490
13.252366 80.935 48.4086
13.348398 80.973 48.3680
13.445127 81.011 48.3277
13.542556 81.049 48.2870
13.640691 81.087 48.2458
13.739536 81.124 48.2040
13.839099 81.161 48.1616
13.939383 81.199 48.1190
14.040393 81.236 48.0767
14.142136 81.274 48.0340
14.244616 81.311 47.9907
14.347837 81.349 47.9470
14.451808 81.386 47.9032
14.556532 81.424 47.8590
14.662014 81.461 47.8142
14.768262 81.499 47.7691
14.875278 81.536 47.7237
14.983070 81.574 47.6781
15.091644 81.612 47.6317
15.201005 81.650 47.5850
15.311157 81.688 47.5382
15.422109 81.725 47.4910
15.533863 81.762 47.4437
15.646428 81.800 47.3960
15.759809 81.837 47.3477
15.874010 81.875 47.2990
15.989040 81.912 47.2502
16.104904 81.950 47.2010
16.221605 81.987 47.1512
16.339155 82.025 47.1011
16.457554 82.062 47.0507
16.576813 82.100 47.0000
16.696936 82.138 46.9492
16.817928 82.176 46.8980
16.939798 82.214 46.8463
17.062551 82.251 46.7941
17.186193 82.288 46.7412
17.310732 82.326 46.6880
17.436172 82.363 46.6347
17.562521 82.401 46.5810
17.689787 82.438 46.5272
17.817974 82.476 46.4731
17.947090 82.513 46.4187
18.077143 82.551 46.3640
18.208138 82.588 46.3091
18.340080 82.626 46.2541
18.472980 82.664 46.1990
18.606844 82.702 46.1440
18.741676 82.740 46.0889
18.877487 82.777 46.0341
19.014280 82.814 45.9798
19.152065 82.852 45.9261
19.290850 82.890 45.8732
19.430639 82.928 45.8210
19.571442 82.967 45.7699
19.713264 83.006 45.7181
19.856115 83.046 45.6643
20.000000 83.087 45.6071
20.144928 83.128 45.5438
20.290907 83.169 45.4761
20.437943 83.210 45.4048
20.586044 83.250 45.3301
20.735220 83.290 45.2518
20.885475 83.330 45.1711
21.036821 83.369 45.0880
21.189262 83.407 45.0051
21.342808 83.444 44.9258
21.497467 83.482 44.8481
21.653246 83.521 44.7716
21.810154 83.560 44.6951
21.968201 83.599 44.6177
22.127390 83.639 44.5381
22.287735 83.680 44.4557
22.449242 83.721 44.3681
22.611917 83.762 44.2718
22.775772 83.803 44.1691
22.940815 83.842 44.0608
23.107054 83.881 43.9482
23.274498 83.919 43.8329
23.443153 83.957 43.7152
23.613033 83.993 43.5948
23.784142 84.027 43.4751
23.956491 84.060 43.3594
24.130091 84.092 43.2481
24.304947 84.124 43.1428
24.481071 84.155 43.0431
24.658470 84.186 42.9494
24.837156 84.217 42.8621
25.017136 84.248 42.7825
25.198421 84.279 42.7091
25.381020 84.311 42.6417
25.564941 84.345 42.5781
25.750195 84.380 42.5165
25.936790 84.417 42.4551
26.124741 84.455 42.3919
26.314051 84.494 42.3251
26.504732 84.535 42.2527
26.696796 84.576 42.1731
26.890253 84.618 42.0835
27.085112 84.660 41.9851
27.281382 84.702 41.8776
27.479073 84.743 41.7632
27.678198 84.783 41.6435
27.878765 84.823 41.5192
28.080786 84.862 41.3906
28.284271 84.901 41.2592
28.489231 84.939 41.1269
28.695675 84.976 40.9922
28.903616 85.014 40.8543
29.113064 85.052 40.7122
29.324028 85.089 40.5647
29.536524 85.126 40.4122
29.750557 85.162 40.2547
29.966141 85.198 40.0922
30.183289 85.232 39.9233
30.402010 85.264 39.7522
30.622314 85.293 39.5813
30.844217 85.321 39.4142
31.067726 85.347 39.2555
31.292856 85.373 39.1042
31.519617 85.398 38.9614
31.748020 85.423 38.8262
31.978081 85.448 38.6983
32.209808 85.474 38.5762
32.443211 85.501 38.4590
32.678310 85.528 38.3442
32.915108 85.556 38.2291
33.153625 85.585 38.1131
33.393871 85.613 37.9935
33.635857 85.641 37.8732
33.879597 85.669 37.7545
34.125103 85.696 37.6372
34.372387 85.724 37.5215
34.621464 85.751 37.4082
34.872345 85.778 37.2976
35.125042 85.805 37.1901
35.379574 85.833 37.0871
35.635948 85.861 36.9861
35.894180 85.891 36.8859
36.154285 85.922 36.7851
36.416275 85.953 36.6828
36.680161 85.985 36.5772
36.945961 86.019 36.4667
37.213688 86.054 36.3492
37.483353 86.089 36.2217
37.754974 86.124 36.0852
38.028561 86.159 35.9399
38.304131 86.193 35.7852
38.581699 86.227 35.6199
38.861279 86.260 35.4463
39.142883 86.290 35.2648
39.426529 86.318 35.0803
39.712231 86.344 34.8981
40.000000 86.369 34.7173
40.289856 86.394 34.5378
40.581814 86.417 34.3613
40.875885 86.438 34.1884
41.172089 86.458 34.0212
41.470440 86.477 33.8631
41.770950 86.497 33.7102
42.073643 86.518 33.5595
42.378525 86.538 33.4122
42.685616 86.557 33.2681
42.994934 86.576 33.1282
43.306492 86.595 32.9942
43.620308 86.614 32.8642
43.936401 86.633 32.7365
44.254780 86.653 32.6122
44.575470 86.672 32.4924
44.898483 86.692 32.3752
45.223835 86.713 32.2597
45.551544 86.735 32.1442
45.881630 86.757 32.0261
46.214108 86.780 31.9062
46.548996 86.802 31.7842
46.886307 86.825 31.6602
47.226067 86.848 31.5346
47.568283 86.871 31.4062
47.912983 86.894 31.2731
48.260181 86.916 31.1372
48.609894 86.937 30.9992
48.962143 86.957 30.8612
49.316940 86.977 30.7261
49.674313 86.997 30.5922
50.034271 87.017 30.4583
50.396843 87.036 30.3252
50.762039 87.054 30.1930
51.129883 87.071 30.0632
51.500389 87.089 29.9375
51.873581 87.107 29.8152
52.249481 87.124 29.6963
52.628101 87.141 29.5802
53.009464 87.159 29.4666
53.393593 87.177 29.3552
53.780506 87.195 29.2452
54.170223 87.214 29.1372
54.562763 87.233 29.0320
54.958145 87.252 28.9272
55.356396 87.273 28.8202
55.757530 87.294 28.7112
56.161572 87.315 28.5987
56.568542 87.335 28.4842
56.978462 87.355 28.3694
57.391350 87.376 28.2522
57.807232 87.398 28.1310
58.226128 87.420 28.0062
58.648056 87.440 27.8771
59.073048 87.459 27.7462
59.501114 87.478 27.6162
59.932281 87.497 27.4862
60.366577 87.515 27.3562
60.804020 87.533 27.2272
61.244629 87.550 27.0999
61.688435 87.566 26.9752
62.135452 87.582 26.8546
62.585712 87.598 26.7372
63.039234 87.615 26.6232
63.496040 87.632 26.5112
63.956161 87.649 26.4001
64.419617 87.667 26.2892
64.886421 87.685 26.1771
65.356621 87.703 26.0642
65.830215 87.722 25.9507
66.307251 87.741 25.8352
66.787743 87.760 25.7159
67.271713 87.779 25.5942
67.759193 87.797 25.4711
68.250206 87.814 25.3472
68.744774 87.832 25.2238
69.242928 87.850 25.1002
69.744690 87.867 24.9765
70.250084 87.885 24.8522
70.759148 87.903 24.7271
71.271896 87.921 24.6002
71.788361 87.938 24.4697
72.308571 87.955 24.3382
72.832550 87.971 24.2081
73.360321 87.987 24.0782
73.891922 88.003 23.9487
74.427376 88.020 23.8183
74.966705 88.036 23.6852
75.509949 88.052 23.5512
76.057121 88.067 23.4171
76.608261 88.082 23.2833
77.163399 88.096 23.1512
77.722557 88.111 23.0193
78.285767 88.126 22.8862
78.853058 88.141 22.7523
79.424461 88.155 22.6165
80.000000 88.168 22.4813
80.579712 88.180 22.3496
81.163628 88.193 22.2192
81.751770 88.207 22.0886
82.344177 88.220 21.9583
82.940880 88.232 21.8282
83.541901 88.243 21.6993
84.147285 88.255 21.5731
84.757050 88.268 21.4472
85.371231 88.281 21.3196
85.989868 88.293 21.1913
86.612984 88.305 21.0632
87.240616 88.317 20.9343
87.872803 88.330 20.8037
88.509560 88.342 20.6713
89.150940 88.353 20.5355
89.796967 88.364 20.3993
90.447670 88.374 20.2651
91.103088 88.383 20.1323
91.763260 88.392 20.0010
92.428215 88.401 19.8713
93.097992 88.409 19.7424
93.772614 88.417 19.6163
94.452133 88.425 19.4947
95.136566 88.432 19.3762
95.825966 88.439 19.2604
96.520363 88.447 19.1462
97.219788 88.455 19.0327
97.924286 88.463 18.9202
98.633881 88.471 18.8085
99.348625 88.478 18.6982
100.068542 88.485 18.5897
100.793686 88.493 18.4833
101.524078 88.500 18.3794
102.259766 88.508 18.2772
103.000778 88.516 18.1759
103.747162 88.524 18.0752
104.498962 88.532 17.9744
105.256203 88.541 17.8742
106.018929 88.549 17.7753
106.787186 88.558 17.6762
107.561012 88.568 17.5766
108.340446 88.579 17.4742
109.125526 88.589 17.3659
109.916290 88.599 17.2542
110.712791 88.608 17.1398
111.515060 88.617 17.0242
112.323143 88.626 16.9101
113.137085 88.634 16.7952
113.956924 88.643 16.6786
114.782700 88.651 16.5603
115.614464 88.659 16.4399
116.452255 88.667 16.3182
117.296112 88.674 16.1962
118.146095 88.680 16.0733
119.002228 88.686 15.9487
119.864563 88.692 15.8233
120.733154 88.696 15.6966
121.608040 88.700 15.5713
122.489258 88.702 15.4494
123.376869 88.704 15.3323
124.270905 88.705 15.2220
125.171425 88.705 15.1182
126.078468 88.706 15.0211
126.992081 88.707 14.9302
127.912323 88.708 14.8458
128.839233 88.710 14.7652
129.772842 88.714 14.6864
130.713242 88.719 14.6072
131.660431 88.724 14.5245
132.614502 88.730 14.4382
133.575485 88.736 14.3469
134.543427 88.742 14.2512
135.518387 88.748 14.1512
136.500412 88.754 14.0472
137.489548 88.759 13.9385
138.485855 88.763 13.8283
139.489380 88.765 13.7193
140.500168 88.766 13.6122
141.518295 88.767 13.5091
142.543793 88.768 13.4092
143.576721 88.768 13.3126
144.617142 88.768 13.2192
145.665100 88.768 13.1293
146.720642 88.768 13.0422
147.783844 88.768 12.9573
148.854752 88.768 12.8742
149.933411 88.768 12.7924
151.019897 88.768 12.7122
152.114243 88.768 12.6340
153.216522 88.768 12.5572
154.326797 88.768 12.4816
155.445114 88.768 12.4072
156.571533 88.768 12.3341
157.706116 88.768 12.2622
158.848923 88.768 12.1912
160.000000 88.768 12.1212
161.159424 88.768 12.0522
162.327255 88.768 11.9842
163.503540 88.768 11.9171
164.688354 88.768 11.8511
165.881760 88.768 11.7863
167.083801 88.768 11.7222
168.294571 88.768 11.6583
169.514099 88.768 11.5952
170.742462 88.768 11.5333
171.979736 88.768 11.4722
173.225967 88.768 11.4114
174.481232 88.768 11.3511
175.745605 88.768 11.2914
177.019119 88.768 11.2321
178.301880 88.768 11.1734
179.593933 88.768 11.1151
180.895340 88.768 11.0575
182.206177 88.768 11.0001
183.526520 88.768 10.9426
184.856430 88.768 10.8851
186.195984 88.768 10.8277
187.545227 88.768 10.7701
188.904266 88.768 10.7126
190.273132 88.768 10.6541
191.651932 88.768 10.5939
193.040726 88.768 10.5322
194.439575 88.767 10.4689
195.848572 88.766 10.4042
197.267761 88.765 10.3377
198.697250 88.763 10.2712
200.137085 88.759 10.2049
201.587372 88.754 10.1421
203.048157 88.748 10.0865
204.519531 88.742 10.0371
206.001556 88.736 9.9944
207.494324 88.730 9.9581
208.997925 88.724 9.9281
210.512405 88.719 9.9041
212.037857 88.714 9.8869
213.574371 88.710 9.8730
215.122025 88.708 9.8593
216.680893 88.707 9.8450
218.251053 88.706 9.8282
219.832581 88.705 9.8091
221.425583 88.705 9.7870
223.030121 88.705 9.7621
224.646286 88.705 9.7341
226.274170 88.705 9.7031
227.913849 88.705 9.6688
229.565399 88.704 9.6321
231.228928 88.702 9.5929
232.904510 88.700 9.5531
234.592224 88.697 9.5136
236.292191 88.692 9.4771
238.004456 88.686 9.4466
239.729126 88.680 9.4221
241.466309 88.674 9.4044
243.216080 88.668 9.3930
244.978516 88.662 9.3876
246.753738 88.656 9.3880
248.541809 88.652 9.3953
250.342850 88.648 9.4060
252.156937 88.646 9.4167
253.984161 88.644 9.4270
255.824646 88.643 9.4349
257.678467 88.643 9.4410
259.545685 88.643 9.4451
261.426483 88.643 9.4470
263.320862 88.643 9.4463
265.229004 88.643 9.4440
267.150970 88.643 9.4415
269.086853 88.643 9.4380
271.036774 88.643 9.4331
273.000824 88.643 9.4270
274.979095 88.643 9.4200
276.971710 88.643 9.4120
278.978760 88.643 9.4033
281.000336 88.643 9.3930
283.036591 88.643 9.3807
285.087585 88.643 9.3660
287.153442 88.643 9.3492
289.234283 88.643 9.3291
291.330200 88.642 9.3041
293.441284 88.641 9.2751
295.567688 88.640 9.2417
297.709503 88.637 9.2051
299.866821 88.632 9.1653
302.039795 88.626 9.1261
304.228485 88.617 9.0907
306.433044 88.607 9.0611
308.653595 88.595 9.0399
310.890228 88.582 9.0290
313.143066 88.567 9.0305
315.412231 88.552 9.0459
317.697845 88.536 9.0787
320.000000 88.521 9.1258
322.318848 88.508 9.1867
324.654510 88.496 9.2578
327.007080 88.486 9.3359
329.376709 88.477 9.4197
331.763519 88.470 9.5073
334.167603 88.465 9.5967
336.589142 88.461 9.6855
339.028198 88.458 9.7727
341.484924 88.457 9.8563
343.959473 88.456 9.9368
346.451935 88.456 10.0141
348.962463 88.456 10.0888
351.491211 88.456 10.1612
354.038239 88.456 10.2318
356.603760 88.456 10.3012
359.187866 88.456 10.3698
361.790680 88.456 10.4382
364.412354 88.456 10.5068
367.053040 88.456 10.5760
369.712860 88.456 10.6458
372.391968 88.456 10.7157
375.090454 88.456 10.7868
377.808533 88.456 10.8598
380.546265 88.456 10.9348
383.303864 88.456 11.0120
386.081451 88.456 11.0918
388.879150 88.456 11.1743
391.697144 88.457 11.2597
394.535522 88.458 11.3489
397.394501 88.460 11.4397
400.274170 88.463 11.5310
403.174744 88.468 11.6207
406.096313 88.474 11.7063
409.039062 88.480 11.7878
412.003113 88.486 11.8641
414.988647 88.492 11.9358
417.995850 88.498 12.0024
421.024811 88.503 12.0648
424.075714 88.508 12.1226
427.148743 88.512 12.1788
430.244049 88.514 12.2358
433.361786 88.516 12.2948
436.502106 88.517 12.3582
439.665161 88.518 12.4258
442.851166 88.518 12.4980
446.060242 88.518 12.5748
449.292572 88.518 12.6565
452.548340 88.518 12.7427
455.827698 88.518 12.8328
459.130798 88.518 12.9277
462.457855 88.518 13.0284
465.809021 88.518 13.1347
469.184448 88.518 13.2467
472.584381 88.519 13.3646
476.008911 88.521 13.4890
479.458252 88.523 13.6186
482.932617 88.526 13.7529
486.432159 88.531 13.8896
489.957031 88.538 14.0258
493.507477 88.545 14.1626
497.083618 88.552 14.3003
500.685699 88.560 14.4375
504.313873 88.570 14.5734
507.968323 88.580 14.7066
511.649292 88.591 14.8343
515.356934 88.602 14.9606
519.091370 88.611 15.0888
522.852966 88.621 15.2186
526.641724 88.632 15.3511
530.458008 88.644 15.4846
534.301941 88.656 15.6169
538.173706 88.668 15.7505
542.073547 88.680 15.8878
546.001648 88.693 16.0265
549.958191 88.708 16.1657
553.943420 88.724 16.3046
557.957520 88.740 16.4420
562.000671 88.756 16.5775
566.073181 88.774 16.7103
570.175171 88.793 16.8396
574.306885 88.811 16.9635
578.468567 88.830 17.0846
582.660400 88.849 17.2049
586.882568 88.868 17.3236
591.135376 88.887 17.4400
595.419006 88.907 17.5556
599.733643 88.926 17.6713
604.079590 88.945 17.7876
608.456970 88.965 17.9062
612.866089 88.985 18.0246
617.307190 89.007 18.1406
621.780457 89.029 18.2546
626.286133 89.051 18.3664
630.824463 89.073 18.4766
635.395691 89.096 18.5867
640.000000 89.120 18.6946
644.637695 89.144 18.7986
649.309021 89.169 18.8997
654.014160 89.193 18.9980
658.753418 89.218 19.0937
663.527039 89.243 19.1870
668.335205 89.268 19.2777
673.178284 89.293 19.3651
678.056396 89.318 19.4507
682.969849 89.342 19.5358
687.918945 89.367 19.6207
692.903870 89.392 19.7061
697.924927 89.417 19.7917
702.982422 89.442 19.8773
708.076477 89.468 19.9627
713.207520 89.494 20.0486
718.375732 89.521 20.1327
723.581360 89.549 20.2128
728.824707 89.578 20.2887
734.106079 89.606 20.3588
739.425720 89.633 20.4258
744.783936 89.660 20.4918
750.180908 89.686 20.5578
755.617065 89.712 20.6254
761.092529 89.739 20.6947
766.607727 89.765 20.7656
772.162903 89.791 20.8397
777.758301 89.817 20.9195
783.394287 89.844 21.0027
789.071045 89.873 21.0885
794.789001 89.903 21.1747
800.548340 89.934 21.2590
806.349487 89.966 21.3407
812.192627 89.999 21.4186
818.078125 90.033 21.4917
824.006226 90.068 21.5584
829.977295 90.103 21.6198
835.991699 90.138 21.6768
842.049622 90.174 21.7288
848.151428 90.210 21.7752
854.297485 90.247 21.8169
860.488098 90.282 21.8537
866.723572 90.318 21.8879
873.004211 90.354 21.9223
879.330322 90.391 21.9539
885.702332 90.429 21.9806
892.120483 90.467 22.0019
898.585144 90.504 22.0163
905.096680 90.542 22.0250
911.655396 90.580 22.0289
918.261597 90.618 22.0280
924.915710 90.655 22.0217
931.618042 90.691 22.0120
938.368896 90.727 22.0010
945.168762 90.763 21.9890
952.017822 90.798 21.9778
958.916504 90.834 21.9660
965.865234 90.870 21.9538
972.864319 90.907 21.9391
979.914062 90.944 21.9197
987.014954 90.982 21.8961
994.167236 91.019 21.8678
1001.371399 91.056 21.8351
1008.627747 91.093 21.7978
1015.936646 91.129 21.7572
1023.298584 91.165 21.7139
1030.713867 91.200 21.6701
1038.182739 91.235 21.6292
1045.705933 91.270 21.5892
1053.283447 91.306 21.5502
1060.916016 91.342 21.5102
1068.603882 91.379 21.4681
1076.347412 91.417 21.4212
1084.147095 91.457 21.3670
1092.003296 91.497 21.3042
1099.916382 91.537 21.2306
1107.886841 91.576 21.1474
1115.915039 91.615 21.0549
1124.001343 91.653 20.9544
1132.146362 91.689 20.8457
1140.350342 91.724 20.7334
1148.613770 91.756 20.6210
1156.937134 91.786 20.5114
1165.320801 91.815 20.4095
1173.765137 91.844 20.3134
1182.270752 91.873 20.2229
1190.838013 91.903 20.1383
1199.467285 91.932 20.0616
1208.159180 91.962 19.9883
1216.913940 91.996 19.9164
1225.732178 92.032 19.8403
1234.614380 92.068 19.7538
1243.560913 92.106 19.6564
1252.572266 92.145 19.5456
1261.648926 92.184 19.4205
1270.791382 92.222 19.2785
1280.000000 92.258 19.1226
1289.275391 92.292 18.9536
1298.618042 92.323 18.7767
1308.028320 92.351 18.5958
1317.506836 92.376 18.4158
1327.054077 92.398 18.2416
1336.670410 92.417 18.0766
1346.356567 92.434 17.9263
1356.112793 92.450 17.7885
1365.939697 92.467 17.6630
1375.837891 92.484 17.5494
1385.807739 92.500 17.4481
1395.849854 92.517 17.3573
1405.964844 92.536 17.2772
1416.152954 92.556 17.2033
1426.415039 92.578 17.1311
1436.751465 92.601 17.0603
1447.162720 92.625 16.9885
1457.649414 92.650 16.9163
1468.212158 92.676 16.8440
1478.851440 92.703 16.7693
1489.567871 92.731 16.6906
1500.361816 92.761 16.6063
1511.234131 92.791 16.5158
1522.185059 92.822 16.4155
1533.215454 92.855 16.3022
1544.325806 92.888 16.1746
1555.516602 92.919 16.0287
1566.788574 92.949 15.8697
1578.142090 92.975 15.7005
1589.578003 92.999 15.5238
1601.096680 93.021 15.3415
1612.698975 93.039 15.1588
1624.385254 93.052 14.9791
1636.156250 93.061 14.8097
1648.012451 93.067 14.6585
1659.954590 93.070 14.5265
1671.983398 93.072 14.4176
1684.099243 93.073 14.3313
1696.302856 93.073 14.2680
1708.594971 93.073 14.2281
1720.976196 93.073 14.2122
1733.447144 93.074 14.2209
1746.008423 93.075 14.2549
1758.660645 93.078 14.3147
1771.404663 93.082 14.4020
1784.240967 93.089 14.5145
1797.170288 93.100 14.6521
1810.193359 93.116 14.8093
1823.310791 93.137 14.9822
1836.523193 93.164 15.1663
1849.831421 93.195 15.3570
1863.236084 93.232 15.5501
1876.737793 93.275 15.7420
1890.337524 93.324 15.9262
1904.035645 93.379 16.0960
1917.833008 93.438 16.2484
1931.730469 93.500 16.3785
1945.728638 93.566 16.4866
1959.828125 93.633 16.5703
1974.029907 93.702 16.6328
1988.334473 93.770 16.6746
2002.742798 93.839 16.7009
2017.255493 93.906 16.7154
2031.873291 93.973 16.7230
2046.597168 94.039 16.7293
2061.427734 94.106 16.7360
2076.365479 94.174 16.7474
2091.411865 94.245 16.7609
2106.566895 94.318 16.7764
2121.832031 94.395 16.7900
2137.207764 94.475 16.7986
2152.694824 94.558 16.7990
2168.294189 94.645 16.7860
2184.006592 94.734 16.7621
2199.832764 94.823 16.7266
2215.773682 94.915 16.6842
2231.830078 95.009 16.6397
2248.002686 95.107 16.5922
2264.292725 95.208 16.5443
2280.700684 95.316 16.4902
2297.227539 95.430 16.4290
2313.874268 95.551 16.3494
2330.641602 95.683 16.2435
2347.530273 95.822 16.0997
2364.541504 95.970 15.9067
2381.676025 96.125 15.6553
2398.934570 96.286 15.3349
2416.318359 96.451 14.9380
2433.827881 96.620 14.4535
2451.464355 96.789 13.8816
2469.228760 96.956 13.2170
2487.121826 97.119 12.4644
2505.144531 97.277 11.6257
2523.297852 97.427 10.7044
2541.582764 97.570 9.7017
2560.000000 97.702 8.6269
2578.550781 97.822 7.4836
2597.236084 97.929 6.2896
2616.056641 98.019 5.0590
2635.013672 98.094 3.8073
2654.108154 98.154 2.5500
2673.340820 98.201 1.3014
2692.713135 98.232 0.0770
2712.225586 98.251 -1.1105
2731.879395 98.260 -2.2431
2751.675781 98.262 -3.3211
2771.615479 98.261 -4.3354
2791.699707 98.259 -5.2968
2811.929688 98.259 -6.2091
2832.305908 98.263 -7.0850
2852.830078 98.272 -7.9330
2873.502930 98.286 -8.7694
2894.325439 98.308 -9.6087
2915.298828 98.335 -10.4650
2936.424316 98.367 -11.3552
2957.702881 98.402 -12.2848
2979.135742 98.438 -13.2638
3000.723633 98.474 -14.2954
3022.468262 98.507 -15.3862
3044.370117 98.537 -16.5355
3066.430908 98.561 -17.7479
3088.651611 98.576 -19.0152
3111.033203 98.579 -20.3337
3133.577148 98.570 -21.6944
3156.284180 98.549 -23.0914
3179.156006 98.513 -24.5122
3202.193359 98.460 -25.9479
3225.397949 98.390 -27.3822
3248.770508 98.302 -28.8005
3272.312500 98.195 -30.1879
3296.024902 98.070 -31.5316
3319.909180 97.927 -32.8103
3343.966797 97.762 -34.0080
3368.198486 97.579 -35.0951
3392.605713 97.377 -36.0451
3417.189941 97.160 -36.8328
3441.952393 96.930 -37.4291
3466.894287 96.692 -37.8187
3492.016846 96.450 -37.9718
3517.321289 96.216 -37.9028
3542.809326 96.000 -37.5992
3568.481934 95.812 -37.1126
3594.340576 95.662 -36.4678
3620.386719 95.555 -35.7346
3646.621582 95.500 -34.9684
3673.046387 95.491 -34.2383
3699.662842 95.531 -33.6173
3726.472168 95.608 -33.1487
3753.475586 95.712 -32.9015
3780.675049 95.831 -32.8716
3808.071289 95.951 -33.0900
3835.666016 96.064 -33.5205
3863.460938 96.161 -34.1524
3891.457275 96.239 -34.9390
3919.656250 96.291 -35.8428
3948.059814 96.321 -36.8243
3976.668945 96.325 -37.8375
4005.485596 96.309 -38.8640
4034.510986 96.276 -39.8711
4063.746582 96.227 -40.8564
4093.194336 96.167 -41.8062
4122.855469 96.096 -42.7226
4152.730957 96.017 -43.6044
4182.823730 95.927 -44.4471
4213.133789 95.828 -45.2487
4243.664062 95.720 -46.0016
4274.415527 95.603 -46.7014
4305.389648 95.477 -47.3351
4336.588379 95.340 -47.8914
4368.013184 95.197 -48.3600
4399.665527 95.049 -48.7254
4431.547363 94.900 -48.9919
4463.660156 94.754 -49.1564
4496.005371 94.613 -49.2269
4528.585449 94.476 -49.2065
4561.401367 94.349 -49.1066
4594.455078 94.234 -48.9348
4627.748535 94.130 -48.7052
4661.283203 94.040 -48.4321
4695.060547 93.962 -48.1236
4729.083008 93.898 -47.7904
4763.352051 93.845 -47.4387
4797.869141 93.805 -47.0782
4832.636719 93.777 -46.7089
4867.655762 93.758 -46.3334
4902.928711 93.751 -45.9539
4938.457520 93.758 -45.5707
4974.243652 93.779 -45.1908
5010.289062 93.815 -44.8165
5046.595703 93.868 -44.4617
5083.165527 93.940 -44.1320
5120.000000 94.034 -43.8542
5157.101562 94.153 -43.6454
5194.472168 94.294 -43.5402
5232.113281 94.460 -43.5667
5270.027344 94.645 -43.7625
5308.216309 94.850 -44.1665
5346.681641 95.064 -44.8043
5385.426270 95.281 -45.7147
5424.451172 95.491 -46.8965
5463.758789 95.685 -48.3698
5503.351562 95.855 -50.1089
5543.230957 95.992 -52.1128
5583.399414 96.088 -54.3267
5623.859375 96.134 -56.7183
5664.611816 96.130 -59.2186
5705.660156 96.070 -61.7678
5747.005859 95.956 -64.3051
5788.650879 95.786 -66.7664
5830.597656 95.565 -69.0994
5872.848633 95.294 -71.2434
5915.405762 94.979 -73.1598
5958.271484 94.622 -74.7997
6001.447266 94.230 -76.1330
6044.936523 93.808 -77.1206
6088.740234 93.364 -77.7399
6132.861816 92.904 -77.9552
6177.303223 92.438 -77.7670
6222.066406 91.978 -77.1515
6267.154297 91.537 -76.1450
6312.568359 91.128 -74.7522
6358.312012 90.765 -73.0443
6404.386719 90.464 -71.0643
6450.795898 90.231 -68.9025
6497.541016 90.079 -66.6357
6544.625000 90.002 -64.3484
6592.049805 90.005 -62.1320
6639.818359 90.072 -60.0423
6687.933594 90.198 -58.1602
6736.396973 90.366 -56.5019
6785.211426 90.563 -55.1182
6834.379883 90.779 -53.9852
6883.904785 91.000 -53.1080
6933.788574 91.224 -52.4499
6984.033691 91.443 -51.9860
7034.642578 91.659 -51.6851
7085.618652 91.869 -51.5144
7136.963867 92.076 -51.4531
7188.681152 92.282 -51.4715
7240.773438 92.492 -51.5644
7293.243164 92.707 -51.7099
7346.092773 92.934 -51.9277
7399.325684 93.180 -52.2153
7452.944336 93.447 -52.6176
7506.951172 93.740 -53.1633
7561.350098 94.054 -53.8996
7616.142578 94.391 -54.8681
7671.332031 94.742 -56.1158
7726.921875 95.105 -57.6930
7782.914551 95.466 -59.6310
7839.312500 95.818 -61.9810
7896.119629 96.146 -64.7354
7953.337891 96.437 -67.9155
8010.971191 96.683 -71.4842
8069.021973 96.874 -75.4340
8127.493164 97.002 -79.6947
8186.388672 97.053 -84.2204
8245.710938 97.028 -88.9298
8305.461914 96.924 -93.7594
8365.647461 96.735 -98.6105
8426.267578 96.453 -103.3920
8487.328125 96.084 -108.0152
8548.831055 95.634 -112.3798
8610.779297 95.103 -116.4266
8673.176758 94.495 -120.0916
8736.026367 93.811 -123.2901
8799.331055 93.047 -125.9264
8863.094727 92.223 -127.9689
8927.320312 91.355 -129.3534
8992.010742 90.451 -130.0839
9057.170898 89.521 -130.1522
9122.802734 88.572 -129.5312
9188.910156 87.600 -128.1805
9255.497070 86.642 -126.1309
9322.566406 85.734 -123.3776
9390.121094 84.878 -119.9875
9458.166016 84.080 -115.9972
9526.704102 83.374 -111.4960
9595.738281 82.791 -106.5288
9665.273438 82.349 -101.2654
9735.311523 82.081 -95.8336
9805.857422 81.973 -90.4071
9876.915039 82.035 -85.1653
9948.487305 82.235 -80.2197
10020.578125 82.552 -75.7225
10093.191406 82.957 -71.7301
10166.331055 83.418 -68.3580
10240.000000 83.909 -65.5811
10314.203125 84.398 -63.4475
10388.944336 84.874 -61.8514
10464.226562 85.315 -60.7315
10540.054688 85.729 -59.9984
10616.432617 86.116 -59.5573
10693.363281 86.479 -59.3655
10770.852539 86.820 -59.3520
10848.902344 87.145 -59.5067
10927.517578 87.462 -59.7900
11006.703125 87.768 -60.2213
11086.461914 88.066 -60.8054
11166.798828 88.349 -61.5484
11247.718750 88.615 -62.4664
11329.223633 88.856 -63.5341
11411.320312 89.065 -64.7511
11494.011719 89.239 -66.0588
11577.301758 89.371 -67.4242
11661.195312 89.464 -68.7687
11745.697266 89.514 -70.0208
11830.811523 89.536 -71.1245
11916.542969 89.534 -71.9990
12002.894531 89.527 -72.6481
12089.873047 89.532 -73.0278
12177.480469 89.565 -73.2015
12265.723633 89.644 -73.1818
12354.606445 89.778 -73.0786
12444.132812 89.987 -72.9681
12534.308594 90.258 -72.9665
12625.136719 90.594 -73.1903
12716.624023 90.974 -73.7163
12808.773438 91.386 -74.6484
12901.591797 91.813 -76.0209
12995.082031 92.238 -77.9126
13089.250000 92.641 -80.2938
13184.099609 93.000 -83.1881
13279.636719 93.308 -86.5099
13375.867188 93.549 -90.2106
13472.793945 93.722 -94.2007
13570.422852 93.824 -98.4067
13668.759766 93.850 -102.7321
13767.809570 93.794 -107.0867
13867.577148 93.663 -111.3774
13968.067383 93.458 -115.5028
14069.285156 93.186 -119.3986
14171.237305 92.851 -122.9817
14273.927734 92.463 -126.2080
14377.362305 92.028 -129.0048
14481.546875 91.563 -131.3759
14586.486328 91.083 -133.2808
14692.185547 90.604 -134.7804
14798.651367 90.141 -135.8914
14905.888672 89.707 -136.7040
15013.902344 89.321 -137.2825
15122.700195 88.983 -137.7227
15232.285156 88.706 -138.1188
15342.664062 88.479 -138.5402
15453.843750 88.300 -139.0795
15565.829102 88.154 -139.7618
15678.625000 88.030 -140.6492
15792.239258 87.915 -141.7227
15906.675781 87.793 -143.0007
16021.942383 87.658 -144.4319
16138.043945 87.498 -145.9892
16254.986328 87.312 -147.6164
16372.777344 87.096 -149.2623
16491.421875 86.854 -150.8851
16610.923828 86.586 -152.4297
16731.294922 86.299 -153.8858
16852.535156 85.998 -155.2127
16974.656250 85.694 -156.4468
17097.662109 85.395 -157.5890
17221.558594 85.105 -158.7062
17346.353516 84.833 -159.8464
17472.052734 84.575 -161.0672
17598.662109 84.329 -162.4354
17726.189453 84.085 -163.9715
17854.640625 83.837 -165.7349
17984.021484 83.565 -167.6758
18114.341797 83.251 -169.8118
18245.605469 82.882 -171.9986
18377.820312 82.437 -174.1476
18510.994141 81.919 -176.1074
18645.132812 81.322 -177.7383
18780.242188 80.651 -178.9151
18916.332031 79.899 -179.4768
19053.408203 79.095 -179.3924
19191.476562 78.254 -178.5340
19330.546875 77.414 -177.0318
19470.623047 76.615 -174.9283
19611.714844 75.871 -172.3657
19753.830078 75.208 -169.4555
19896.974609 74.642 -166.3324
