* Measurement data measured by REW V5.20.13
* Source: C:\Users\kurin\Desktop\Targets and Curves\Resolve\Img\Files\Sennheiser_HD800S_Resolve.txt
* Format: Comma/Tab/Space delimited data
* Dated: Aug 14, 2023 7:51:27 PM
* REW Settings:
*  C-weighting compensation: Off
*  Target level: 75.0 dB
* Note: ; Measurement imported from C:\Users\kurin\Desktop\Targets and Curves\Resolve\Img\Files\Sennheiser_HD800S_Resolve.txt Format: Comma/Tab/Space delimited data 623 values loaded, 5 Hz to 39,792 Hz log spaced 
* Measurement: Sennheiser_HD800S_Resolve
* Smoothing: 1/48 octave
* Frequency Step: 1/96 octave
* Start Frequency: 5.000 Hz
*
* Freq(Hz) SPL(dB) Phase(degrees)
5.000000 79.715 20.1050
5.036232 79.721 20.1046
5.072727 79.728 20.1040
5.109486 79.737 20.1029
5.146511 79.748 20.1020
5.183805 79.760 20.1019
5.221369 79.774 20.1020
5.259205 79.788 20.1019
5.297316 79.802 20.1020
5.335702 79.815 20.1029
5.374367 79.829 20.1040
5.413311 79.843 20.1045
5.452538 79.857 20.1050
5.492050 79.871 20.1059
5.531847 79.885 20.1070
5.571934 79.899 20.1080
5.612310 79.913 20.1090
5.652979 79.927 20.1099
5.693943 79.941 20.1110
5.735204 79.954 20.1125
5.776763 79.968 20.1140
5.818624 79.982 20.1151
5.860788 79.996 20.1160
5.903258 80.010 20.1169
5.946035 80.024 20.1180
5.989123 80.038 20.1195
6.032523 80.052 20.1210
6.076237 80.066 20.1220
6.120268 80.080 20.1230
6.164618 80.094 20.1245
6.209289 80.108 20.1260
6.254284 80.121 20.1270
6.299605 80.135 20.1280
6.345255 80.149 20.1294
6.391235 80.163 20.1310
6.437549 80.177 20.1325
6.484198 80.191 20.1340
6.531185 80.205 20.1355
6.578513 80.219 20.1370
6.626183 80.233 20.1385
6.674199 80.247 20.1400
6.722563 80.260 20.1415
6.771278 80.274 20.1430
6.820345 80.288 20.1445
6.869768 80.302 20.1460
6.919549 80.316 20.1475
6.969691 80.330 20.1490
7.020196 80.344 20.1504
7.071068 80.358 20.1520
7.122308 80.372 20.1540
7.173919 80.386 20.1560
7.225904 80.399 20.1575
7.278266 80.413 20.1590
7.331007 80.427 20.1610
7.384131 80.441 20.1630
7.437639 80.455 20.1645
7.491535 80.469 20.1660
7.545822 80.483 20.1679
7.600502 80.497 20.1700
7.655579 80.511 20.1720
7.711054 80.525 20.1740
7.766932 80.539 20.1760
7.823214 80.553 20.1780
7.879904 80.566 20.1800
7.937005 80.580 20.1820
7.994520 80.594 20.1840
8.052452 80.608 20.1860
8.110803 80.622 20.1879
8.169578 80.636 20.1900
8.228777 80.650 20.1925
8.288406 80.664 20.1950
8.348468 80.678 20.1970
8.408964 80.692 20.1990
8.469899 80.705 20.2015
8.531276 80.719 20.2040
8.593097 80.733 20.2060
8.655366 80.747 20.2080
8.718086 80.761 20.2104
8.781260 80.775 20.2130
8.844893 80.789 20.2155
8.908987 80.803 20.2180
8.973545 80.817 20.2204
9.038571 80.831 20.2230
9.104069 80.844 20.2260
9.170040 80.858 20.2290
9.236490 80.872 20.2315
9.303422 80.886 20.2340
9.370838 80.900 20.2370
9.438744 80.914 20.2400
9.507140 80.928 20.2425
9.576033 80.942 20.2450
9.645425 80.956 20.2479
9.715320 80.970 20.2510
9.785721 80.984 20.2539
9.856632 80.998 20.2570
9.928058 81.011 20.2605
10.000000 81.025 20.2640
10.072464 81.039 20.2670
10.145453 81.053 20.2700
10.218971 81.067 20.2734
10.293022 81.081 20.2770
10.367610 81.095 20.2805
10.442738 81.109 20.2840
10.518411 81.123 20.2875
10.594631 81.137 20.2910
10.671404 81.150 20.2945
10.748734 81.164 20.2980
10.826623 81.178 20.3014
10.905077 81.192 20.3050
10.984100 81.206 20.3089
11.063695 81.220 20.3130
11.143867 81.234 20.3169
11.224621 81.248 20.3210
11.305959 81.262 20.3255
11.387886 81.276 20.3300
11.470407 81.290 20.3340
11.553527 81.304 20.3380
11.637249 81.317 20.3424
11.721577 81.331 20.3470
11.806517 81.345 20.3514
11.892071 81.359 20.3560
11.978246 81.373 20.3609
12.065045 81.387 20.3660
12.152473 81.401 20.3710
12.240536 81.415 20.3760
12.329235 81.429 20.3809
12.418578 81.443 20.3860
12.508568 81.456 20.3914
12.599211 81.470 20.3970
12.690510 81.484 20.4025
12.782471 81.498 20.4080
12.875097 81.512 20.4134
12.968395 81.526 20.4190
13.062370 81.540 20.4249
13.157025 81.554 20.4310
13.252366 81.568 20.4374
13.348398 81.582 20.4440
13.445127 81.595 20.4505
13.542556 81.609 20.4570
13.640691 81.623 20.4634
13.739536 81.637 20.4700
13.839099 81.651 20.4774
13.939383 81.665 20.4850
14.040393 81.679 20.4925
14.142136 81.693 20.5000
14.244616 81.707 20.5074
14.347837 81.721 20.5150
14.451808 81.735 20.5234
14.556532 81.749 20.5320
14.662014 81.762 20.5404
14.768262 81.776 20.5490
14.875278 81.790 20.5579
14.983070 81.804 20.5670
15.091644 81.818 20.5764
15.201005 81.832 20.5860
15.311157 81.846 20.5959
15.422109 81.860 20.6060
15.533863 81.874 20.6164
15.646428 81.888 20.6270
15.759809 81.901 20.6378
15.874010 81.915 20.6490
15.989040 81.929 20.6607
16.104904 81.943 20.6730
16.221605 81.957 20.6858
16.339155 81.971 20.6990
16.457554 81.985 20.7122
16.576813 81.999 20.7260
16.696936 82.013 20.7407
16.817928 82.027 20.7560
16.939798 82.040 20.7717
17.062551 82.054 20.7880
17.186193 82.068 20.8051
17.310732 82.082 20.8230
17.436172 82.096 20.8416
17.562521 82.110 20.8610
17.689787 82.124 20.8814
17.817974 82.138 20.9030
17.947090 82.152 20.9263
18.077143 82.166 20.9510
18.208138 82.180 20.9766
18.340080 82.194 21.0040
18.472980 82.207 21.0338
18.606844 82.221 21.0660
18.741676 82.235 21.1002
18.877487 82.249 21.1380
19.014280 82.263 21.1808
19.152065 82.277 21.2289
19.290850 82.291 21.2828
19.430639 82.305 21.3430
19.571442 82.319 21.4112
19.713264 82.335 21.4849
19.856115 82.352 21.5639
20.000000 82.373 21.6429
20.144928 82.399 21.7179
20.290907 82.428 21.7849
20.437943 82.461 21.8390
20.586044 82.496 21.8790
20.735220 82.533 21.9026
20.885475 82.570 21.9090
21.036821 82.607 21.8961
21.189262 82.642 21.8651
21.342808 82.675 21.8149
21.497467 82.705 21.7501
21.653246 82.732 21.6751
21.810154 82.758 21.5891
21.968201 82.785 21.4916
22.127390 82.809 21.3861
22.287735 82.829 21.2749
22.449242 82.845 21.1621
22.611917 82.859 21.0509
22.775772 82.869 20.9471
22.940815 82.872 20.8546
23.107054 82.869 20.7821
23.274498 82.860 20.7394
23.443153 82.848 20.7270
23.613033 82.837 20.7498
23.784142 82.827 20.8039
23.956491 82.819 20.8897
24.130091 82.817 20.9989
24.304947 82.826 21.1264
24.481071 82.842 21.2628
24.658470 82.864 21.3986
24.837156 82.892 21.5288
25.017136 82.924 21.6466
25.198421 82.959 21.7479
25.381020 82.997 21.8256
25.564941 83.036 21.8820
25.750195 83.073 21.9154
25.936790 83.110 21.9310
26.124741 83.147 21.9326
26.314051 83.184 21.9220
26.504732 83.218 21.9015
26.696796 83.250 21.8730
26.890253 83.282 21.8385
27.085112 83.312 21.8000
27.281382 83.339 21.7610
27.479073 83.367 21.7191
27.678198 83.398 21.6749
27.878765 83.431 21.6231
28.080786 83.467 21.5594
28.284271 83.505 21.4801
28.489231 83.546 21.3800
28.695675 83.587 21.2592
28.903616 83.628 21.1146
29.113064 83.667 20.9502
29.324028 83.700 20.7670
29.536524 83.727 20.5712
29.750557 83.748 20.3675
29.966141 83.764 20.1622
30.183289 83.773 19.9622
30.402010 83.778 19.7712
30.622314 83.780 19.5958
30.844217 83.781 19.4342
31.067726 83.781 19.2887
31.292856 83.783 19.1532
31.519617 83.788 19.0246
31.748020 83.795 18.8962
31.978081 83.806 18.7592
32.209808 83.817 18.6172
32.443211 83.825 18.4682
32.678310 83.830 18.3202
32.915108 83.829 18.1771
33.153625 83.820 18.0491
33.393871 83.801 17.9449
33.635857 83.775 17.8731
33.879597 83.742 17.8458
34.125103 83.708 17.8610
34.372387 83.680 17.9256
34.621464 83.660 18.0248
34.872345 83.652 18.1516
35.125042 83.656 18.2898
35.379574 83.674 18.4258
35.635948 83.703 18.5449
35.894180 83.741 18.6286
36.154285 83.783 18.6750
36.416275 83.825 18.6727
36.680161 83.865 18.6311
36.945961 83.898 18.5527
37.213688 83.926 18.4462
37.483353 83.947 18.3188
37.754974 83.963 18.1772
38.028561 83.972 18.0285
38.304131 83.977 17.8782
38.581699 83.979 17.7343
38.861279 83.979 17.5962
39.142883 83.979 17.4658
39.426529 83.978 17.3442
39.712231 83.973 17.2321
40.000000 83.966 17.1321
40.289856 83.955 17.0483
40.581814 83.943 16.9771
40.875885 83.931 16.9164
41.172089 83.919 16.8661
41.470440 83.906 16.8261
41.770950 83.894 16.7940
42.073643 83.886 16.7683
42.378525 83.880 16.7470
42.685616 83.873 16.7270
42.994934 83.865 16.7100
43.306492 83.853 16.6960
43.620308 83.839 16.6870
43.936401 83.822 16.6834
44.254780 83.803 16.6900
44.575470 83.780 16.7110
44.898483 83.755 16.7489
45.223835 83.731 16.8067
45.551544 83.705 16.8879
45.881630 83.676 16.9953
46.214108 83.644 17.1338
46.548996 83.611 17.3089
46.886307 83.578 17.5216
47.226067 83.545 17.7734
47.568283 83.513 18.0675
47.912983 83.481 18.4098
48.260181 83.455 18.7933
48.609894 83.439 19.2177
48.962143 83.432 19.6693
49.316940 83.437 20.1382
49.674313 83.453 20.6132
50.034271 83.482 21.0835
50.396843 83.521 21.5383
50.762039 83.572 21.9638
51.129883 83.629 22.3594
51.500389 83.689 22.7181
51.873581 83.751 23.0445
52.249481 83.812 23.3400
52.628101 83.874 23.6066
53.009464 83.935 23.8463
53.393593 83.997 24.0607
53.780506 84.062 24.2526
54.170223 84.130 24.4197
54.562763 84.201 24.5629
54.958145 84.276 24.6758
55.356396 84.357 24.7530
55.757530 84.440 24.7940
56.161572 84.520 24.7948
56.568542 84.598 24.7611
56.978462 84.671 24.6958
57.391350 84.741 24.6022
57.807232 84.807 24.4826
58.226128 84.868 24.3423
58.648056 84.923 24.1861
59.073048 84.975 24.0173
59.501114 85.026 23.8402
59.932281 85.074 23.6563
60.366577 85.119 23.4679
60.804020 85.161 23.2773
61.244629 85.199 23.0879
61.688435 85.235 22.8993
62.135452 85.268 22.7119
62.585712 85.299 22.5273
63.039234 85.326 22.3476
63.496040 85.352 22.1723
63.956161 85.380 22.0028
64.419617 85.408 21.8363
64.886421 85.435 21.6702
65.356621 85.462 21.5053
65.830215 85.487 21.3419
66.307251 85.512 21.1793
66.787743 85.536 21.0174
67.271713 85.559 20.8553
67.759193 85.581 20.6911
68.250206 85.602 20.5283
68.744774 85.619 20.3702
69.242928 85.635 20.2163
69.744690 85.653 20.0683
70.250084 85.672 19.9223
70.759148 85.691 19.7737
71.271896 85.708 19.6263
71.788361 85.722 19.4833
72.308571 85.736 19.3423
72.832550 85.753 19.2035
73.360321 85.771 19.0623
73.891922 85.790 18.9121
74.427376 85.807 18.7583
74.966705 85.821 18.6037
75.509949 85.833 18.4493
76.057121 85.846 18.2968
76.608261 85.857 18.1463
77.163399 85.864 17.9969
77.722557 85.868 17.8533
78.285767 85.870 17.7191
78.853058 85.870 17.5962
79.424461 85.871 17.4878
80.000000 85.871 17.3932
80.579712 85.871 17.3124
81.163628 85.871 17.2461
81.751770 85.871 17.1964
82.344177 85.873 17.1591
82.940880 85.877 17.1317
83.541901 85.884 17.1110
84.147285 85.894 17.0940
84.757050 85.908 17.0770
85.371231 85.924 17.0572
85.989868 85.944 17.0301
86.612984 85.968 16.9905
87.240616 85.993 16.9371
87.872803 86.018 16.8669
88.509560 86.043 16.7802
89.150940 86.069 16.6749
89.796967 86.093 16.5553
90.447670 86.112 16.4232
91.103088 86.129 16.2833
91.763260 86.143 16.1398
92.428215 86.155 15.9953
93.097992 86.162 15.8527
93.772614 86.167 15.7153
94.452133 86.169 15.5868
95.136566 86.169 15.4692
95.825966 86.169 15.3667
96.520363 86.169 15.2772
97.219788 86.169 15.2002
97.924286 86.170 15.1351
98.633881 86.171 15.0827
99.348625 86.173 15.0391
100.068542 86.178 15.0016
100.793686 86.186 14.9671
101.524078 86.197 14.9314
102.259766 86.210 14.8941
103.000778 86.222 14.8540
103.747162 86.236 14.8091
104.498962 86.252 14.7578
105.256203 86.270 14.6971
106.018929 86.288 14.6215
106.787186 86.305 14.5372
107.561012 86.318 14.4478
108.340446 86.330 14.3552
109.125526 86.343 14.2622
109.916290 86.354 14.1692
110.712791 86.362 14.0767
111.515060 86.368 13.9862
112.323143 86.373 13.8998
113.137085 86.379 13.8152
113.956924 86.389 13.7313
114.782700 86.401 13.6462
115.614464 86.413 13.5573
116.452255 86.425 13.4652
117.296112 86.437 13.3695
118.146095 86.448 13.2702
119.002228 86.457 13.1659
119.864563 86.463 13.0603
120.733154 86.466 12.9558
121.608040 86.467 12.8552
122.489258 86.468 12.7619
123.376869 86.468 12.6762
124.270905 86.468 12.5997
125.171425 86.468 12.5321
126.078468 86.468 12.4742
126.992081 86.468 12.4251
127.912323 86.468 12.3848
128.839233 86.469 12.3511
129.772842 86.472 12.3224
130.713242 86.478 12.2961
131.660431 86.487 12.2691
132.614502 86.497 12.2401
133.575485 86.509 12.2062
134.543427 86.521 12.1681
135.518387 86.534 12.1263
136.500412 86.547 12.0781
137.489548 86.561 12.0209
138.485855 86.575 11.9542
139.489380 86.590 11.8755
140.500168 86.604 11.7882
141.518295 86.617 11.6946
142.543793 86.629 11.5953
143.576721 86.642 11.4914
144.617142 86.653 11.3832
145.665100 86.660 11.2701
146.720642 86.664 11.1563
147.783844 86.666 11.0457
148.854752 86.666 10.9393
149.933411 86.667 10.8392
151.019897 86.667 10.7452
152.114243 86.667 10.6578
153.216522 86.667 10.5762
154.326797 86.667 10.5003
155.445114 86.667 10.4292
156.571533 86.667 10.3621
157.706116 86.667 10.2991
158.848923 86.667 10.2398
160.000000 86.667 10.1851
161.159424 86.667 10.1365
162.327255 86.667 10.0931
163.503540 86.667 10.0547
164.688354 86.667 10.0211
165.881760 86.667 9.9928
167.083801 86.669 9.9671
168.294571 86.674 9.9428
169.514099 86.681 9.9151
170.742462 86.692 9.8781
171.979736 86.705 9.8331
173.225967 86.717 9.7794
174.481232 86.729 9.7172
175.745605 86.741 9.6461
177.019119 86.752 9.5672
178.301880 86.759 9.4796
179.593933 86.764 9.3882
180.895340 86.766 9.2973
182.206177 86.766 9.2082
183.526520 86.766 9.1236
184.856430 86.766 9.0432
186.195984 86.766 8.9675
187.545227 86.766 8.8962
188.904266 86.766 8.8290
190.273132 86.766 8.7652
191.651932 86.766 8.7035
193.040726 86.766 8.6442
194.439575 86.766 8.5867
195.848572 86.766 8.5312
197.267761 86.766 8.4773
198.697250 86.766 8.4251
200.137085 86.766 8.3744
201.587372 86.766 8.3251
203.048157 86.766 8.2769
204.519531 86.766 8.2301
206.001556 86.766 8.1850
207.494324 86.766 8.1411
208.997925 86.766 8.0980
210.512405 86.766 8.0561
212.037857 86.766 8.0158
213.574371 86.766 7.9771
215.122025 86.766 7.9398
216.680893 86.766 7.9041
218.251053 86.766 7.8697
219.832581 86.766 7.8371
221.425583 86.766 7.8062
223.030121 86.766 7.7781
224.646286 86.766 7.7539
226.274170 86.766 7.7330
227.913849 86.766 7.7155
229.565399 86.767 7.7010
231.228928 86.767 7.6908
232.904510 86.768 7.6810
234.592224 86.773 7.6697
236.292191 86.781 7.6521
238.004456 86.792 7.6223
239.729126 86.804 7.5811
241.466309 86.816 7.5270
243.216080 86.828 7.4612
244.978516 86.840 7.3829
246.753738 86.849 7.2963
248.541809 86.852 7.2016
250.342850 86.849 7.1093
252.156937 86.840 7.0293
253.984161 86.828 6.9622
255.824646 86.817 6.9122
257.678467 86.805 6.8781
259.545685 86.792 6.8615
261.426483 86.782 6.8580
263.320862 86.778 6.8674
265.229004 86.780 6.8790
267.150970 86.788 6.8825
269.086853 86.799 6.8760
271.036774 86.811 6.8535
273.000824 86.823 6.8171
274.979095 86.835 6.7654
276.971710 86.844 6.7032
278.978760 86.848 6.6318
281.000336 86.847 6.5602
283.036591 86.839 6.4977
285.087585 86.828 6.4451
287.153442 86.817 6.4082
289.234283 86.806 6.3821
291.330200 86.798 6.3655
293.441284 86.795 6.3530
295.567688 86.799 6.3405
297.709503 86.806 6.3231
299.866821 86.816 6.2935
302.039795 86.826 6.2541
304.228485 86.833 6.2028
306.433044 86.837 6.1452
308.653595 86.834 6.0848
310.890228 86.826 6.0262
313.143066 86.816 5.9743
315.412231 86.804 5.9311
317.697845 86.792 5.9010
320.000000 86.781 5.8820
322.318848 86.773 5.8754
324.654510 86.768 5.8760
327.007080 86.767 5.8801
329.376709 86.767 5.8850
331.763519 86.766 5.8865
334.167603 86.766 5.8850
336.589142 86.766 5.8796
339.028198 86.766 5.8700
341.484924 86.766 5.8557
343.959473 86.766 5.8371
346.451935 86.766 5.8141
348.962463 86.766 5.7871
351.491211 86.766 5.7555
354.038239 86.764 5.7221
356.603760 86.761 5.6880
359.187866 86.756 5.6571
361.790680 86.747 5.6332
364.412354 86.736 5.6170
367.053040 86.724 5.6108
369.712860 86.712 5.6140
372.391968 86.699 5.6269
375.090454 86.688 5.6489
377.808533 86.679 5.6806
380.546265 86.673 5.7179
383.303864 86.670 5.7577
386.081451 86.668 5.7969
388.879150 86.667 5.8312
391.697144 86.667 5.8609
394.535522 86.667 5.8844
397.394501 86.666 5.9030
400.274170 86.665 5.9159
403.174744 86.662 5.9280
406.096313 86.656 5.9426
409.039062 86.648 5.9629
412.003113 86.637 5.9933
414.988647 86.624 6.0339
417.995850 86.612 6.0860
421.024811 86.601 6.1498
424.075714 86.589 6.2260
427.148743 86.579 6.3137
430.244049 86.573 6.4136
433.361786 86.569 6.5216
436.502106 86.568 6.6343
439.665161 86.568 6.7506
442.851166 86.568 6.8687
446.060242 86.569 6.9876
449.292572 86.572 7.1069
452.548340 86.578 7.2236
455.827698 86.587 7.3343
459.130798 86.598 7.4397
462.457855 86.610 7.5396
465.809021 86.622 7.6337
469.184448 86.635 7.7218
472.584381 86.648 7.8028
476.008911 86.661 7.8756
479.458252 86.675 7.9398
482.932617 86.690 7.9930
486.432159 86.704 8.0399
489.957031 86.717 8.0841
493.507477 86.729 8.1259
497.083618 86.742 8.1663
500.685699 86.753 8.2059
504.313873 86.761 8.2451
507.968323 86.768 8.2849
511.649292 86.775 8.3267
515.356934 86.784 8.3699
519.091370 86.796 8.4140
522.852966 86.809 8.4589
526.641724 86.821 8.5038
530.458008 86.833 8.5498
534.301941 86.845 8.5982
538.173706 86.856 8.6468
542.073547 86.867 8.6938
546.001648 86.878 8.7398
549.958191 86.891 8.7847
553.943420 86.905 8.8289
557.957520 86.920 8.8737
562.000671 86.936 8.9159
566.073181 86.956 8.9529
570.175171 86.977 8.9829
574.306885 86.996 9.0023
578.468567 87.015 9.0130
582.660400 87.034 9.0164
586.882568 87.053 9.0110
591.135376 87.074 8.9948
595.419006 87.094 8.9711
599.733643 87.110 8.9418
604.079590 87.125 8.9101
608.456970 87.139 8.8797
612.866089 87.150 8.8511
617.307190 87.158 8.8252
621.780457 87.164 8.8041
626.286133 87.170 8.7912
630.824463 87.178 8.7830
635.395691 87.189 8.7774
640.000000 87.202 8.7740
644.637695 87.215 8.7726
649.309021 87.228 8.7710
654.014160 87.243 8.7677
658.753418 87.258 8.7600
663.527039 87.274 8.7437
668.335205 87.289 8.7221
673.178284 87.302 8.6964
678.056396 87.314 8.6691
682.969849 87.327 8.6435
687.918945 87.339 8.6181
692.903870 87.350 8.5928
697.924927 87.361 8.5671
702.982422 87.372 8.5404
708.076477 87.383 8.5131
713.207520 87.395 8.4850
718.375732 87.408 8.4571
723.581360 87.420 8.4302
728.824707 87.432 8.4041
734.106079 87.444 8.3790
739.425720 87.455 8.3541
744.783936 87.465 8.3290
750.180908 87.476 8.3031
755.617065 87.489 8.2750
761.092529 87.502 8.2461
766.607727 87.514 8.2183
772.162903 87.527 8.1891
777.758301 87.543 8.1576
783.394287 87.560 8.1211
789.071045 87.577 8.0760
794.789001 87.593 8.0252
800.548340 87.607 7.9703
806.349487 87.620 7.9122
812.192627 87.634 7.8535
818.078125 87.649 7.7912
824.006226 87.664 7.7228
829.977295 87.679 7.6493
835.991699 87.693 7.5704
842.049622 87.707 7.4873
848.151428 87.720 7.4024
854.297485 87.734 7.3123
860.488098 87.750 7.2157
866.723572 87.766 7.1094
873.004211 87.782 6.9887
879.330322 87.798 6.8565
885.702332 87.811 6.7139
892.120483 87.823 6.5616
898.585144 87.835 6.4006
905.096680 87.846 6.2306
911.655396 87.853 6.0492
918.261597 87.856 5.8637
924.915710 87.853 5.6798
931.618042 87.846 5.5006
938.368896 87.835 5.3320
945.168762 87.823 5.1716
952.017822 87.811 5.0194
958.916504 87.799 4.8735
965.865234 87.786 4.7321
972.864319 87.774 4.5945
979.914062 87.763 4.4604
987.014954 87.752 4.3275
994.167236 87.741 4.1929
1001.371399 87.727 4.0585
1008.627747 87.709 3.9231
1015.936646 87.687 3.7935
1023.298584 87.658 3.6749
1030.713867 87.625 3.5713
1038.182739 87.589 3.4889
1045.705933 87.551 3.4272
1053.283447 87.512 3.3882
1060.916016 87.473 3.3710
1068.603882 87.436 3.3752
1076.347412 87.400 3.4018
1084.147095 87.364 3.4519
1092.003296 87.327 3.5257
1099.916382 87.290 3.6243
1107.886841 87.253 3.7464
1115.915039 87.216 3.8918
1124.001343 87.180 4.0583
1132.146362 87.148 4.2451
1140.350342 87.120 4.4482
1148.613770 87.098 4.6658
1156.937134 87.082 4.8910
1165.320801 87.072 5.1179
1173.765137 87.067 5.3420
1182.270752 87.065 5.5569
1190.838013 87.065 5.7622
1199.467285 87.065 5.9551
1208.159180 87.065 6.1373
1216.913940 87.065 6.3092
1225.732178 87.065 6.4724
1234.614380 87.065 6.6278
1243.560913 87.064 6.7774
1252.572266 87.064 6.9224
1261.648926 87.062 7.0664
1270.791382 87.058 7.2117
1280.000000 87.051 7.3634
1289.275391 87.040 7.5276
1298.618042 87.027 7.7042
1308.028320 87.015 7.8947
1317.506836 87.003 8.1001
1327.054077 86.991 8.3222
1336.670410 86.980 8.5600
1346.356567 86.973 8.8148
1356.112793 86.968 9.0810
1365.939697 86.967 9.3549
1375.837891 86.968 9.6328
1385.807739 86.972 9.9105
1395.849854 86.978 10.1869
1405.964844 86.987 10.4577
1416.152954 86.996 10.7290
1426.415039 87.001 11.0035
1436.751465 87.003 11.2879
1447.162720 87.004 11.5884
1457.649414 87.003 11.9087
1468.212158 86.998 12.2518
1478.851440 86.991 12.6255
1489.567871 86.984 13.0394
1500.361816 86.980 13.4902
1511.234131 86.983 13.9809
1522.185059 86.994 14.5016
1533.215454 87.015 15.0466
1544.325806 87.045 15.6065
1555.516602 87.086 16.1732
1566.788574 87.137 16.7366
1578.142090 87.198 17.2853
1589.578003 87.268 17.8148
1601.096680 87.343 18.3178
1612.698975 87.424 18.7911
1624.385254 87.511 19.2292
1636.156250 87.604 19.6313
1648.012451 87.699 19.9932
1659.954590 87.796 20.3199
1671.983398 87.893 20.6136
1684.099243 87.992 20.8780
1696.302856 88.089 21.1164
1708.594971 88.186 21.3311
1720.976196 88.282 21.5249
1733.447144 88.379 21.6993
1746.008423 88.475 21.8570
1758.660645 88.574 21.9975
1771.404663 88.674 22.1229
1784.240967 88.779 22.2276
1797.170288 88.888 22.3090
1810.193359 89.001 22.3599
1823.310791 89.118 22.3730
1836.523193 89.238 22.3462
1849.831421 89.358 22.2748
1863.236084 89.478 22.1596
1876.737793 89.599 21.9984
1890.337524 89.716 21.7950
1904.035645 89.829 21.5495
1917.833008 89.935 21.2702
1931.730469 90.032 20.9633
1945.728638 90.123 20.6354
1959.828125 90.208 20.2929
1974.029907 90.286 19.9425
1988.334473 90.356 19.5913
2002.742798 90.420 19.2444
2017.255493 90.480 18.9095
2031.873291 90.538 18.5863
2046.597168 90.592 18.2766
2061.427734 90.645 17.9813
2076.365479 90.696 17.7016
2091.411865 90.746 17.4381
2106.566895 90.796 17.1921
2121.832031 90.847 16.9619
2137.207764 90.897 16.7458
2152.694824 90.948 16.5448
2168.294189 90.998 16.3604
2184.006592 91.050 16.1888
2199.832764 91.106 16.0282
2215.773682 91.167 15.8736
2231.830078 91.232 15.7208
2248.002686 91.301 15.5657
2264.292725 91.374 15.4056
2280.700684 91.453 15.2318
2297.227539 91.539 15.0369
2313.874268 91.631 14.8140
2330.641602 91.725 14.5544
2347.530273 91.823 14.2564
2364.541504 91.923 13.9146
2381.676025 92.024 13.5308
2398.934570 92.123 13.1037
2416.318359 92.219 12.6372
2433.827881 92.308 12.1322
2451.464355 92.391 11.5973
2469.228760 92.466 11.0386
2487.121826 92.535 10.4635
2505.144531 92.594 9.8789
2523.297852 92.647 9.2927
2541.582764 92.694 8.7141
2560.000000 92.736 8.1465
2578.550781 92.772 7.5958
2597.236084 92.806 7.0624
2616.056641 92.838 6.5497
2635.013672 92.870 6.0551
2654.108154 92.902 5.5788
2673.340820 92.936 5.1150
2692.713135 92.974 4.6604
2712.225586 93.017 4.2071
2731.879395 93.063 3.7481
2751.675781 93.113 3.2772
2771.615479 93.166 2.7880
2791.699707 93.221 2.2743
2811.929688 93.278 1.7282
2832.305908 93.336 1.1488
2852.830078 93.392 0.5311
2873.502930 93.444 -0.1201
2894.325439 93.490 -0.8046
2915.298828 93.528 -1.5127
2936.424316 93.556 -2.2392
2957.702881 93.573 -2.9698
2979.135742 93.575 -3.6943
3000.723633 93.563 -4.3960
3022.468262 93.537 -5.0598
3044.370117 93.499 -5.6703
3066.430908 93.448 -6.2099
3088.651611 93.388 -6.6711
3111.033203 93.325 -7.0399
3133.577148 93.263 -7.3189
3156.284180 93.206 -7.5022
3179.156006 93.157 -7.6007
3202.193359 93.121 -7.6175
3225.397949 93.099 -7.5704
3248.770508 93.096 -7.4724
3272.312500 93.110 -7.3416
3296.024902 93.141 -7.1957
3319.909180 93.188 -7.0497
3343.966797 93.251 -6.9205
3368.198486 93.328 -6.8194
3392.605713 93.417 -6.7595
3417.189941 93.519 -6.7509
3441.952393 93.635 -6.8055
3466.894287 93.762 -6.9313
3492.016846 93.899 -7.1390
3517.321289 94.043 -7.4324
3542.809326 94.194 -7.8179
3568.481934 94.347 -8.2976
3594.340576 94.502 -8.8766
3620.386719 94.656 -9.5526
3646.621582 94.807 -10.3261
3673.046387 94.953 -11.1937
3699.662842 95.094 -12.1535
3726.472168 95.226 -13.2000
3753.475586 95.349 -14.3299
3780.675049 95.462 -15.5344
3808.071289 95.561 -16.8060
3835.666016 95.648 -18.1375
3863.460938 95.721 -19.5240
3891.457275 95.779 -20.9521
3919.656250 95.816 -22.4126
3948.059814 95.833 -23.8882
3976.668945 95.829 -25.3626
4005.485596 95.804 -26.8239
4034.510986 95.761 -28.2591
4063.746582 95.697 -29.6545
4093.194336 95.613 -30.9970
4122.855469 95.513 -32.2720
4152.730957 95.397 -33.4620
4182.823730 95.270 -34.5620
4213.133789 95.137 -35.5621
4243.664062 94.997 -36.4600
4274.415527 94.850 -37.2499
4305.389648 94.700 -37.9319
4336.588379 94.551 -38.5011
4368.013184 94.406 -38.9660
4399.665527 94.268 -39.3312
4431.547363 94.138 -39.6039
4463.660156 94.016 -39.7917
4496.005371 93.904 -39.8987
4528.585449 93.800 -39.9282
4561.401367 93.706 -39.8893
4594.455078 93.626 -39.7902
4627.748535 93.556 -39.6369
4661.283203 93.495 -39.4362
4695.060547 93.446 -39.1933
4729.083008 93.412 -38.9106
4763.352051 93.394 -38.6025
4797.869141 93.398 -38.2797
4832.636719 93.420 -37.9566
4867.655762 93.459 -37.6463
4902.928711 93.517 -37.3633
4938.457520 93.593 -37.1203
4974.243652 93.687 -36.9357
5010.289062 93.799 -36.8269
5046.595703 93.927 -36.8098
5083.165527 94.070 -36.9017
5120.000000 94.227 -37.1166
5157.101562 94.399 -37.4725
5194.472168 94.580 -37.9752
5232.113281 94.765 -38.6401
5270.027344 94.948 -39.4555
5308.216309 95.123 -40.4242
5346.681641 95.281 -41.5184
5385.426270 95.416 -42.7240
5424.451172 95.522 -44.0026
5463.758789 95.590 -45.3255
5503.351562 95.622 -46.6496
5543.230957 95.614 -47.9321
5583.399414 95.575 -49.1433
5623.859375 95.507 -50.2437
5664.611816 95.421 -51.2196
5705.660156 95.329 -52.0381
5747.005859 95.243 -52.7169
5788.650879 95.177 -53.2441
5830.597656 95.141 -53.6750
5872.848633 95.151 -54.0397
5915.405762 95.202 -54.4020
5958.271484 95.295 -54.8221
6001.447266 95.423 -55.3420
6044.936523 95.582 -56.0193
6088.740234 95.759 -56.8683
6132.861816 95.945 -57.9281
6177.303223 96.127 -59.1802
6222.066406 96.292 -60.6311
6267.154297 96.433 -62.2445
6312.568359 96.542 -63.9997
6358.312012 96.614 -65.8565
6404.386719 96.644 -67.7809
6450.795898 96.632 -69.7329
6497.541016 96.574 -71.6743
6544.625000 96.475 -73.5657
6592.049805 96.338 -75.3655
6639.818359 96.169 -77.0427
6687.933594 95.970 -78.5600
6736.396973 95.751 -79.8956
6785.211426 95.520 -81.0175
6834.379883 95.284 -81.9199
6883.904785 95.051 -82.5821
6933.788574 94.829 -83.0183
6984.033691 94.627 -83.2238
7034.642578 94.453 -83.2354
7085.618652 94.317 -83.0669
7136.963867 94.226 -82.7826
7188.681152 94.190 -82.4272
7240.773438 94.209 -82.0746
7293.243164 94.287 -81.7933
7346.092773 94.418 -81.6453
7399.325684 94.602 -81.7045
7452.944336 94.826 -82.0038
7506.951172 95.083 -82.6032
7561.350098 95.358 -83.4946
7616.142578 95.634 -84.7018
7671.332031 95.900 -86.1886
7726.921875 96.138 -87.9409
7782.914551 96.344 -89.9153
7839.312500 96.508 -92.0779
7896.119629 96.627 -94.3875
7953.337891 96.695 -96.8048
8010.971191 96.715 -99.2898
8069.021973 96.686 -101.7991
8127.493164 96.615 -104.3018
8186.388672 96.507 -106.7572
8245.710938 96.369 -109.1516
8305.461914 96.206 -111.4593
8365.647461 96.026 -113.6765
8426.267578 95.835 -115.7864
8487.328125 95.637 -117.8016
8548.831055 95.438 -119.7241
8610.779297 95.238 -121.5684
8673.176758 95.042 -123.3451
8736.026367 94.847 -125.0678
8799.331055 94.651 -126.7533
8863.094727 94.451 -128.4034
8927.320312 94.244 -130.0294
8992.010742 94.025 -131.6187
9057.170898 93.789 -133.1716
9122.802734 93.532 -134.6594
9188.910156 93.251 -136.0683
9255.497070 92.942 -137.3525
9322.566406 92.599 -138.4818
9390.121094 92.224 -139.3949
9458.166016 91.815 -140.0383
9526.704102 91.383 -140.3563
9595.738281 90.930 -140.2778
9665.273438 90.484 -139.7947
9735.311523 90.064 -138.8394
9805.857422 89.709 -137.5200
9876.915039 89.457 -135.8506
9948.487305 89.324 -134.0478
10020.578125 89.346 -132.2721
10093.191406 89.495 -130.7106
10166.331055 89.773 -129.5905
10240.000000 90.132 -128.9519
10314.203125 90.532 -128.9352
10388.944336 90.944 -129.4642
10464.226562 91.328 -130.5357
10540.054688 91.678 -132.0666
10616.432617 91.977 -133.9951
10693.363281 92.220 -136.2557
10770.852539 92.395 -138.7820
10848.902344 92.504 -141.5167
10927.517578 92.543 -144.3960
11006.703125 92.518 -147.3727
11086.461914 92.432 -150.3918
11166.798828 92.288 -153.4143
11247.718750 92.087 -156.3939
11329.223633 91.833 -159.2983
11411.320312 91.533 -162.0949
11494.011719 91.185 -164.7382
11577.301758 90.789 -167.1856
11661.195312 90.346 -169.3945
11745.697266 89.856 -171.3251
11830.811523 89.325 -172.9263
11916.542969 88.758 -174.1571
12002.894531 88.159 -174.9480
12089.873047 87.520 -175.2298
12177.480469 86.878 -174.9592
12265.723633 86.261 -174.0550
12354.606445 85.696 -172.5607
12444.132812 85.211 -170.4433
12534.308594 84.832 -167.8541
12625.136719 84.592 -164.8357
12716.624023 84.501 -161.6826
12808.773438 84.585 -158.6312
12901.591797 84.825 -155.9041
12995.082031 85.226 -153.7778
13089.250000 85.744 -152.3284
13184.099609 86.353 -151.7509
13279.636719 87.009 -151.9599
13375.867188 87.665 -152.9690
13472.793945 88.303 -154.6725
13570.422852 88.894 -156.9999
13668.759766 89.417 -159.8586
13767.809570 89.843 -163.1593
13867.577148 90.174 -166.8208
13968.067383 90.404 -170.7558
14069.285156 90.537 -174.8940
14171.237305 90.572 -179.1513
14273.927734 90.514 176.5170
14377.362305 90.363 172.1552
14481.546875 90.125 167.8469
14586.486328 89.805 163.6822
14692.185547 89.411 159.6876
14798.651367 88.951 155.9149
14905.888672 88.439 152.3828
15013.902344 87.891 149.1237
15122.700195 87.315 146.1481
15232.285156 86.714 143.4861
15342.664062 86.116 141.1096
15453.843750 85.554 139.0217
15565.829102 85.022 137.1576
15678.625000 84.530 135.4661
15792.239258 84.062 133.9062
15906.675781 83.609 132.4227
16021.942383 83.160 131.0065
16138.043945 82.712 129.6169
16254.986328 82.248 128.2935
16372.777344 81.750 127.0320
16491.421875 81.213 125.9236
16610.923828 80.622 125.0296
16731.294922 79.983 124.4364
16852.535156 79.290 124.2144
16974.656250 78.557 124.4738
17097.662109 77.771 125.3508
17221.558594 77.004 126.8400
17346.353516 76.308 129.0793
17472.052734 75.740 131.7726
17598.662109 75.388 134.7875
17726.189453 75.220 137.7625
17854.640625 75.261 140.3329
17984.021484 75.436 142.3695
18114.341797 75.695 143.5724
18245.605469 75.982 144.0939
18377.820312 76.228 143.9364
18510.994141 76.419 143.2582
18645.132812 76.523 142.1735
18780.242188 76.535 140.8188
18916.332031 76.436 139.3388
19053.408203 76.235 137.8245
19191.476562 75.925 136.3973
19330.546875 75.543 135.1095
19470.623047 75.118 134.0450
19611.714844 74.670 133.2289
19753.830078 74.213 132.7309
19896.974609 73.786 132.4996
