* Measurement data measured by REW V5.20.13
* Source: C:\Users\kurin\Desktop\Targets and Curves\Resolve\Img\Lecram\Dan_Clark_Audio_Expanse_5128_SPL.txt
* Format: Comma/Tab/Space delimited data
* Dated: Aug 15, 2023 3:25:32 PM
* REW Settings:
*  C-weighting compensation: Off
*  Target level: 75.0 dB
* Note: ; Measurement imported from C:\Users\kurin\Desktop\Targets and Curves\Resolve\Img\Lecram\Dan_Clark_Audio_Expanse_5128_SPL.txt Format: Comma/Tab/Space delimited data 623 values loaded, 5 Hz to 39,792 Hz log spaced 
* Measurement: Dan_Clark_Audio_Expanse_51
* Smoothing: 1/48 octave
* Frequency Step: 1/96 octave
* Start Frequency: 5.000 Hz
*
* Freq(Hz) SPL(dB) Phase(degrees)
5.000000 99.088 -23.0730
5.036232 99.081 -23.0701
5.072727 99.073 -23.0670
5.109486 99.064 -23.0637
5.146511 99.053 -23.0600
5.183805 99.040 -23.0556
5.221369 99.026 -23.0510
5.259205 99.011 -23.0470
5.297316 98.996 -23.0430
5.335702 98.980 -23.0386
5.374367 98.964 -23.0340
5.413311 98.948 -23.0294
5.452538 98.931 -23.0250
5.492050 98.915 -23.0209
5.531847 98.898 -23.0170
5.571934 98.882 -23.0131
5.612310 98.865 -23.0090
5.652979 98.848 -23.0045
5.693943 98.832 -23.0000
5.735204 98.815 -22.9960
5.776763 98.799 -22.9920
5.818624 98.783 -22.9876
5.860788 98.767 -22.9830
5.903258 98.751 -22.9785
5.946035 98.734 -22.9740
5.989123 98.717 -22.9695
6.032523 98.701 -22.9650
6.076237 98.685 -22.9605
6.120268 98.668 -22.9560
6.164618 98.651 -22.9515
6.209289 98.635 -22.9470
6.254284 98.619 -22.9425
6.299605 98.603 -22.9380
6.345255 98.587 -22.9336
6.391235 98.570 -22.9290
6.437549 98.554 -22.9240
6.484198 98.537 -22.9190
6.531185 98.521 -22.9145
6.578513 98.504 -22.9100
6.626183 98.487 -22.9051
6.674199 98.471 -22.9000
6.722563 98.455 -22.8950
6.771278 98.439 -22.8900
6.820345 98.423 -22.8850
6.869768 98.406 -22.8800
6.919549 98.390 -22.8750
6.969691 98.373 -22.8700
7.020196 98.357 -22.8650
7.071068 98.340 -22.8600
7.122308 98.324 -22.8551
7.173919 98.307 -22.8500
7.225904 98.290 -22.8445
7.278266 98.274 -22.8390
7.331007 98.258 -22.8340
7.384131 98.242 -22.8290
7.437639 98.226 -22.8236
7.491535 98.209 -22.8180
7.545822 98.193 -22.8125
7.600502 98.176 -22.8070
7.655579 98.160 -22.8016
7.711054 98.143 -22.7960
7.766932 98.126 -22.7900
7.823214 98.110 -22.7840
7.879904 98.094 -22.7785
7.937005 98.078 -22.7730
7.994520 98.062 -22.7671
8.052452 98.045 -22.7610
8.110803 98.029 -22.7550
8.169578 98.012 -22.7490
8.228777 97.996 -22.7430
8.288406 97.979 -22.7370
8.348468 97.963 -22.7310
8.408964 97.946 -22.7250
8.469899 97.929 -22.7191
8.531276 97.913 -22.7130
8.593097 97.897 -22.7066
8.655366 97.881 -22.7000
8.718086 97.865 -22.6934
8.781260 97.848 -22.6870
8.844893 97.832 -22.6811
8.908987 97.815 -22.6750
8.973545 97.799 -22.6681
9.038571 97.782 -22.6610
9.104069 97.765 -22.6545
9.170040 97.749 -22.6480
9.236490 97.733 -22.6411
9.303422 97.717 -22.6340
9.370838 97.701 -22.6270
9.438744 97.684 -22.6200
9.507140 97.668 -22.6130
9.576033 97.651 -22.6060
9.645425 97.635 -22.5990
9.715320 97.618 -22.5920
9.785721 97.601 -22.5851
9.856632 97.585 -22.5780
9.928058 97.569 -22.5706
10.000000 97.553 -22.5630
10.072464 97.537 -22.5556
10.145453 97.520 -22.5480
10.218971 97.504 -22.5400
10.293022 97.487 -22.5320
10.367610 97.471 -22.5245
10.442738 97.454 -22.5170
10.518411 97.438 -22.5091
10.594631 97.421 -22.5010
10.671404 97.404 -22.4931
10.748734 97.388 -22.4850
10.826623 97.372 -22.4765
10.905077 97.356 -22.4680
10.984100 97.340 -22.4600
11.063695 97.323 -22.4520
11.143867 97.307 -22.4436
11.224621 97.290 -22.4350
11.305959 97.274 -22.4260
11.387886 97.257 -22.4170
11.470407 97.240 -22.4085
11.553527 97.224 -22.4000
11.637249 97.208 -22.3911
11.721577 97.192 -22.3820
11.806517 97.176 -22.3725
11.892071 97.159 -22.3630
11.978246 97.143 -22.3540
12.065045 97.126 -22.3450
12.152473 97.110 -22.3356
12.240536 97.093 -22.3260
12.329235 97.077 -22.3161
12.418578 97.060 -22.3060
12.508568 97.043 -22.2960
12.599211 97.027 -22.2860
12.690510 97.011 -22.2761
12.782471 96.995 -22.2660
12.875097 96.979 -22.2556
12.968395 96.962 -22.2450
13.062370 96.946 -22.2345
13.157025 96.929 -22.2240
13.252366 96.913 -22.2136
13.348398 96.896 -22.2030
13.445127 96.879 -22.1921
13.542556 96.863 -22.1810
13.640691 96.847 -22.1696
13.739536 96.831 -22.1580
13.839099 96.815 -22.1466
13.939383 96.798 -22.1350
14.040393 96.782 -22.1231
14.142136 96.765 -22.1110
14.244616 96.749 -22.0991
14.347837 96.732 -22.0870
14.451808 96.715 -22.0746
14.556532 96.699 -22.0620
14.662014 96.683 -22.0496
14.768262 96.667 -22.0370
14.875278 96.651 -22.0241
14.983070 96.634 -22.0110
15.091644 96.618 -21.9976
15.201005 96.601 -21.9840
15.311157 96.585 -21.9706
15.422109 96.568 -21.9570
15.533863 96.552 -21.9431
15.646428 96.535 -21.9290
15.759809 96.518 -21.9146
15.874010 96.502 -21.9000
15.989040 96.486 -21.8851
16.104904 96.470 -21.8700
16.221605 96.454 -21.8546
16.339155 96.437 -21.8390
16.457554 96.421 -21.8237
16.576813 96.404 -21.8080
16.696936 96.388 -21.7912
16.817928 96.371 -21.7740
16.939798 96.354 -21.7571
17.062551 96.338 -21.7400
17.186193 96.322 -21.7223
17.310732 96.306 -21.7040
17.436172 96.290 -21.6852
17.562521 96.273 -21.6660
17.689787 96.257 -21.6468
17.817974 96.240 -21.6270
17.947090 96.224 -21.6063
18.077143 96.207 -21.5850
18.208138 96.190 -21.5634
18.340080 96.174 -21.5410
18.472980 96.158 -21.5175
18.606844 96.142 -21.4930
18.741676 96.126 -21.4680
18.877487 96.109 -21.4420
19.014280 96.093 -21.4147
19.152065 96.076 -21.3860
19.290850 96.060 -21.3560
19.430639 96.043 -21.3240
19.571442 96.026 -21.2895
19.713264 96.010 -21.2520
19.856115 95.994 -21.2110
20.000000 95.978 -21.1660
20.144928 95.963 -21.1164
20.290907 95.948 -21.0631
20.437943 95.934 -21.0059
20.586044 95.922 -20.9470
20.735220 95.911 -20.8877
20.885475 95.902 -20.8301
21.036821 95.895 -20.7761
21.189262 95.889 -20.7281
21.342808 95.885 -20.6880
21.497467 95.882 -20.6580
21.653246 95.881 -20.6406
21.810154 95.880 -20.6370
21.968201 95.879 -20.6492
22.127390 95.877 -20.6770
22.287735 95.876 -20.7209
22.449242 95.873 -20.7799
22.611917 95.867 -20.8551
22.775772 95.859 -20.9409
22.940815 95.848 -21.0334
23.107054 95.833 -21.1289
23.274498 95.815 -21.2239
23.443153 95.793 -21.3129
23.613033 95.767 -21.3904
23.784142 95.739 -21.4530
23.956491 95.709 -21.4942
24.130091 95.679 -21.5170
24.304947 95.649 -21.5215
24.481071 95.620 -21.5100
24.658470 95.591 -21.4839
24.837156 95.564 -21.4461
25.017136 95.539 -21.3987
25.198421 95.516 -21.3461
25.381020 95.495 -21.2936
25.564941 95.474 -21.2391
25.750195 95.454 -21.1818
25.936790 95.434 -21.1221
26.124741 95.416 -21.0588
26.314051 95.400 -20.9951
26.504732 95.385 -20.9331
26.696796 95.371 -20.8741
26.890253 95.358 -20.8194
27.085112 95.346 -20.7701
27.281382 95.335 -20.7275
27.479073 95.324 -20.6920
27.678198 95.313 -20.6649
27.878765 95.302 -20.6440
28.080786 95.290 -20.6290
28.284271 95.277 -20.6160
28.489231 95.262 -20.6021
28.695675 95.245 -20.5850
28.903616 95.228 -20.5605
29.113064 95.212 -20.5310
29.324028 95.197 -20.4976
29.536524 95.182 -20.4610
29.750557 95.167 -20.4222
29.966141 95.153 -20.3820
30.183289 95.140 -20.3406
30.402010 95.129 -20.3020
30.622314 95.119 -20.2708
30.844217 95.110 -20.2460
31.067726 95.099 -20.2290
31.292856 95.088 -20.2170
31.519617 95.076 -20.2073
31.748020 95.064 -20.2010
31.978081 95.052 -20.2000
32.209808 95.038 -20.2000
32.443211 95.022 -20.1981
32.678310 95.005 -20.1920
32.915108 94.988 -20.1775
33.153625 94.970 -20.1570
33.393871 94.952 -20.1320
33.635857 94.934 -20.1011
33.879597 94.916 -20.0623
34.125103 94.899 -20.0181
34.372387 94.884 -19.9694
34.621464 94.869 -19.9181
34.872345 94.854 -19.8671
35.125042 94.840 -19.8141
35.379574 94.826 -19.7575
35.635948 94.812 -19.6981
35.894180 94.799 -19.6363
36.154285 94.787 -19.5711
36.416275 94.775 -19.5009
36.680161 94.765 -19.4271
36.945961 94.756 -19.3501
37.213688 94.749 -19.2721
37.483353 94.744 -19.1942
37.754974 94.741 -19.1201
38.028561 94.741 -19.0522
38.304131 94.743 -18.9951
38.581699 94.747 -18.9543
38.861279 94.752 -18.9290
39.142883 94.757 -18.9205
39.426529 94.762 -18.9280
39.712231 94.767 -18.9521
40.000000 94.770 -18.9899
40.289856 94.771 -19.0408
40.581814 94.770 -19.0989
40.875885 94.767 -19.1581
41.172089 94.762 -19.2189
41.470440 94.757 -19.2795
41.770950 94.752 -19.3409
42.073643 94.746 -19.4028
42.378525 94.739 -19.4669
42.685616 94.733 -19.5340
42.994934 94.727 -19.6069
43.306492 94.721 -19.6889
43.620308 94.714 -19.7789
43.936401 94.706 -19.8771
44.254780 94.697 -19.9828
44.575470 94.686 -20.0967
44.898483 94.672 -20.2148
45.223835 94.655 -20.3341
45.551544 94.636 -20.4518
45.881630 94.615 -20.5641
46.214108 94.592 -20.6708
46.548996 94.567 -20.7714
46.886307 94.541 -20.8639
47.226067 94.513 -20.9458
47.568283 94.484 -21.0179
47.912983 94.455 -21.0797
48.260181 94.425 -21.1319
48.609894 94.395 -21.1751
48.962143 94.364 -21.2100
49.316940 94.334 -21.2369
49.674313 94.304 -21.2570
50.034271 94.274 -21.2713
50.396843 94.243 -21.2800
50.762039 94.213 -21.2836
51.129883 94.182 -21.2820
51.500389 94.151 -21.2759
51.873581 94.120 -21.2640
52.249481 94.089 -21.2460
52.628101 94.057 -21.2200
53.009464 94.023 -21.1857
53.393593 93.989 -21.1391
53.780506 93.955 -21.0755
54.170223 93.921 -20.9971
54.562763 93.889 -20.9040
54.958145 93.858 -20.7982
55.356396 93.829 -20.6815
55.757530 93.801 -20.5552
56.161572 93.776 -20.4192
56.568542 93.753 -20.2792
56.978462 93.734 -20.1406
57.391350 93.718 -20.0042
57.807232 93.702 -19.8736
58.226128 93.688 -19.7472
58.648056 93.676 -19.6247
59.073048 93.664 -19.5062
59.501114 93.652 -19.3928
59.932281 93.641 -19.2812
60.366577 93.630 -19.1679
60.804020 93.619 -19.0542
61.244629 93.610 -18.9397
61.688435 93.603 -18.8262
62.135452 93.596 -18.7153
62.585712 93.591 -18.6072
63.039234 93.588 -18.5011
63.496040 93.587 -18.4022
63.956161 93.588 -18.3145
64.419617 93.590 -18.2401
64.886421 93.593 -18.1835
65.356621 93.596 -18.1411
65.830215 93.597 -18.1116
66.307251 93.597 -18.0920
66.787743 93.596 -18.0800
67.271713 93.593 -18.0720
67.759193 93.588 -18.0653
68.250206 93.581 -18.0560
68.744774 93.573 -18.0384
69.242928 93.565 -18.0150
69.744690 93.559 -17.9846
70.250084 93.554 -17.9531
70.759148 93.551 -17.9264
71.271896 93.548 -17.9040
71.788361 93.545 -17.8875
72.308571 93.543 -17.8770
72.832550 93.542 -17.8731
73.360321 93.540 -17.8770
73.891922 93.538 -17.8911
74.427376 93.535 -17.9120
74.966705 93.530 -17.9366
75.509949 93.525 -17.9659
76.057121 93.520 -17.9993
76.608261 93.514 -18.0379
77.163399 93.507 -18.0837
77.722557 93.499 -18.1339
78.285767 93.489 -18.1874
78.853058 93.476 -18.2409
79.424461 93.461 -18.2927
80.000000 93.443 -18.3369
80.579712 93.421 -18.3680
81.163628 93.398 -18.3840
81.751770 93.375 -18.3803
82.344177 93.352 -18.3591
82.940880 93.330 -18.3208
83.541901 93.308 -18.2661
84.147285 93.287 -18.1941
84.757050 93.269 -18.1102
85.371231 93.255 -18.0183
85.989868 93.244 -17.9222
86.612984 93.235 -17.8271
87.240616 93.227 -17.7332
87.872803 93.221 -17.6419
88.509560 93.217 -17.5542
89.150940 93.215 -17.4715
89.796967 93.214 -17.3932
90.447670 93.213 -17.3197
91.103088 93.213 -17.2491
91.763260 93.213 -17.1796
92.428215 93.215 -17.1111
93.097992 93.218 -17.0430
93.772614 93.222 -16.9761
94.452133 93.228 -16.9101
95.136566 93.236 -16.8481
95.825966 93.246 -16.7920
96.520363 93.259 -16.7451
97.219788 93.274 -16.7106
97.924286 93.292 -16.6910
98.633881 93.311 -16.6901
99.348625 93.332 -16.7079
100.068542 93.353 -16.7455
100.793686 93.374 -16.8038
101.524078 93.395 -16.8849
102.259766 93.416 -16.9867
103.000778 93.435 -17.1093
103.747162 93.452 -17.2487
104.498962 93.466 -17.4018
105.256203 93.479 -17.5667
106.018929 93.490 -17.7408
106.787186 93.499 -17.9226
107.561012 93.505 -18.1103
108.340446 93.510 -18.3017
109.125526 93.513 -18.4939
109.916290 93.514 -18.6876
110.712791 93.515 -18.8822
111.515060 93.515 -19.0796
112.323143 93.515 -19.2807
113.137085 93.515 -19.4876
113.956924 93.515 -19.7020
114.782700 93.514 -19.9254
115.614464 93.512 -20.1601
116.452255 93.509 -20.4055
117.296112 93.505 -20.6626
118.146095 93.498 -20.9284
119.002228 93.489 -21.2008
119.864563 93.477 -21.4792
120.733154 93.463 -21.7633
121.608040 93.447 -22.0504
122.489258 93.427 -22.3385
123.376869 93.405 -22.6253
124.270905 93.381 -22.9073
125.171425 93.355 -23.1865
126.078468 93.328 -23.4638
126.992081 93.299 -23.7384
127.912323 93.267 -24.0095
128.839233 93.234 -24.2775
129.772842 93.200 -24.5418
130.713242 93.165 -24.8035
131.660431 93.129 -25.0633
132.614502 93.090 -25.3203
133.575485 93.049 -25.5733
134.543427 93.006 -25.8225
135.518387 92.963 -26.0681
136.500412 92.918 -26.3095
137.489548 92.871 -26.5472
138.485855 92.821 -26.7784
139.489380 92.769 -27.0001
140.500168 92.716 -27.2135
141.518295 92.662 -27.4193
142.543793 92.607 -27.6165
143.576721 92.549 -27.8050
144.617142 92.490 -27.9836
145.665100 92.431 -28.1505
146.720642 92.370 -28.3076
147.783844 92.309 -28.4562
148.854752 92.246 -28.5956
149.933411 92.182 -28.7260
151.019897 92.117 -28.8457
152.114243 92.051 -28.9530
153.216522 91.984 -29.0487
154.326797 91.917 -29.1329
155.445114 91.849 -29.2068
156.571533 91.782 -29.2719
157.706116 91.714 -29.3279
158.848923 91.645 -29.3751
160.000000 91.576 -29.4139
161.159424 91.507 -29.4449
162.327255 91.436 -29.4670
163.503540 91.365 -29.4795
164.688354 91.292 -29.4810
165.881760 91.219 -29.4700
167.083801 91.144 -29.4451
168.294571 91.069 -29.4043
169.514099 90.993 -29.3472
170.742462 90.917 -29.2720
171.979736 90.841 -29.1803
173.225967 90.766 -29.0727
174.481232 90.692 -28.9503
175.745605 90.619 -28.8142
177.019119 90.547 -28.6654
178.301880 90.477 -28.5040
179.593933 90.408 -28.3334
180.895340 90.341 -28.1574
182.206177 90.275 -27.9754
183.526520 90.210 -27.7880
184.856430 90.145 -27.5964
186.195984 90.082 -27.4024
187.545227 90.020 -27.2055
188.904266 89.957 -27.0064
190.273132 89.894 -26.8035
191.651932 89.832 -26.5957
193.040726 89.769 -26.3826
194.439575 89.706 -26.1638
195.848572 89.643 -25.9377
197.267761 89.579 -25.7021
198.697250 89.514 -25.4576
200.137085 89.451 -25.2049
201.587372 89.387 -24.9416
203.048157 89.322 -24.6663
204.519531 89.256 -24.3769
206.001556 89.191 -24.0707
207.494324 89.126 -23.7478
208.997925 89.062 -23.4075
210.512405 88.998 -23.0499
212.037857 88.936 -22.6743
213.574371 88.875 -22.2820
215.122025 88.816 -21.8727
216.680893 88.760 -21.4492
218.251053 88.707 -21.0131
219.832581 88.656 -20.5663
221.425583 88.609 -20.1105
223.030121 88.564 -19.6472
224.646286 88.522 -19.1778
226.274170 88.482 -18.7042
227.913849 88.447 -18.2285
229.565399 88.414 -17.7522
231.228928 88.383 -17.2769
232.904510 88.355 -16.8044
234.592224 88.331 -16.3357
236.292191 88.309 -15.8742
238.004456 88.290 -15.4237
239.729126 88.272 -14.9842
241.466309 88.255 -14.5576
243.216080 88.239 -14.1411
244.978516 88.222 -13.7326
246.753738 88.206 -13.3322
248.541809 88.190 -12.9398
250.342850 88.174 -12.5531
252.156937 88.156 -12.1715
253.984161 88.136 -11.7900
255.824646 88.114 -11.4041
257.678467 88.092 -11.0120
259.545685 88.070 -10.6107
261.426483 88.047 -10.1990
263.320862 88.023 -9.7756
265.229004 87.998 -9.3382
267.150970 87.975 -8.8842
269.086853 87.952 -8.4144
271.036774 87.931 -7.9288
273.000824 87.912 -7.4275
274.979095 87.894 -6.9099
276.971710 87.878 -6.3776
278.978760 87.867 -5.8308
281.000336 87.859 -5.2735
283.036591 87.855 -4.7095
285.087585 87.854 -4.1407
287.153442 87.858 -3.5695
289.234283 87.866 -2.9985
291.330200 87.877 -2.4313
293.441284 87.892 -1.8685
295.567688 87.911 -1.3110
297.709503 87.933 -0.7624
299.866821 87.960 -0.2272
302.039795 87.989 0.2955
304.228485 88.019 0.8048
306.433044 88.052 1.3016
308.653595 88.087 1.7871
310.890228 88.125 2.2587
313.143066 88.165 2.7140
315.412231 88.206 3.1538
317.697845 88.248 3.5780
320.000000 88.292 3.9878
322.318848 88.337 4.3839
324.654510 88.382 4.7668
327.007080 88.427 5.1371
329.376709 88.473 5.4959
331.763519 88.520 5.8444
334.167603 88.569 6.1829
336.589142 88.617 6.5123
339.028198 88.666 6.8321
341.484924 88.717 7.1429
343.959473 88.770 7.4422
346.451935 88.825 7.7282
348.962463 88.881 7.9993
351.491211 88.938 8.2543
354.038239 88.996 8.4903
356.603760 89.056 8.7051
359.187866 89.118 8.8955
361.790680 89.179 9.0563
364.412354 89.240 9.1916
367.053040 89.298 9.3036
369.712860 89.355 9.3928
372.391968 89.410 9.4590
375.090454 89.463 9.5069
377.808533 89.510 9.5389
380.546265 89.554 9.5619
383.303864 89.594 9.5836
386.081451 89.631 9.6049
388.879150 89.666 9.6293
391.697144 89.700 9.6569
394.535522 89.731 9.6890
397.394501 89.761 9.7259
400.274170 89.790 9.7687
403.174744 89.818 9.8158
406.096313 89.847 9.8659
409.039062 89.875 9.9188
412.003113 89.901 9.9734
414.988647 89.927 10.0318
417.995850 89.953 10.0963
421.024811 89.978 10.1658
424.075714 90.003 10.2394
427.148743 90.028 10.3187
430.244049 90.054 10.4051
433.361786 90.080 10.4977
436.502106 90.107 10.5977
439.665161 90.136 10.7007
442.851166 90.167 10.8032
446.060242 90.201 10.9027
449.292572 90.236 10.9953
452.548340 90.272 11.0807
455.827698 90.310 11.1580
459.130798 90.349 11.2248
462.457855 90.389 11.2789
465.809021 90.430 11.3189
469.184448 90.471 11.3418
472.584381 90.513 11.3500
476.008911 90.553 11.3452
479.458252 90.593 11.3271
482.932617 90.632 11.2963
486.432159 90.671 11.2512
489.957031 90.709 11.1887
493.507477 90.746 11.1133
497.083618 90.779 11.0279
500.685699 90.809 10.9343
504.313873 90.838 10.8349
507.968323 90.866 10.7303
511.649292 90.890 10.6210
515.356934 90.912 10.5104
519.091370 90.932 10.4021
522.852966 90.950 10.2963
526.641724 90.967 10.1950
530.458008 90.983 10.0963
534.301941 90.997 9.9991
538.173706 91.011 9.9033
542.073547 91.024 9.8088
546.001648 91.037 9.7143
549.958191 91.048 9.6181
553.943420 91.058 9.5223
557.957520 91.066 9.4283
562.000671 91.073 9.3363
566.073181 91.079 9.2469
570.175171 91.084 9.1603
574.306885 91.087 9.0764
578.468567 91.088 8.9963
582.660400 91.089 8.9212
586.882568 91.089 8.8502
591.135376 91.087 8.7823
595.419006 91.084 8.7192
599.733643 91.079 8.6614
604.079590 91.072 8.6122
608.456970 91.063 8.5740
612.866089 91.052 8.5491
617.307190 91.040 8.5404
621.780457 91.027 8.5479
626.286133 91.014 8.5718
630.824463 91.001 8.6138
635.395691 90.987 8.6764
640.000000 90.973 8.7587
644.637695 90.962 8.8619
649.309021 90.952 8.9826
654.014160 90.945 9.1179
658.753418 90.940 9.2665
663.527039 90.938 9.4269
668.335205 90.938 9.5964
673.178284 90.942 9.7727
678.056396 90.950 9.9524
682.969849 90.961 10.1326
687.918945 90.976 10.3094
692.903870 90.995 10.4795
697.924927 91.017 10.6385
702.982422 91.043 10.7814
708.076477 91.071 10.9066
713.207520 91.101 11.0107
718.375732 91.132 11.0937
723.581360 91.164 11.1553
728.824707 91.197 11.1939
734.106079 91.230 11.2072
739.425720 91.261 11.1981
744.783936 91.289 11.1673
750.180908 91.316 11.1192
755.617065 91.341 11.0580
761.092529 91.363 10.9843
766.607727 91.382 10.8991
772.162903 91.399 10.8053
777.758301 91.412 10.7058
783.394287 91.423 10.6024
789.071045 91.431 10.4981
794.789001 91.437 10.3924
800.548340 91.440 10.2846
806.349487 91.440 10.1784
812.192627 91.436 10.0766
818.078125 91.429 9.9813
824.006226 91.419 9.8944
829.977295 91.406 9.8192
835.991699 91.390 9.7588
842.049622 91.370 9.7161
848.151428 91.348 9.6944
854.297485 91.324 9.6959
860.488098 91.299 9.7238
866.723572 91.272 9.7787
873.004211 91.245 9.8633
879.330322 91.218 9.9756
885.702332 91.193 10.1158
892.120483 91.171 10.2794
898.585144 91.152 10.4627
905.096680 91.135 10.6622
911.655396 91.121 10.8746
918.261597 91.110 11.0962
924.915710 91.102 11.3229
931.618042 91.097 11.5532
938.368896 91.094 11.7835
945.168762 91.092 12.0151
952.017822 91.091 12.2470
958.916504 91.091 12.4821
965.865234 91.091 12.7226
972.864319 91.092 12.9701
979.914062 91.094 13.2269
987.014954 91.097 13.4930
994.167236 91.102 13.7701
1001.371399 91.110 14.0550
1008.627747 91.121 14.3456
1015.936646 91.134 14.6398
1023.298584 91.150 14.9354
1030.713867 91.169 15.2301
1038.182739 91.191 15.5210
1045.705933 91.215 15.8068
1053.283447 91.242 16.0842
1060.916016 91.270 16.3549
1068.603882 91.298 16.6185
1076.347412 91.328 16.8770
1084.147095 91.359 17.1321
1092.003296 91.392 17.3842
1099.916382 91.425 17.6336
1107.886841 91.459 17.8810
1115.915039 91.496 18.1281
1124.001343 91.535 18.3711
1132.146362 91.576 18.6075
1140.350342 91.620 18.8351
1148.613770 91.665 19.0517
1156.937134 91.713 19.2562
1165.320801 91.762 19.4475
1173.765137 91.813 19.6243
1182.270752 91.864 19.7848
1190.838013 91.917 19.9284
1199.467285 91.969 20.0537
1208.159180 92.022 20.1616
1216.913940 92.074 20.2527
1225.732178 92.126 20.3278
1234.614380 92.177 20.3871
1243.560913 92.226 20.4319
1252.572266 92.273 20.4621
1261.648926 92.319 20.4809
1270.791382 92.362 20.4904
1280.000000 92.402 20.4940
1289.275391 92.439 20.4944
1298.618042 92.473 20.4960
1308.028320 92.504 20.5026
1317.506836 92.532 20.5179
1327.054077 92.558 20.5470
1336.670410 92.583 20.5898
1346.356567 92.607 20.6478
1356.112793 92.631 20.7207
1365.939697 92.654 20.8089
1375.837891 92.678 20.9125
1385.807739 92.702 21.0330
1395.849854 92.728 21.1664
1405.964844 92.756 21.3097
1416.152954 92.786 21.4624
1426.415039 92.816 21.6233
1436.751465 92.848 21.7923
1447.162720 92.881 21.9699
1457.649414 92.917 22.1542
1468.212158 92.955 22.3439
1478.851440 92.995 22.5382
1489.567871 93.036 22.7367
1500.361816 93.080 22.9372
1511.234131 93.127 23.1377
1522.185059 93.177 23.3371
1533.215454 93.227 23.5335
1544.325806 93.280 23.7271
1555.516602 93.334 23.9178
1566.788574 93.391 24.1052
1578.142090 93.449 24.2882
1589.578003 93.508 24.4692
1601.096680 93.567 24.6505
1612.698975 93.628 24.8312
1624.385254 93.692 25.0120
1636.156250 93.759 25.1912
1648.012451 93.827 25.3679
1659.954590 93.898 25.5404
1671.983398 93.972 25.7083
1684.099243 94.049 25.8674
1696.302856 94.129 26.0130
1708.594971 94.211 26.1454
1720.976196 94.294 26.2638
1733.447144 94.379 26.3676
1746.008423 94.466 26.4557
1758.660645 94.554 26.5297
1771.404663 94.640 26.5897
1784.240967 94.727 26.6388
1797.170288 94.814 26.6802
1810.193359 94.903 26.7139
1823.310791 94.991 26.7407
1836.523193 95.081 26.7619
1849.831421 95.170 26.7795
1863.236084 95.262 26.7920
1876.737793 95.356 26.7995
1890.337524 95.452 26.7990
1904.035645 95.549 26.7875
1917.833008 95.649 26.7651
1931.730469 95.749 26.7316
1945.728638 95.851 26.6852
1959.828125 95.955 26.6240
1974.029907 96.061 26.5484
1988.334473 96.166 26.4573
2002.742798 96.273 26.3524
2017.255493 96.380 26.2352
2031.873291 96.489 26.1055
2046.597168 96.598 25.9639
2061.427734 96.708 25.8097
2076.365479 96.819 25.6423
2091.411865 96.932 25.4618
2106.566895 97.044 25.2681
2121.832031 97.158 25.0619
2137.207764 97.272 24.8440
2152.694824 97.389 24.6139
2168.294189 97.506 24.3709
2184.006592 97.624 24.1172
2199.832764 97.743 23.8555
2215.773682 97.863 23.5831
2231.830078 97.990 23.3015
2248.002686 98.120 23.0003
2264.292725 98.256 22.6710
2280.700684 98.394 22.3096
2297.227539 98.535 21.9111
2313.874268 98.678 21.4699
2330.641602 98.825 20.9792
2347.530273 98.972 20.4374
2364.541504 99.116 19.8378
2381.676025 99.257 19.1891
2398.934570 99.394 18.4952
2416.318359 99.525 17.7634
2433.827881 99.651 16.9995
2451.464355 99.772 16.2113
2469.228760 99.886 15.4074
2487.121826 99.997 14.5905
2505.144531 100.104 13.7673
2523.297852 100.210 12.9348
2541.582764 100.313 12.0922
2560.000000 100.414 11.2398
2578.550781 100.512 10.3787
2597.236084 100.610 9.5061
2616.056641 100.707 8.6203
2635.013672 100.804 7.7189
2654.108154 100.899 6.7985
2673.340820 100.993 5.8591
2692.713135 101.085 4.9003
2712.225586 101.176 3.9197
2731.879395 101.265 2.9150
2751.675781 101.353 1.8848
2771.615479 101.438 0.8266
2791.699707 101.520 -0.2581
2811.929688 101.598 -1.3691
2832.305908 101.673 -2.5056
2852.830078 101.744 -3.6678
2873.502930 101.810 -4.8528
2894.325439 101.869 -6.0592
2915.298828 101.924 -7.2834
2936.424316 101.973 -8.5226
2957.702881 102.017 -9.7735
2979.135742 102.054 -11.0324
3000.723633 102.086 -12.2975
3022.468262 102.112 -13.5662
3044.370117 102.133 -14.8361
3066.430908 102.149 -16.1047
3088.651611 102.160 -17.3713
3111.033203 102.167 -18.6341
3133.577148 102.170 -19.8940
3156.284180 102.168 -21.1514
3179.156006 102.163 -22.4060
3202.193359 102.154 -23.6567
3225.397949 102.142 -24.9071
3248.770508 102.127 -26.1598
3272.312500 102.109 -27.4163
3296.024902 102.087 -28.6802
3319.909180 102.059 -29.9481
3343.966797 102.026 -31.2190
3368.198486 101.987 -32.4900
3392.605713 101.942 -33.7595
3417.189941 101.891 -35.0232
3441.952393 101.833 -36.2783
3466.894287 101.767 -37.5175
3492.016846 101.694 -38.7340
3517.321289 101.613 -39.9236
3542.809326 101.527 -41.0805
3568.481934 101.434 -42.2019
3594.340576 101.337 -43.2830
3620.386719 101.236 -44.3232
3646.621582 101.133 -45.3190
3673.046387 101.028 -46.2736
3699.662842 100.921 -47.1877
3726.472168 100.813 -48.0650
3753.475586 100.707 -48.9080
3780.675049 100.600 -49.7204
3808.071289 100.494 -50.5067
3835.666016 100.389 -51.2674
3863.460938 100.283 -52.0045
3891.457275 100.177 -52.7177
3919.656250 100.070 -53.4088
3948.059814 99.963 -54.0740
3976.668945 99.853 -54.7121
4005.485596 99.743 -55.3171
4034.510986 99.631 -55.8825
4063.746582 99.520 -56.4086
4093.194336 99.410 -56.8936
4122.855469 99.302 -57.3379
4152.730957 99.196 -57.7410
4182.823730 99.094 -58.1044
4213.133789 98.997 -58.4262
4243.664062 98.906 -58.7157
4274.415527 98.825 -58.9797
4305.389648 98.751 -59.2238
4336.588379 98.684 -59.4536
4368.013184 98.624 -59.6759
4399.665527 98.575 -59.8962
4431.547363 98.536 -60.1248
4463.660156 98.506 -60.3720
4496.005371 98.485 -60.6446
4528.585449 98.473 -60.9493
4561.401367 98.469 -61.2972
4594.455078 98.474 -61.6976
4627.748535 98.486 -62.1626
4661.283203 98.504 -62.7048
4695.060547 98.526 -63.3317
4729.083008 98.549 -64.0547
4763.352051 98.570 -64.8749
4797.869141 98.586 -65.8012
4832.636719 98.593 -66.8207
4867.655762 98.585 -67.9316
4902.928711 98.561 -69.1081
4938.457520 98.518 -70.3334
4974.243652 98.454 -71.5781
5010.289062 98.368 -72.8151
5046.595703 98.263 -74.0211
5083.165527 98.138 -75.1678
5120.000000 97.997 -76.2430
5157.101562 97.842 -77.2248
5194.472168 97.678 -78.1139
5232.113281 97.508 -78.9004
5270.027344 97.335 -79.5938
5308.216309 97.162 -80.1985
5346.681641 96.990 -80.7197
5385.426270 96.818 -81.1639
5424.451172 96.648 -81.5304
5463.758789 96.481 -81.8205
5503.351562 96.317 -82.0341
5543.230957 96.157 -82.1721
5583.399414 96.002 -82.2329
5623.859375 95.852 -82.2120
5664.611816 95.713 -82.1186
5705.660156 95.587 -81.9532
5747.005859 95.478 -81.7382
5788.650879 95.386 -81.4901
5830.597656 95.311 -81.2283
5872.848633 95.255 -80.9738
5915.405762 95.215 -80.7391
5958.271484 95.190 -80.5435
6001.447266 95.177 -80.3877
6044.936523 95.172 -80.2820
6088.740234 95.175 -80.2162
6132.861816 95.183 -80.1855
6177.303223 95.197 -80.1839
6222.066406 95.218 -80.2022
6267.154297 95.248 -80.2457
6312.568359 95.290 -80.3104
6358.312012 95.347 -80.4154
6404.386719 95.421 -80.5693
6450.795898 95.511 -80.7996
6497.541016 95.622 -81.1283
6544.625000 95.747 -81.5804
6592.049805 95.887 -82.1807
6639.818359 96.038 -82.9515
6687.933594 96.199 -83.9185
6736.396973 96.363 -85.0973
6785.211426 96.527 -86.5114
6834.379883 96.683 -88.1638
6883.904785 96.826 -90.0683
6933.788574 96.949 -92.2163
6984.033691 97.048 -94.6132
7034.642578 97.114 -97.2313
7085.618652 97.140 -100.0603
7136.963867 97.121 -103.0536
7188.681152 97.053 -106.1811
7240.773438 96.931 -109.3838
7293.243164 96.750 -112.6115
7346.092773 96.513 -115.8081
7399.325684 96.219 -118.9144
7452.944336 95.869 -121.8895
7506.951172 95.466 -124.6863
7561.350098 95.010 -127.2644
7616.142578 94.504 -129.5832
7671.332031 93.950 -131.5955
7726.921875 93.351 -133.2595
7782.914551 92.711 -134.5177
7839.312500 92.032 -135.3224
7896.119629 91.319 -135.6030
7953.337891 90.569 -135.2852
8010.971191 89.803 -134.3308
8069.021973 89.029 -132.6593
8127.493164 88.277 -130.3241
8186.388672 87.567 -127.3017
8245.710938 86.940 -123.7440
8305.461914 86.436 -119.7238
8365.647461 86.074 -115.4569
8426.267578 85.895 -111.1163
8487.328125 85.877 -106.9075
8548.831055 86.026 -103.0543
8610.779297 86.292 -99.6763
8673.176758 86.640 -96.9684
8736.026367 87.030 -94.9272
8799.331055 87.418 -93.6505
8863.094727 87.784 -93.0277
8927.320312 88.092 -93.0281
8992.010742 88.342 -93.5044
9057.170898 88.520 -94.3423
9122.802734 88.629 -95.4100
9188.910156 88.660 -96.5720
9255.497070 88.623 -97.7250
9322.566406 88.522 -98.7424
9390.121094 88.365 -99.5584
9458.166016 88.158 -100.0804
9526.704102 87.912 -100.2630
9595.738281 87.636 -100.0356
9665.273438 87.347 -99.3816
9735.311523 87.054 -98.2507
9805.857422 86.783 -96.6757
9876.915039 86.554 -94.6413
9948.487305 86.393 -92.2429
10020.578125 86.326 -89.5203
10093.191406 86.367 -86.6269
10166.331055 86.545 -83.6706
10240.000000 86.846 -80.8294
10314.203125 87.279 -78.2784
10388.944336 87.801 -76.1360
10464.226562 88.385 -74.5698
10540.054688 89.000 -73.6048
10616.432617 89.616 -73.3348
10693.363281 90.214 -73.7227
10770.852539 90.771 -74.8048
10848.902344 91.273 -76.4527
10927.517578 91.695 -78.5991
11006.703125 92.044 -81.0928
11086.461914 92.319 -83.7872
11166.798828 92.530 -86.5992
11247.718750 92.684 -89.4097
11329.223633 92.791 -92.1809
11411.320312 92.855 -94.8327
11494.011719 92.890 -97.3746
11577.301758 92.909 -99.7740
11661.195312 92.916 -102.0774
11745.697266 92.923 -104.3062
11830.811523 92.926 -106.5051
11916.542969 92.930 -108.7202
12002.894531 92.926 -110.9694
12089.873047 92.912 -113.2946
12177.480469 92.879 -115.6694
12265.723633 92.817 -118.1024
12354.606445 92.722 -120.5290
12444.132812 92.587 -122.9100
12534.308594 92.416 -125.1752
12625.136719 92.206 -127.2547
12716.624023 91.968 -129.1069
12808.773438 91.709 -130.6567
12901.591797 91.447 -131.9355
12995.082031 91.202 -132.9167
13089.250000 90.987 -133.7004
13184.099609 90.824 -134.3332
13279.636719 90.715 -134.9526
13375.867188 90.677 -135.6747
13472.793945 90.689 -136.6118
13570.422852 90.744 -137.9065
13668.759766 90.813 -139.5857
13767.809570 90.872 -141.7568
13867.577148 90.896 -144.3201
13968.067383 90.853 -147.2744
14069.285156 90.732 -150.4278
14171.237305 90.514 -153.6614
14273.927734 90.198 -156.7504
14377.362305 89.771 -159.4923
14481.546875 89.248 -161.6993
14586.486328 88.625 -163.1244
14692.185547 87.946 -163.7439
14798.651367 87.236 -163.3955
14905.888672 86.554 -162.2478
15013.902344 85.951 -160.3301
15122.700195 85.471 -157.9048
15232.285156 85.175 -155.1512
15342.664062 85.061 -152.3536
15453.843750 85.172 -149.7820
15565.829102 85.444 -147.6608
15678.625000 85.847 -146.2851
15792.239258 86.320 -145.7107
15906.675781 86.806 -146.1286
16021.942383 87.271 -147.4256
16138.043945 87.663 -149.6094
16254.986328 87.981 -152.5034
16372.777344 88.206 -155.9886
16491.421875 88.336 -159.8984
16610.923828 88.362 -164.0692
16731.294922 88.293 -168.3699
16852.535156 88.127 -172.6308
16974.656250 87.879 -176.8031
17097.662109 87.560 179.2125
17221.558594 87.177 175.4333
17346.353516 86.733 171.9032
17472.052734 86.237 168.6390
17598.662109 85.699 165.6595
17726.189453 85.117 163.0015
17854.640625 84.492 160.6888
17984.021484 83.828 158.7774
18114.341797 83.122 157.3276
18245.605469 82.387 156.3502
18377.820312 81.632 155.8831
18510.994141 80.866 155.9035
18645.132812 80.099 156.4200
18780.242188 79.351 157.3757
18916.332031 78.639 158.7516
19053.408203 77.984 160.4397
19191.476562 77.413 162.3548
19330.546875 76.916 164.4087
19470.623047 76.488 166.4985
19611.714844 76.127 168.5823
19753.830078 75.832 170.5911
19896.974609 75.588 172.5037
