* Measurement data measured by REW V5.20.13
* Source: C:\Users\kurin\Desktop\Targets and Curves\Resolve\Img\Files\Sundara 5128_SPL.txt
* Format: Comma/Tab/Space delimited data
* Dated: Aug 15, 2023 12:41:59 AM
* REW Settings:
*  C-weighting compensation: Off
*  Target level: 75.0 dB
* Note: ; Measurement imported from C:\Users\kurin\Desktop\Targets and Curves\Resolve\Img\Files\Sundara 5128_SPL.txt Format: Comma/Tab/Space delimited data 623 values loaded, 5 Hz to 39,792 Hz log spaced 
* Measurement: Sundara 5128_SPL
* Smoothing: 1/48 octave
* Frequency Step: 1/96 octave
* Start Frequency: 5.000 Hz
*
* Freq(Hz) SPL(dB) Phase(degrees)
5.000000 73.024 71.7500
5.036232 73.048 71.7341
5.072727 73.073 71.7170
5.109486 73.103 71.6968
5.146511 73.137 71.6740
5.183805 73.179 71.6478
5.221369 73.224 71.6200
5.259205 73.270 71.5924
5.297316 73.319 71.5640
5.335702 73.371 71.5343
5.374367 73.424 71.5040
5.413311 73.476 71.4739
5.452538 73.529 71.4440
5.492050 73.581 71.4146
5.531847 73.634 71.3850
5.571934 73.686 71.3546
5.612310 73.739 71.3240
5.652979 73.791 71.2936
5.693943 73.844 71.2630
5.735204 73.896 71.2321
5.776763 73.949 71.2010
5.818624 74.001 71.1701
5.860788 74.054 71.1390
5.903258 74.106 71.1071
5.946035 74.159 71.0750
5.989123 74.212 71.0431
6.032523 74.265 71.0110
6.076237 74.318 70.9786
6.120268 74.370 70.9460
6.164618 74.422 70.9131
6.209289 74.475 70.8800
6.254284 74.527 70.8471
6.299605 74.580 70.8140
6.345255 74.632 70.7802
6.391235 74.685 70.7460
6.437549 74.737 70.7116
6.484198 74.790 70.6770
6.531185 74.842 70.6426
6.578513 74.895 70.6080
6.626183 74.947 70.5732
6.674199 75.000 70.5380
6.722563 75.052 70.5021
6.771278 75.105 70.4660
6.820345 75.157 70.4301
6.869768 75.210 70.3940
6.919549 75.263 70.3577
6.969691 75.316 70.3210
7.020196 75.369 70.2836
7.071068 75.421 70.2460
7.122308 75.473 70.2086
7.173919 75.526 70.1710
7.225904 75.578 70.1326
7.278266 75.631 70.0940
7.331007 75.683 70.0556
7.384131 75.736 70.0170
7.437639 75.788 69.9776
7.491535 75.841 69.9380
7.545822 75.893 69.8986
7.600502 75.946 69.8590
7.655579 75.998 69.8187
7.711054 76.051 69.7780
7.766932 76.103 69.7371
7.823214 76.156 69.6960
7.879904 76.208 69.6546
7.937005 76.261 69.6130
7.994520 76.314 69.5711
8.052452 76.367 69.5290
8.110803 76.420 69.4867
8.169578 76.472 69.4440
8.228777 76.524 69.4007
8.288406 76.577 69.3570
8.348468 76.629 69.3131
8.408964 76.682 69.2690
8.469899 76.734 69.2246
8.531276 76.787 69.1800
8.593097 76.839 69.1352
8.655366 76.892 69.0900
8.718086 76.944 69.0442
8.781260 76.997 68.9980
8.844893 77.049 68.9516
8.908987 77.102 68.9050
8.973545 77.154 68.8581
9.038571 77.207 68.8110
9.104069 77.259 68.7637
9.170040 77.312 68.7160
9.236490 77.365 68.6677
9.303422 77.418 68.6190
9.370838 77.471 68.5702
9.438744 77.523 68.5210
9.507140 77.575 68.4712
9.576033 77.628 68.4210
9.645425 77.680 68.3706
9.715320 77.733 68.3200
9.785721 77.785 68.2692
9.856632 77.838 68.2180
9.928058 77.890 68.1663
10.000000 77.943 68.1140
10.072464 77.995 68.0612
10.145453 78.048 68.0081
10.218971 78.100 67.9547
10.293022 78.153 67.9010
10.367610 78.205 67.8472
10.442738 78.258 67.7930
10.518411 78.310 67.7382
10.594631 78.363 67.6830
10.671404 78.416 67.6277
10.748734 78.469 67.5720
10.826623 78.522 67.5158
10.905077 78.574 67.4590
10.984100 78.626 67.4017
11.063695 78.679 67.3440
11.143867 78.731 67.2862
11.224621 78.784 67.2280
11.305959 78.836 67.1692
11.387886 78.889 67.1100
11.470407 78.941 67.0507
11.553527 78.994 66.9910
11.637249 79.046 66.9308
11.721577 79.099 66.8701
11.806517 79.151 66.8088
11.892071 79.204 66.7471
11.978246 79.256 66.6847
12.065045 79.309 66.6220
12.152473 79.361 66.5592
12.240536 79.414 66.4960
12.329235 79.467 66.4322
12.418578 79.520 66.3681
12.508568 79.573 66.3038
12.599211 79.625 66.2390
12.690510 79.677 66.1733
12.782471 79.730 66.1071
12.875097 79.782 66.0407
12.968395 79.835 65.9740
13.062370 79.887 65.9068
13.157025 79.940 65.8390
13.252366 79.992 65.7707
13.348398 80.045 65.7021
13.445127 80.097 65.6333
13.542556 80.150 65.5641
13.640691 80.202 65.4938
13.739536 80.255 65.4230
13.839099 80.307 65.3522
13.939383 80.360 65.2811
14.040393 80.412 65.2092
14.142136 80.465 65.1370
14.244616 80.518 65.0648
14.347837 80.571 64.9920
14.451808 80.624 64.9183
14.556532 80.676 64.8440
14.662014 80.728 64.7697
14.768262 80.781 64.6951
14.875278 80.833 64.6198
14.983070 80.886 64.5441
15.091644 80.938 64.4678
15.201005 80.991 64.3911
15.311157 81.043 64.3137
15.422109 81.096 64.2361
15.533863 81.148 64.1582
15.646428 81.201 64.0800
15.759809 81.253 64.0012
15.874010 81.306 63.9221
15.989040 81.358 63.8427
16.104904 81.411 63.7631
16.221605 81.463 63.6827
16.339155 81.516 63.6021
16.457554 81.569 63.5217
16.576813 81.622 63.4411
16.696936 81.675 63.3597
16.817928 81.727 63.2780
16.939798 81.779 63.1966
17.062551 81.832 63.1151
17.186193 81.884 63.0331
17.310732 81.937 62.9511
17.436172 81.989 62.8690
17.562521 82.042 62.7871
17.689787 82.094 62.7050
17.817974 82.147 62.6231
17.947090 82.199 62.5419
18.077143 82.252 62.4610
18.208138 82.304 62.3803
18.340080 82.357 62.3001
18.472980 82.409 62.2211
18.606844 82.462 62.1430
18.741676 82.514 62.0656
18.877487 82.567 61.9891
19.014280 82.620 61.9136
19.152065 82.673 61.8401
19.290850 82.725 61.7686
19.430639 82.777 61.7010
19.571442 82.828 61.6384
19.713264 82.879 61.5841
19.856115 82.929 61.5404
20.000000 82.979 61.5120
20.144928 83.030 61.5050
20.290907 83.083 61.5170
20.437943 83.141 61.5508
20.586044 83.205 61.5970
20.735220 83.276 61.6516
20.885475 83.356 61.7000
21.036821 83.445 61.7327
21.189262 83.544 61.7300
21.342808 83.653 61.6735
21.497467 83.767 61.5492
21.653246 83.884 61.3355
21.810154 84.000 61.0365
21.968201 84.108 60.6425
22.127390 84.207 60.1736
22.287735 84.291 59.6358
22.449242 84.359 59.0605
22.611917 84.407 58.4694
22.775772 84.436 57.8977
22.940815 84.445 57.3804
23.107054 84.440 56.9395
23.274498 84.424 56.6098
23.443153 84.404 56.3882
23.613033 84.386 56.2916
23.784142 84.376 56.2960
23.956491 84.380 56.3951
24.130091 84.400 56.5518
24.304947 84.442 56.7372
24.481071 84.501 56.9208
24.658470 84.577 57.0670
24.837156 84.666 57.1619
25.017136 84.764 57.1798
25.198421 84.868 57.1211
25.381020 84.972 56.9719
25.564941 85.072 56.7492
25.750195 85.163 56.4586
25.936790 85.247 56.1214
26.124741 85.321 55.7581
26.314051 85.387 55.3775
26.504732 85.446 54.9934
26.696796 85.499 54.6125
26.890253 85.545 54.2451
27.085112 85.586 53.8944
27.281382 85.624 53.5681
27.479073 85.660 53.2624
27.678198 85.695 52.9760
27.878765 85.730 52.7084
28.080786 85.763 52.4598
28.284271 85.797 52.2263
28.489231 85.833 52.0040
28.695675 85.869 51.7923
28.903616 85.904 51.5878
29.113064 85.939 51.3953
29.324028 85.972 51.2182
29.536524 86.006 51.0572
29.750557 86.042 50.9136
29.966141 86.079 50.7881
30.183289 86.116 50.6829
30.402010 86.157 50.5951
30.622314 86.203 50.5262
30.844217 86.254 50.4661
31.067726 86.312 50.4084
31.292856 86.377 50.3431
31.519617 86.448 50.2606
31.748020 86.525 50.1531
31.978081 86.607 50.0108
32.209808 86.693 49.8313
32.443211 86.780 49.6086
32.678310 86.867 49.3434
32.915108 86.954 49.0334
33.153625 87.039 48.6814
33.393871 87.121 48.2870
33.635857 87.199 47.8577
33.879597 87.271 47.3986
34.125103 87.337 46.9167
34.372387 87.398 46.4182
34.621464 87.452 45.9108
34.872345 87.499 45.4011
35.125042 87.540 44.8976
35.379574 87.575 44.4105
35.635948 87.606 43.9416
35.894180 87.635 43.4968
36.154285 87.663 43.0736
36.416275 87.690 42.6731
36.680161 87.718 42.2906
36.945961 87.748 41.9251
37.213688 87.781 41.5665
37.483353 87.818 41.2064
37.754974 87.857 40.8386
38.028561 87.898 40.4559
38.304131 87.940 40.0536
38.581699 87.983 39.6247
38.861279 88.026 39.1687
39.142883 88.066 38.6799
39.426529 88.101 38.1667
39.712231 88.129 37.6321
40.000000 88.150 37.0868
40.289856 88.165 36.5388
40.581814 88.172 35.9988
40.875885 88.170 35.4776
41.172089 88.162 34.9827
41.470440 88.149 34.5251
41.770950 88.133 34.1057
42.073643 88.114 33.7297
42.378525 88.095 33.3944
42.685616 88.076 33.1013
42.994934 88.060 32.8423
43.306492 88.048 32.6129
43.620308 88.040 32.4053
43.936401 88.035 32.2104
44.254780 88.033 32.0273
44.575470 88.033 31.8525
44.898483 88.036 31.6843
45.223835 88.041 31.5196
45.551544 88.049 31.3582
45.881630 88.058 31.1995
46.214108 88.069 31.0422
46.548996 88.083 30.8852
46.886307 88.098 30.7282
47.226067 88.114 30.5718
47.568283 88.133 30.4133
47.912983 88.155 30.2521
48.260181 88.179 30.0833
48.609894 88.206 29.9020
48.962143 88.235 29.7073
49.316940 88.264 29.4970
49.674313 88.294 29.2704
50.034271 88.325 29.0265
50.396843 88.356 28.7644
50.762039 88.386 28.4819
51.129883 88.415 28.1825
51.500389 88.441 27.8674
51.873581 88.465 27.5416
52.249481 88.485 27.2093
52.628101 88.503 26.8736
53.009464 88.518 26.5381
53.393593 88.531 26.2046
53.780506 88.542 25.8763
54.170223 88.552 25.5525
54.562763 88.561 25.2336
54.958145 88.569 24.9195
55.356396 88.576 24.6106
55.757530 88.582 24.3055
56.161572 88.588 24.0028
56.568542 88.593 23.7025
56.978462 88.597 23.4035
57.391350 88.601 23.1075
57.807232 88.603 22.8160
58.226128 88.605 22.5295
58.648056 88.606 22.2492
59.073048 88.606 21.9745
59.501114 88.606 21.7050
59.932281 88.606 21.4405
60.366577 88.606 21.1808
60.804020 88.606 20.9254
61.244629 88.606 20.6737
61.688435 88.606 20.4254
62.135452 88.606 20.1802
62.585712 88.606 19.9374
63.039234 88.607 19.6967
63.496040 88.608 19.4574
63.956161 88.608 19.2196
64.419617 88.609 18.9814
64.886421 88.611 18.7415
65.356621 88.614 18.4984
65.830215 88.616 18.2495
66.307251 88.618 17.9975
66.787743 88.618 17.7448
67.271713 88.618 17.4905
67.759193 88.618 17.2345
68.250206 88.618 16.9765
68.744774 88.616 16.7154
69.242928 88.614 16.4525
69.744690 88.611 16.1894
70.250084 88.608 15.9235
70.759148 88.605 15.6530
71.271896 88.600 15.3775
71.788361 88.594 15.0950
72.308571 88.586 14.8095
72.832550 88.575 14.5234
73.360321 88.561 14.2395
73.891922 88.544 13.9600
74.427376 88.525 13.6895
74.966705 88.503 13.4324
75.509949 88.478 13.1914
76.057121 88.451 12.9709
76.608261 88.424 12.7704
77.163399 88.397 12.5919
77.722557 88.370 12.4323
78.285767 88.345 12.2907
78.853058 88.321 12.1623
79.424461 88.300 12.0430
80.000000 88.280 11.9302
80.579712 88.262 11.8196
81.163628 88.244 11.7122
81.751770 88.227 11.6080
82.344177 88.210 11.5062
82.940880 88.194 11.4053
83.541901 88.178 11.3072
84.147285 88.161 11.2118
84.757050 88.144 11.1232
85.371231 88.127 11.0459
85.989868 88.110 10.9781
86.612984 88.095 10.9201
87.240616 88.081 10.8701
87.872803 88.069 10.8278
88.509560 88.059 10.7891
89.150940 88.052 10.7508
89.796967 88.047 10.7091
90.447670 88.045 10.6594
91.103088 88.044 10.6011
91.763260 88.043 10.5324
92.428215 88.043 10.4522
93.097992 88.044 10.3578
93.772614 88.045 10.2522
94.452133 88.042 10.1361
95.136566 88.038 10.0143
95.825966 88.033 9.8913
96.520363 88.026 9.7683
97.219788 88.018 9.6473
97.924286 88.008 9.5302
98.633881 87.997 9.4205
99.348625 87.985 9.3162
100.068542 87.975 9.2169
100.793686 87.964 9.1212
101.524078 87.952 9.0270
102.259766 87.940 8.9362
103.000778 87.928 8.8504
103.747162 87.916 8.7682
104.498962 87.904 8.6881
105.256203 87.891 8.6121
106.018929 87.877 8.5414
106.787186 87.863 8.4771
107.561012 87.849 8.4212
108.340446 87.835 8.3731
109.125526 87.821 8.3338
109.916290 87.808 8.3011
110.712791 87.797 8.2737
111.515060 87.787 8.2491
112.323143 87.779 8.2242
113.137085 87.771 8.1981
113.956924 87.764 8.1689
114.782700 87.758 8.1361
115.614464 87.752 8.0977
116.452255 87.745 8.0561
117.296112 87.737 8.0123
118.146095 87.728 7.9691
119.002228 87.719 7.9285
119.864563 87.709 7.8931
120.733154 87.698 7.8659
121.608040 87.686 7.8470
122.489258 87.676 7.8386
123.376869 87.666 7.8370
124.270905 87.658 7.8399
125.171425 87.651 7.8460
126.078468 87.645 7.8543
126.992081 87.641 7.8620
127.912323 87.639 7.8662
128.839233 87.638 7.8660
129.772842 87.637 7.8590
130.713242 87.636 7.8460
131.660431 87.636 7.8276
132.614502 87.636 7.8031
133.575485 87.636 7.7719
134.543427 87.635 7.7351
135.518387 87.633 7.6930
136.500412 87.631 7.6471
137.489548 87.627 7.5975
138.485855 87.622 7.5481
139.489380 87.615 7.5021
140.500168 87.606 7.4611
141.518295 87.596 7.4271
142.543793 87.586 7.4021
143.576721 87.575 7.3886
144.617142 87.563 7.3860
145.665100 87.553 7.3951
146.720642 87.543 7.4129
147.783844 87.535 7.4376
148.854752 87.528 7.4669
149.933411 87.523 7.4986
151.019897 87.519 7.5309
152.114243 87.517 7.5617
153.216522 87.516 7.5899
154.326797 87.515 7.6136
155.445114 87.515 7.6340
156.571533 87.515 7.6517
157.706116 87.515 7.6670
158.848923 87.515 7.6797
160.000000 87.515 7.6910
161.159424 87.515 7.7017
162.327255 87.515 7.7120
163.503540 87.515 7.7220
164.688354 87.515 7.7320
165.881760 87.515 7.7416
167.083801 87.515 7.7520
168.294571 87.515 7.7642
169.514099 87.515 7.7780
170.742462 87.516 7.7933
171.979736 87.517 7.8100
173.225967 87.518 7.8285
174.481232 87.520 7.8470
175.745605 87.523 7.8645
177.019119 87.528 7.8780
178.301880 87.534 7.8839
179.593933 87.540 7.8830
180.895340 87.545 7.8744
182.206177 87.550 7.8590
183.526520 87.555 7.8368
184.856430 87.558 7.8101
186.195984 87.559 7.7793
187.545227 87.559 7.7501
188.904266 87.557 7.7289
190.273132 87.554 7.7140
191.651932 87.553 7.7070
193.040726 87.552 7.7040
194.439575 87.552 7.7018
195.848572 87.552 7.7000
197.267761 87.553 7.6983
198.697250 87.554 7.6930
200.137085 87.557 7.6800
201.587372 87.559 7.6611
203.048157 87.559 7.6347
204.519531 87.557 7.6061
206.001556 87.554 7.5794
207.494324 87.549 7.5561
208.997925 87.544 7.5388
210.512405 87.537 7.5280
212.037857 87.529 7.5246
213.574371 87.521 7.5300
215.122025 87.512 7.5467
216.680893 87.503 7.5729
218.251053 87.495 7.6080
219.832581 87.488 7.6509
221.425583 87.481 7.7000
223.030121 87.475 7.7558
224.646286 87.470 7.8184
226.274170 87.465 7.8868
227.913849 87.461 7.9606
229.565399 87.458 8.0388
231.228928 87.457 8.1206
232.904510 87.456 8.2057
234.592224 87.456 8.2932
236.292191 87.457 8.3838
238.004456 87.458 8.4779
239.729126 87.461 8.5747
241.466309 87.466 8.6735
243.216080 87.472 8.7737
244.978516 87.478 8.8744
246.753738 87.486 8.9757
248.541809 87.496 9.0782
250.342850 87.507 9.1797
252.156937 87.520 9.2783
253.984161 87.534 9.3737
255.824646 87.549 9.4655
257.678467 87.566 9.5528
259.545685 87.585 9.6360
261.426483 87.605 9.7118
263.320862 87.627 9.7773
265.229004 87.651 9.8319
267.150970 87.676 9.8744
269.086853 87.701 9.9039
271.036774 87.726 9.9187
273.000824 87.752 9.9200
274.979095 87.777 9.9084
276.971710 87.802 9.8851
278.978760 87.826 9.8512
281.000336 87.849 9.8071
283.036591 87.872 9.7529
285.087585 87.894 9.6902
287.153442 87.914 9.6198
289.234283 87.933 9.5442
291.330200 87.950 9.4666
293.441284 87.966 9.3862
295.567688 87.982 9.3034
297.709503 87.998 9.2182
299.866821 88.013 9.1306
302.039795 88.027 9.0413
304.228485 88.041 8.9524
306.433044 88.055 8.8593
308.653595 88.071 8.7589
310.890228 88.088 8.6483
313.143066 88.103 8.5229
315.412231 88.118 8.3844
317.697845 88.131 8.2332
320.000000 88.143 8.0695
322.318848 88.153 7.8923
324.654510 88.160 7.7056
327.007080 88.162 7.5114
329.376709 88.161 7.3146
331.763519 88.157 7.1204
334.167603 88.150 6.9296
336.589142 88.140 6.7437
339.028198 88.127 6.5655
341.484924 88.110 6.3979
343.959473 88.091 6.2424
346.451935 88.070 6.1015
348.962463 88.047 5.9753
351.491211 88.022 5.8644
354.038239 87.996 5.7702
356.603760 87.968 5.6941
359.187866 87.939 5.6371
361.790680 87.909 5.6010
364.412354 87.879 5.5850
367.053040 87.849 5.5886
369.712860 87.820 5.6129
372.391968 87.791 5.6593
375.090454 87.764 5.7258
377.808533 87.740 5.8122
380.546265 87.718 5.9137
383.303864 87.700 6.0276
386.081451 87.685 6.1476
388.879150 87.675 6.2687
391.697144 87.669 6.3847
394.535522 87.666 6.4886
397.394501 87.666 6.5778
400.274170 87.667 6.6464
403.174744 87.669 6.6959
406.096313 87.670 6.7241
409.039062 87.670 6.7350
412.003113 87.668 6.7304
414.988647 87.662 6.7151
417.995850 87.652 6.6926
421.024811 87.639 6.6681
424.075714 87.622 6.6462
427.148743 87.601 6.6320
430.244049 87.576 6.6310
433.361786 87.548 6.6469
436.502106 87.517 6.6841
439.665161 87.482 6.7468
442.851166 87.444 6.8391
446.060242 87.405 6.9655
449.292572 87.365 7.1319
452.548340 87.325 7.3383
455.827698 87.286 7.5881
459.130798 87.249 7.8780
462.457855 87.217 8.2076
465.809021 87.189 8.5718
469.184448 87.168 8.9677
472.584381 87.153 9.3877
476.008911 87.147 9.8260
479.458252 87.148 10.2736
482.932617 87.158 10.7219
486.432159 87.175 11.1636
489.957031 87.200 11.5901
493.507477 87.232 11.9968
497.083618 87.269 12.3773
500.685699 87.312 12.7289
504.313873 87.358 13.0459
507.968323 87.407 13.3311
511.649292 87.455 13.5845
515.356934 87.505 13.8093
519.091370 87.555 14.0077
522.852966 87.606 14.1825
526.641724 87.655 14.3361
530.458008 87.703 14.4716
534.301941 87.751 14.5926
538.173706 87.799 14.6997
542.073547 87.846 14.7946
546.001648 87.894 14.8767
549.958191 87.942 14.9463
553.943420 87.990 15.0018
557.957520 88.038 15.0424
562.000671 88.087 15.0669
566.073181 88.135 15.0731
570.175171 88.182 15.0641
574.306885 88.227 15.0420
578.468567 88.271 15.0071
582.660400 88.314 14.9599
586.882568 88.356 14.9022
591.135376 88.395 14.8352
595.419006 88.433 14.7623
599.733643 88.469 14.6877
604.079590 88.505 14.6093
608.456970 88.541 14.5267
612.866089 88.577 14.4383
617.307190 88.612 14.3423
621.780457 88.646 14.2384
626.286133 88.680 14.1261
630.824463 88.714 14.0034
635.395691 88.748 13.8680
640.000000 88.781 13.7195
644.637695 88.811 13.5563
649.309021 88.840 13.3806
654.014160 88.866 13.1932
658.753418 88.890 12.9977
663.527039 88.910 12.7969
668.335205 88.926 12.5937
673.178284 88.940 12.3908
678.056396 88.951 12.1907
682.969849 88.959 11.9960
687.918945 88.964 11.8086
692.903870 88.966 11.6310
697.924927 88.967 11.4636
702.982422 88.967 11.3073
708.076477 88.965 11.1625
713.207520 88.961 11.0291
718.375732 88.957 10.9084
723.581360 88.952 10.8024
728.824707 88.948 10.7083
734.106079 88.945 10.6253
739.425720 88.942 10.5503
744.783936 88.941 10.4807
750.180908 88.941 10.4132
755.617065 88.942 10.3451
761.092529 88.944 10.2723
766.607727 88.948 10.1905
772.162903 88.951 10.0983
777.758301 88.953 9.9916
783.394287 88.953 9.8744
789.071045 88.950 9.7465
794.789001 88.943 9.6165
800.548340 88.930 9.4899
806.349487 88.912 9.3754
812.192627 88.890 9.2819
818.078125 88.865 9.2142
824.006226 88.836 9.1789
829.977295 88.805 9.1799
835.991699 88.773 9.2240
842.049622 88.742 9.3086
848.151428 88.715 9.4366
854.297485 88.692 9.5983
860.488098 88.676 9.7884
866.723572 88.666 9.9972
873.004211 88.664 10.2173
879.330322 88.669 10.4372
885.702332 88.682 10.6459
892.120483 88.701 10.8354
898.585144 88.726 10.9950
905.096680 88.755 11.1226
911.655396 88.786 11.2113
918.261597 88.817 11.2639
924.915710 88.847 11.2786
931.618042 88.875 11.2621
938.368896 88.899 11.2183
945.168762 88.920 11.1543
952.017822 88.936 11.0764
958.916504 88.947 10.9903
965.865234 88.955 10.9021
972.864319 88.958 10.8163
979.914062 88.956 10.7380
987.014954 88.951 10.6712
994.167236 88.943 10.6212
1001.371399 88.933 10.5891
1008.627747 88.921 10.5774
1015.936646 88.907 10.5879
1023.298584 88.892 10.6226
1030.713867 88.877 10.6828
1038.182739 88.863 10.7721
1045.705933 88.851 10.8845
1053.283447 88.843 11.0173
1060.916016 88.838 11.1634
1068.603882 88.838 11.3153
1076.347412 88.841 11.4704
1084.147095 88.847 11.6242
1092.003296 88.855 11.7745
1099.916382 88.866 11.9175
1107.886841 88.878 12.0534
1115.915039 88.892 12.1809
1124.001343 88.907 12.3006
1132.146362 88.922 12.4120
1140.350342 88.938 12.5166
1148.613770 88.954 12.6157
1156.937134 88.971 12.7086
1165.320801 88.988 12.7964
1173.765137 89.006 12.8757
1182.270752 89.025 12.9425
1190.838013 89.043 12.9988
1199.467285 89.059 13.0429
1208.159180 89.074 13.0809
1216.913940 89.086 13.1168
1225.732178 89.095 13.1549
1234.614380 89.102 13.1999
1243.560913 89.107 13.2538
1252.572266 89.111 13.3198
1261.648926 89.115 13.3987
1270.791382 89.117 13.4919
1280.000000 89.120 13.5996
1289.275391 89.123 13.7225
1298.618042 89.128 13.8594
1308.028320 89.134 14.0105
1317.506836 89.142 14.1723
1327.054077 89.152 14.3422
1336.670410 89.164 14.5183
1346.356567 89.178 14.6988
1356.112793 89.195 14.8813
1365.939697 89.214 15.0637
1375.837891 89.235 15.2433
1385.807739 89.258 15.4161
1395.849854 89.282 15.5843
1405.964844 89.305 15.7476
1416.152954 89.329 15.9094
1426.415039 89.352 16.0718
1436.751465 89.375 16.2383
1447.162720 89.397 16.4122
1457.649414 89.420 16.5972
1468.212158 89.443 16.7993
1478.851440 89.469 17.0161
1489.567871 89.498 17.2498
1500.361816 89.532 17.4931
1511.234131 89.571 17.7418
1522.185059 89.615 17.9889
1533.215454 89.666 18.2286
1544.325806 89.723 18.4521
1555.516602 89.785 18.6505
1566.788574 89.853 18.8184
1578.142090 89.924 18.9472
1589.578003 89.997 19.0367
1601.096680 90.070 19.0822
1612.698975 90.142 19.0890
1624.385254 90.211 19.0598
1636.156250 90.279 18.9983
1648.012451 90.343 18.9081
1659.954590 90.404 18.7935
1671.983398 90.461 18.6604
1684.099243 90.516 18.5077
1696.302856 90.569 18.3372
1708.594971 90.620 18.1449
1720.976196 90.667 17.9270
1733.447144 90.710 17.6841
1746.008423 90.748 17.4132
1758.660645 90.778 17.1212
1771.404663 90.799 16.8081
1784.240967 90.809 16.4923
1797.170288 90.804 16.1842
1810.193359 90.786 15.9080
1823.310791 90.754 15.6853
1836.523193 90.710 15.5344
1849.831421 90.657 15.4783
1863.236084 90.597 15.5245
1876.737793 90.534 15.6899
1890.337524 90.473 15.9695
1904.035645 90.419 16.3707
1917.833008 90.376 16.8728
1931.730469 90.349 17.4662
1945.728638 90.339 18.1251
1959.828125 90.350 18.8282
1974.029907 90.380 19.5519
1988.334473 90.430 20.2709
2002.742798 90.497 20.9683
2017.255493 90.580 21.6206
2031.873291 90.676 22.2217
2046.597168 90.781 22.7558
2061.427734 90.893 23.2280
2076.365479 91.009 23.6374
2091.411865 91.128 23.9877
2106.566895 91.249 24.2806
2121.832031 91.370 24.5211
2137.207764 91.492 24.7111
2152.694824 91.612 24.8605
2168.294189 91.728 24.9796
2184.006592 91.842 25.0697
2199.832764 91.959 25.1355
2215.773682 92.075 25.1759
2231.830078 92.188 25.1887
2248.002686 92.301 25.1811
2264.292725 92.410 25.1584
2280.700684 92.518 25.1242
2297.227539 92.623 25.0825
2313.874268 92.727 25.0372
2330.641602 92.829 24.9917
2347.530273 92.930 24.9512
2364.541504 93.030 24.9204
2381.676025 93.132 24.9030
2398.934570 93.233 24.9045
2416.318359 93.338 24.9249
2433.827881 93.448 24.9696
2451.464355 93.565 25.0277
2469.228760 93.693 25.0955
2487.121826 93.831 25.1568
2505.144531 93.983 25.1998
2523.297852 94.145 25.2071
2541.582764 94.320 25.1613
2560.000000 94.503 25.0497
2578.550781 94.694 24.8543
2597.236084 94.889 24.5735
2616.056641 95.085 24.1975
2635.013672 95.280 23.7331
2654.108154 95.472 23.1811
2673.340820 95.659 22.5499
2692.713135 95.841 21.8450
2712.225586 96.017 21.0757
2731.879395 96.186 20.2537
2751.675781 96.349 19.3772
2771.615479 96.511 18.4523
2791.699707 96.669 17.4675
2811.929688 96.823 16.4134
2832.305908 96.970 15.2894
2852.830078 97.108 14.0885
2873.502930 97.232 12.8207
2894.325439 97.342 11.4861
2915.298828 97.433 10.1084
2936.424316 97.501 8.6982
2957.702881 97.547 7.2941
2979.135742 97.567 5.9278
3000.723633 97.567 4.6305
3022.468262 97.547 3.4406
3044.370117 97.515 2.3687
3066.430908 97.476 1.4437
3088.651611 97.437 0.6473
3111.033203 97.407 -0.0182
3133.577148 97.389 -0.5865
3156.284180 97.387 -1.0787
3179.156006 97.403 -1.5299
3202.193359 97.439 -1.9744
3225.397949 97.491 -2.4357
3248.770508 97.555 -2.9484
3272.312500 97.629 -3.5143
3296.024902 97.706 -4.1484
3319.909180 97.787 -4.8456
3343.966797 97.867 -5.6076
3368.198486 97.947 -6.4290
3392.605713 98.022 -7.3056
3417.189941 98.095 -8.2346
3441.952393 98.163 -9.2113
3466.894287 98.227 -10.2363
3492.016846 98.285 -11.3120
3517.321289 98.334 -12.4278
3542.809326 98.372 -13.5789
3568.481934 98.398 -14.7496
3594.340576 98.411 -15.9278
3620.386719 98.412 -17.0975
3646.621582 98.399 -18.2431
3673.046387 98.374 -19.3508
3699.662842 98.340 -20.4041
3726.472168 98.297 -21.3956
3753.475586 98.249 -22.3124
3780.675049 98.197 -23.1554
3808.071289 98.145 -23.9192
3835.666016 98.095 -24.6099
3863.460938 98.050 -25.2288
3891.457275 98.010 -25.7845
3919.656250 97.979 -26.2818
3948.059814 97.957 -26.7330
3976.668945 97.949 -27.1466
4005.485596 97.954 -27.5391
4034.510986 97.974 -27.9241
4063.746582 98.009 -28.3191
4093.194336 98.060 -28.7373
4122.855469 98.128 -29.2046
4152.730957 98.214 -29.7418
4182.823730 98.314 -30.3767
4213.133789 98.430 -31.1367
4243.664062 98.553 -32.0443
4274.415527 98.682 -33.1294
4305.389648 98.807 -34.3963
4336.588379 98.922 -35.8699
4368.013184 99.018 -37.5188
4399.665527 99.083 -39.3413
4431.547363 99.113 -41.2724
4463.660156 99.099 -43.2730
4496.005371 99.042 -45.2622
4528.585449 98.938 -47.1672
4561.401367 98.795 -48.9231
4594.455078 98.613 -50.4444
4627.748535 98.411 -51.7194
4661.283203 98.200 -52.6890
4695.060547 97.996 -53.4110
4729.083008 97.819 -53.8910
4763.352051 97.676 -54.2286
4797.869141 97.583 -54.4991
4832.636719 97.529 -54.7824
4867.655762 97.515 -55.1742
4902.928711 97.526 -55.7030
4938.457520 97.552 -56.4364
4974.243652 97.578 -57.3512
5010.289062 97.589 -58.4673
5046.595703 97.580 -59.7224
5083.165527 97.538 -61.0797
5120.000000 97.466 -62.4821
5157.101562 97.362 -63.8714
5194.472168 97.230 -65.2136
5232.113281 97.071 -66.4617
5270.027344 96.890 -67.5966
5308.216309 96.691 -68.5851
5346.681641 96.480 -69.4233
5385.426270 96.263 -70.0975
5424.451172 96.040 -70.6049
5463.758789 95.814 -70.9352
5503.351562 95.591 -71.0966
5543.230957 95.379 -71.0834
5583.399414 95.182 -70.9271
5623.859375 95.006 -70.6465
5664.611816 94.852 -70.2740
5705.660156 94.725 -69.8402
5747.005859 94.621 -69.3695
5788.650879 94.543 -68.8949
5830.597656 94.483 -68.4214
5872.848633 94.439 -67.9679
5915.405762 94.409 -67.5253
5958.271484 94.390 -67.0928
6001.447266 94.384 -66.6642
6044.936523 94.390 -66.2289
6088.740234 94.412 -65.7991
6132.861816 94.455 -65.3737
6177.303223 94.520 -64.9828
6222.066406 94.610 -64.6469
6267.154297 94.723 -64.3950
6312.568359 94.858 -64.2553
6358.312012 95.009 -64.2516
6404.386719 95.177 -64.4151
6450.795898 95.352 -64.7518
6497.541016 95.527 -65.2840
6544.625000 95.697 -65.9940
6592.049805 95.856 -66.8795
6639.818359 96.000 -67.9163
6687.933594 96.127 -69.0906
6736.396973 96.233 -70.3692
6785.211426 96.313 -71.7252
6834.379883 96.371 -73.1257
6883.904785 96.406 -74.5354
6933.788574 96.422 -75.9339
6984.033691 96.419 -77.2934
7034.642578 96.400 -78.6006
7085.618652 96.369 -79.8319
7136.963867 96.331 -80.9894
7188.681152 96.291 -82.0638
7240.773438 96.250 -83.0661
7293.243164 96.213 -83.9984
7346.092773 96.182 -84.8787
7399.325684 96.163 -85.7172
7452.944336 96.155 -86.5399
7506.951172 96.161 -87.3689
7561.350098 96.179 -88.2255
7616.142578 96.208 -89.1346
7671.332031 96.245 -90.1078
7726.921875 96.289 -91.1617
7782.914551 96.337 -92.3058
7839.312500 96.386 -93.5547
7896.119629 96.434 -94.9105
7953.337891 96.476 -96.3833
8010.971191 96.509 -97.9644
8069.021973 96.528 -99.6536
8127.493164 96.530 -101.4344
8186.388672 96.513 -103.2994
8245.710938 96.472 -105.2197
8305.461914 96.404 -107.1788
8365.647461 96.308 -109.1328
8426.267578 96.178 -111.0480
8487.328125 96.018 -112.8757
8548.831055 95.827 -114.5675
8610.779297 95.610 -116.0865
8673.176758 95.371 -117.3824
8736.026367 95.120 -118.4469
8799.331055 94.866 -119.2436
8863.094727 94.622 -119.8066
8927.320312 94.401 -120.1350
8992.010742 94.211 -120.2995
9057.170898 94.067 -120.3457
9122.802734 93.966 -120.3490
9188.910156 93.917 -120.3805
9255.497070 93.909 -120.4990
9322.566406 93.940 -120.7782
9390.121094 93.998 -121.2440
9458.166016 94.072 -121.9525
9526.704102 94.152 -122.8855
9595.738281 94.222 -124.0591
9665.273438 94.277 -125.4243
9735.311523 94.307 -126.9552
9805.857422 94.313 -128.5969
9876.915039 94.290 -130.2967
9948.487305 94.243 -132.0226
10020.578125 94.176 -133.7209
10093.191406 94.097 -135.4039
10166.331055 94.015 -137.0537
10240.000000 93.931 -138.7092
10314.203125 93.851 -140.3901
10388.944336 93.771 -142.1365
10464.226562 93.696 -143.9887
10540.054688 93.615 -145.9648
10616.432617 93.521 -148.1093
10693.363281 93.403 -150.3831
10770.852539 93.248 -152.7923
10848.902344 93.049 -155.2467
10927.517578 92.794 -157.6975
11006.703125 92.481 -160.0259
11086.461914 92.100 -162.1256
11166.798828 91.664 -163.9091
11247.718750 91.177 -165.2592
11329.223633 90.657 -166.1586
11411.320312 90.115 -166.5337
11494.011719 89.576 -166.4388
11577.301758 89.062 -165.8616
11661.195312 88.595 -164.9290
11745.697266 88.207 -163.7202
11830.811523 87.893 -162.3675
11916.542969 87.669 -161.0056
12002.894531 87.516 -159.7079
12089.873047 87.427 -158.5936
12177.480469 87.379 -157.6588
12265.723633 87.352 -156.9651
12354.606445 87.331 -156.4325
12444.132812 87.295 -156.0284
12534.308594 87.251 -155.6690
12625.136719 87.194 -155.2680
12716.624023 87.139 -154.7997
12808.773438 87.096 -154.1947
12901.591797 87.084 -153.4982
12995.082031 87.121 -152.6915
13089.250000 87.217 -151.8978
13184.099609 87.398 -151.1930
13279.636719 87.642 -150.7028
13375.867188 87.946 -150.5625
13472.793945 88.285 -150.8193
13570.422852 88.636 -151.5711
13668.759766 88.982 -152.7993
13767.809570 89.304 -154.5444
13867.577148 89.588 -156.7252
13968.067383 89.814 -159.3148
14069.285156 89.979 -162.1880
14171.237305 90.074 -165.2428
14273.927734 90.108 -168.3804
14377.362305 90.082 -171.4850
14481.546875 90.007 -174.5058
14586.486328 89.888 -177.3530
14692.185547 89.741 179.9720
14798.651367 89.578 177.5180
14905.888672 89.414 175.2269
15013.902344 89.266 173.0862
15122.700195 89.138 171.0058
15232.285156 89.042 168.9232
15342.664062 88.974 166.7418
15453.843750 88.940 164.3649
15565.829102 88.921 161.7281
15678.625000 88.909 158.7344
15792.239258 88.882 155.3851
15906.675781 88.826 151.6182
16021.942383 88.719 147.5280
16138.043945 88.538 143.1316
16254.986328 88.275 138.6015
16372.777344 87.912 134.0507
16491.421875 87.449 129.6765
16610.923828 86.874 125.6578
16731.294922 86.196 122.1635
16852.535156 85.410 119.4061
16974.656250 84.543 117.4334
17097.662109 83.610 116.3996
17221.558594 82.656 116.1958
17346.353516 81.717 116.8362
17472.052734 80.842 118.1007
17598.662109 80.078 119.8740
17726.189453 79.457 121.8524
17854.640625 79.043 123.7673
17984.021484 78.783 125.3952
18114.341797 78.662 126.4304
18245.605469 78.623 126.8515
18377.820312 78.618 126.4836
18510.994141 78.599 125.4855
18645.132812 78.510 123.8515
18780.242188 78.333 121.9050
18916.332031 78.024 119.8902
19053.408203 77.605 118.0455
19191.476562 77.077 116.6828
19330.546875 76.464 115.8261
19470.623047 75.773 115.6208
19611.714844 75.044 116.0091
19753.830078 74.301 117.0428
19896.974609 73.601 118.5358
