* Measurement data measured by REW V5.20.13
* Source: C:\Users\kurin\Desktop\Targets and Curves\Resolve\Img\Files\nectar sound ambrosia_SPL.txt
* Format: Comma/Tab/Space delimited data
* Dated: Aug 15, 2023 12:15:22 AM
* REW Settings:
*  C-weighting compensation: Off
*  Target level: 75.0 dB
* Note: ; Measurement imported from C:\Users\kurin\Desktop\Targets and Curves\Resolve\Img\Files\nectar sound ambrosia_SPL.txt Format: Comma/Tab/Space delimited data 623 values loaded, 5 Hz to 39,792 Hz log spaced 
* Measurement: nectar sound ambrosia_SPL
* Smoothing: 1/48 octave
* Frequency Step: 1/96 octave
* Start Frequency: 5.000 Hz
*
* Freq(Hz) SPL(dB) Phase(degrees)
5.000000 64.381 85.8990
5.036232 64.409 85.8772
5.072727 64.440 85.8540
5.109486 64.476 85.8277
5.146511 64.518 85.7980
5.183805 64.568 85.7627
5.221369 64.622 85.7250
5.259205 64.678 85.6876
5.297316 64.736 85.6490
5.335702 64.799 85.6083
5.374367 64.863 85.5670
5.413311 64.927 85.5264
5.452538 64.990 85.4860
5.492050 65.053 85.4456
5.531847 65.116 85.4050
5.571934 65.179 85.3636
5.612310 65.243 85.3220
5.652979 65.307 85.2806
5.693943 65.370 85.2390
5.735204 65.433 85.1966
5.776763 65.496 85.1540
5.818624 65.559 85.1116
5.860788 65.623 85.0690
5.903258 65.687 85.0257
5.946035 65.750 84.9820
5.989123 65.813 84.9381
6.032523 65.876 84.8940
6.076237 65.939 84.8496
6.120268 66.003 84.8050
6.164618 66.067 84.7602
6.209289 66.130 84.7150
6.254284 66.193 84.6692
6.299605 66.256 84.6230
6.345255 66.319 84.5766
6.391235 66.383 84.5300
6.437549 66.447 84.4831
6.484198 66.510 84.4360
6.531185 66.573 84.3887
6.578513 66.636 84.3410
6.626183 66.699 84.2927
6.674199 66.763 84.2440
6.722563 66.827 84.1951
6.771278 66.890 84.1460
6.820345 66.953 84.0967
6.869768 67.016 84.0470
6.919549 67.079 83.9968
6.969691 67.143 83.9460
7.020196 67.207 83.8946
7.071068 67.270 83.8430
7.122308 67.333 83.7917
7.173919 67.396 83.7400
7.225904 67.459 83.6873
7.278266 67.523 83.6340
7.331007 67.587 83.5806
7.384131 67.650 83.5270
7.437639 67.713 83.4732
7.491535 67.776 83.4190
7.545822 67.839 83.3642
7.600502 67.903 83.3090
7.655579 67.967 83.2538
7.711054 68.030 83.1980
7.766932 68.093 83.1413
7.823214 68.156 83.0840
7.879904 68.219 83.0266
7.937005 68.283 82.9690
7.994520 68.346 82.9112
8.052452 68.410 82.8530
8.110803 68.474 82.7943
8.169578 68.537 82.7350
8.228777 68.600 82.6753
8.288406 68.663 82.6150
8.348468 68.726 82.5543
8.408964 68.790 82.4930
8.469899 68.854 82.4312
8.531276 68.917 82.3690
8.593097 68.980 82.3068
8.655366 69.043 82.2440
8.718086 69.106 82.1803
8.781260 69.170 82.1160
8.844893 69.234 82.0517
8.908987 69.297 81.9870
8.973545 69.360 81.9218
9.038571 69.423 81.8560
9.104069 69.486 81.7898
9.170040 69.550 81.7230
9.236490 69.614 81.6553
9.303422 69.677 81.5870
9.370838 69.740 81.5187
9.438744 69.803 81.4500
9.507140 69.866 81.3808
9.576033 69.930 81.3110
9.645425 69.994 81.2408
9.715320 70.057 81.1700
9.785721 70.120 81.0984
9.856632 70.183 81.0260
9.928058 70.246 80.9532
10.000000 70.310 80.8800
10.072464 70.374 80.8069
10.145453 70.437 80.7331
10.218971 70.500 80.6579
10.293022 70.563 80.5820
10.367610 70.626 80.5063
10.442738 70.690 80.4300
10.518411 70.754 80.3528
10.594631 70.817 80.2750
10.671404 70.880 80.1968
10.748734 70.943 80.1180
10.826623 71.006 80.0383
10.905077 71.070 79.9581
10.984100 71.134 79.8774
11.063695 71.197 79.7961
11.143867 71.260 79.7138
11.224621 71.323 79.6310
11.305959 71.386 79.5479
11.387886 71.450 79.4641
11.470407 71.514 79.3794
11.553527 71.577 79.2940
11.637249 71.640 79.2079
11.721577 71.703 79.1211
11.806517 71.766 79.0339
11.892071 71.830 78.9461
11.978246 71.894 78.8574
12.065045 71.957 78.7680
12.152473 72.020 78.6779
12.240536 72.083 78.5870
12.329235 72.146 78.4954
12.418578 72.210 78.4031
12.508568 72.274 78.3099
12.599211 72.337 78.2161
12.690510 72.400 78.1214
12.782471 72.463 78.0261
12.875097 72.526 77.9305
12.968395 72.590 77.8341
13.062370 72.654 77.7365
13.157025 72.717 77.6380
13.252366 72.780 77.5384
13.348398 72.843 77.4381
13.445127 72.906 77.3375
13.542556 72.970 77.2361
13.640691 73.033 77.1335
13.739536 73.097 77.0300
13.839099 73.161 76.9259
13.939383 73.224 76.8211
14.040393 73.287 76.7155
14.142136 73.350 76.6090
14.244616 73.413 76.5015
14.347837 73.477 76.3930
14.451808 73.541 76.2835
14.556532 73.604 76.1730
14.662014 73.667 76.0621
14.768262 73.730 75.9501
14.875278 73.793 75.8366
14.983070 73.857 75.7221
15.091644 73.921 75.6071
15.201005 73.984 75.4911
15.311157 74.047 75.3736
15.422109 74.110 75.2551
15.533863 74.173 75.1361
15.646428 74.237 75.0161
15.759809 74.301 74.8946
15.874010 74.364 74.7721
15.989040 74.427 74.6491
16.104904 74.490 74.5251
16.221605 74.553 74.3998
16.339155 74.617 74.2732
16.457554 74.680 74.1452
16.576813 74.744 74.0161
16.696936 74.807 73.8861
16.817928 74.870 73.7551
16.939798 74.933 73.6227
17.062551 74.997 73.4892
17.186193 75.061 73.3547
17.310732 75.124 73.2191
17.436172 75.187 73.0822
17.562521 75.250 72.9441
17.689787 75.313 72.8047
17.817974 75.377 72.6642
17.947090 75.441 72.5227
18.077143 75.504 72.3801
18.208138 75.567 72.2362
18.340080 75.630 72.0912
18.472980 75.693 71.9447
18.606844 75.757 71.7971
18.741676 75.821 71.6480
18.877487 75.884 71.4982
19.014280 75.947 71.3479
19.152065 76.010 71.1972
19.290850 76.073 71.0464
19.430639 76.137 70.8951
19.571442 76.201 70.7430
19.713264 76.266 70.5892
19.856115 76.331 70.4337
20.000000 76.397 70.2742
20.144928 76.464 70.1087
20.290907 76.532 69.9362
20.437943 76.599 69.7540
20.586044 76.666 69.5651
20.735220 76.730 69.3711
20.885475 76.794 69.1732
21.036821 76.858 68.9736
21.189262 76.921 68.7723
21.342808 76.983 68.5693
21.497467 77.045 68.3672
21.653246 77.105 68.1691
21.810154 77.165 67.9743
21.968201 77.226 67.7841
22.127390 77.288 67.5952
22.287735 77.350 67.4046
22.449242 77.413 67.2122
22.611917 77.477 67.0173
22.775772 77.541 66.8182
22.940815 77.606 66.6130
23.107054 77.672 66.4013
23.274498 77.737 66.1823
23.443153 77.803 65.9553
23.613033 77.869 65.7193
23.784142 77.935 65.4742
23.956491 78.000 65.2186
24.130091 78.063 64.9553
24.304947 78.125 64.6862
24.481071 78.185 64.4124
24.658470 78.244 64.1348
24.837156 78.301 63.8554
25.017136 78.357 63.5758
25.198421 78.411 63.2983
25.381020 78.464 63.0261
25.564941 78.516 62.7582
25.750195 78.568 62.4947
25.936790 78.619 62.2363
26.124741 78.669 61.9833
26.314051 78.719 61.7373
26.504732 78.769 61.5012
26.696796 78.820 61.2713
26.890253 78.873 61.0451
27.085112 78.927 60.8213
27.281382 78.982 60.5987
27.479073 79.039 60.3743
27.678198 79.098 60.1464
27.878765 79.160 59.9093
28.080786 79.223 59.6570
28.284271 79.287 59.3894
28.489231 79.351 59.1042
28.695675 79.415 58.8014
28.903616 79.478 58.4794
29.113064 79.539 58.1405
29.324028 79.597 57.7841
29.536524 79.653 57.4174
29.750557 79.704 57.0470
29.966141 79.753 56.6744
30.183289 79.800 56.3025
30.402010 79.844 55.9334
30.622314 79.885 55.5694
30.844217 79.923 55.2134
31.067726 79.960 54.8706
31.292856 79.997 54.5375
31.519617 80.034 54.2128
31.748020 80.071 53.8954
31.978081 80.107 53.5839
32.209808 80.144 53.2784
32.443211 80.181 52.9796
32.678310 80.219 52.6834
32.915108 80.257 52.3857
33.153625 80.296 52.0874
33.393871 80.334 51.7882
33.635857 80.373 51.4875
33.879597 80.413 51.1847
34.125103 80.452 50.8784
34.372387 80.490 50.5664
34.621464 80.528 50.2505
34.872345 80.565 49.9318
35.125042 80.602 49.6104
35.379574 80.638 49.2865
35.635948 80.673 48.9604
35.894180 80.707 48.6320
36.154285 80.740 48.3025
36.416275 80.772 47.9728
36.680161 80.802 47.6435
36.945961 80.831 47.3147
37.213688 80.859 46.9885
37.483353 80.885 46.6669
37.754974 80.910 46.3505
38.028561 80.934 46.0409
38.304131 80.958 45.7374
38.581699 80.982 45.4397
38.861279 81.005 45.1474
39.142883 81.028 44.8596
39.426529 81.051 44.5774
39.712231 81.073 44.3020
40.000000 81.095 44.0324
40.289856 81.117 43.7681
40.581814 81.140 43.5084
40.875885 81.163 43.2528
41.172089 81.187 43.0004
41.470440 81.211 42.7504
41.770950 81.235 42.5024
42.073643 81.261 42.2568
42.378525 81.287 42.0103
42.685616 81.314 41.7599
42.994934 81.341 41.5054
43.306492 81.369 41.2456
43.620308 81.396 40.9814
43.936401 81.422 40.7125
44.254780 81.447 40.4414
44.575470 81.471 40.1708
44.898483 81.495 39.9004
45.223835 81.518 39.6308
45.551544 81.540 39.3634
45.881630 81.561 39.0993
46.214108 81.582 38.8394
46.548996 81.603 38.5860
46.886307 81.624 38.3364
47.226067 81.646 38.0893
47.568283 81.668 37.8434
47.912983 81.690 37.5972
48.260181 81.713 37.3504
48.609894 81.735 37.1026
48.962143 81.758 36.8534
49.316940 81.781 36.6018
49.674313 81.804 36.3484
50.034271 81.827 36.0937
50.396843 81.849 35.8374
50.762039 81.871 35.5788
51.129883 81.892 35.3194
51.500389 81.912 35.0604
51.873581 81.932 34.8024
52.249481 81.952 34.5473
52.628101 81.972 34.2924
53.009464 81.993 34.0356
53.393593 82.014 33.7774
53.780506 82.033 33.5178
54.170223 82.052 33.2574
54.562763 82.071 32.9973
54.958145 82.090 32.7364
55.356396 82.108 32.4735
55.757530 82.126 32.2104
56.161572 82.143 31.9487
56.568542 82.159 31.6884
56.978462 82.175 31.4307
57.391350 82.191 31.1745
57.807232 82.207 30.9190
58.226128 82.222 30.6644
58.648056 82.237 30.4110
59.073048 82.253 30.1574
59.501114 82.269 29.9025
59.932281 82.285 29.6465
60.366577 82.300 29.3890
60.804020 82.314 29.1304
61.244629 82.329 28.8711
61.688435 82.343 28.6104
62.135452 82.356 28.3471
62.585712 82.369 28.0835
63.039234 82.380 27.8218
63.496040 82.391 27.5614
63.956161 82.403 27.3029
64.419617 82.414 27.0445
64.886421 82.425 26.7837
65.356621 82.434 26.5234
65.830215 82.441 26.2656
66.307251 82.448 26.0105
66.787743 82.456 25.7596
67.271713 82.463 25.5125
67.759193 82.469 25.2689
68.250206 82.474 25.0294
68.744774 82.479 24.7952
69.242928 82.485 24.5644
69.744690 82.491 24.3356
70.250084 82.498 24.1084
70.759148 82.503 23.8822
71.271896 82.509 23.6574
71.788361 82.515 23.4345
72.308571 82.522 23.2124
72.832550 82.528 22.9899
73.360321 82.534 22.7684
73.891922 82.539 22.5497
74.427376 82.545 22.3314
74.966705 82.551 22.1118
75.509949 82.558 21.8914
76.057121 82.564 21.6702
76.608261 82.569 21.4474
77.163399 82.575 21.2220
77.722557 82.580 20.9945
78.285767 82.584 20.7646
78.853058 82.588 20.5345
79.424461 82.590 20.3056
80.000000 82.592 20.0794
80.579712 82.593 19.8584
81.163628 82.593 19.6414
81.751770 82.593 19.4282
82.344177 82.593 19.2184
82.940880 82.593 19.0120
83.541901 82.593 18.8084
84.147285 82.593 18.6073
84.757050 82.593 18.4084
85.371231 82.593 18.2111
85.989868 82.593 18.0154
86.612984 82.593 17.8208
87.240616 82.593 17.6274
87.872803 82.593 17.4349
88.509560 82.593 17.2434
89.150940 82.593 17.0526
89.796967 82.593 16.8624
90.447670 82.593 16.6725
91.103088 82.593 16.4824
91.763260 82.593 16.2918
92.428215 82.593 16.1004
93.097992 82.593 15.9076
93.772614 82.593 15.7134
94.452133 82.593 15.5174
95.136566 82.592 15.3194
95.825966 82.590 15.1185
96.520363 82.588 14.9164
97.219788 82.584 14.7140
97.924286 82.580 14.5134
98.633881 82.575 14.3176
99.348625 82.569 14.1254
100.068542 82.563 13.9369
100.793686 82.557 13.7515
101.524078 82.551 13.5682
102.259766 82.544 13.3874
103.000778 82.537 13.2098
103.747162 82.530 13.0333
104.498962 82.524 12.8565
105.256203 82.517 12.6793
106.018929 82.510 12.5014
106.787186 82.502 12.3233
107.561012 82.494 12.1449
108.340446 82.484 11.9683
109.125526 82.473 11.7949
109.916290 82.461 11.6263
110.712791 82.448 11.4650
111.515060 82.435 11.3103
112.323143 82.422 11.1627
113.137085 82.409 11.0213
113.956924 82.396 10.8856
114.782700 82.383 10.7553
115.614464 82.370 10.6298
116.452255 82.358 10.5092
117.296112 82.347 10.3948
118.146095 82.336 10.2822
119.002228 82.327 10.1682
119.864563 82.319 10.0513
120.733154 82.311 9.9288
121.608040 82.303 9.8023
122.489258 82.295 9.6726
123.376869 82.286 9.5393
124.270905 82.277 9.4024
125.171425 82.267 9.2623
126.078468 82.256 9.1179
126.992081 82.243 8.9733
127.912323 82.228 8.8321
128.839233 82.211 8.6953
129.772842 82.194 8.5654
130.713242 82.176 8.4422
131.660431 82.158 8.3257
132.614502 82.139 8.2173
133.575485 82.118 8.1189
134.543427 82.097 8.0292
135.518387 82.078 7.9484
136.500412 82.060 7.8741
137.489548 82.041 7.8039
138.485855 82.023 7.7382
139.489380 82.006 7.6776
140.500168 81.989 7.6191
141.518295 81.974 7.5606
142.543793 81.960 7.5002
143.576721 81.946 7.4346
144.617142 81.931 7.3662
145.665100 81.915 7.2963
146.720642 81.899 7.2242
147.783844 81.883 7.1493
148.854752 81.867 7.0722
149.933411 81.849 6.9928
151.019897 81.829 6.9132
152.114243 81.807 6.8352
153.216522 81.784 6.7602
154.326797 81.759 6.6894
155.445114 81.732 6.6251
156.571533 81.703 6.5695
157.706116 81.672 6.5251
158.848923 81.639 6.4944
160.000000 81.604 6.4800
161.159424 81.568 6.4843
162.327255 81.530 6.5099
163.503540 81.491 6.5606
164.688354 81.451 6.6358
165.881760 81.413 6.7364
167.083801 81.376 6.8616
168.294571 81.340 7.0113
169.514099 81.306 7.1845
170.742462 81.274 7.3810
171.979736 81.245 7.5984
173.225967 81.219 7.8350
174.481232 81.197 8.0894
175.745605 81.178 8.3608
177.019119 81.164 8.6453
178.301880 81.155 8.9407
179.593933 81.152 9.2412
180.895340 81.153 9.5413
182.206177 81.160 9.8383
183.526520 81.171 10.1298
184.856430 81.188 10.4104
186.195984 81.210 10.6752
187.545227 81.236 10.9204
188.904266 81.266 11.1412
190.273132 81.298 11.3366
191.651932 81.332 11.5032
193.040726 81.368 11.6436
194.439575 81.403 11.7593
195.848572 81.439 11.8508
197.267761 81.474 11.9187
198.697250 81.509 11.9649
200.137085 81.543 11.9908
201.587372 81.575 11.9990
203.048157 81.605 11.9919
204.519531 81.634 11.9711
206.001556 81.660 11.9382
207.494324 81.685 11.8961
208.997925 81.708 11.8481
210.512405 81.729 11.7941
212.037857 81.748 11.7343
213.574371 81.765 11.6721
215.122025 81.780 11.6111
216.680893 81.793 11.5522
218.251053 81.805 11.4983
219.832581 81.817 11.4471
221.425583 81.828 11.3964
223.030121 81.839 11.3481
224.646286 81.848 11.3040
226.274170 81.857 11.2621
227.913849 81.867 11.2217
229.565399 81.878 11.1801
231.228928 81.888 11.1336
232.904510 81.897 11.0851
234.592224 81.905 11.0363
236.292191 81.912 10.9871
238.004456 81.919 10.9382
239.729126 81.925 10.8901
241.466309 81.930 10.8427
243.216080 81.933 10.7991
244.978516 81.935 10.7622
246.753738 81.936 10.7321
248.541809 81.937 10.7099
250.342850 81.939 10.6950
252.156937 81.940 10.6881
253.984161 81.942 10.6870
255.824646 81.945 10.6905
257.678467 81.950 10.6960
259.545685 81.956 10.6998
261.426483 81.962 10.7030
263.320862 81.967 10.7055
265.229004 81.973 10.7070
267.150970 81.979 10.7068
269.086853 81.986 10.7060
271.036774 81.992 10.7050
273.000824 81.997 10.7050
274.979095 82.002 10.7076
276.971710 82.007 10.7120
278.978760 82.013 10.7184
281.000336 82.019 10.7260
283.036591 82.025 10.7342
285.087585 82.032 10.7430
287.153442 82.039 10.7528
289.234283 82.047 10.7620
291.330200 82.055 10.7689
293.441284 82.064 10.7740
295.567688 82.072 10.7764
297.709503 82.079 10.7780
299.866821 82.087 10.7804
302.039795 82.095 10.7830
304.228485 82.103 10.7862
306.433044 82.111 10.7880
308.653595 82.120 10.7859
310.890228 82.129 10.7820
313.143066 82.136 10.7775
315.412231 82.143 10.7730
317.697845 82.150 10.7695
320.000000 82.157 10.7670
322.318848 82.164 10.7659
324.654510 82.171 10.7660
327.007080 82.178 10.7672
329.376709 82.185 10.7690
331.763519 82.192 10.7707
334.167603 82.199 10.7730
336.589142 82.206 10.7766
339.028198 82.213 10.7810
341.484924 82.220 10.7866
343.959473 82.227 10.7920
346.451935 82.235 10.7957
348.962463 82.244 10.7980
351.491211 82.251 10.7979
354.038239 82.258 10.7970
356.603760 82.265 10.7963
359.187866 82.271 10.7960
361.790680 82.277 10.7967
364.412354 82.282 10.7990
367.053040 82.287 10.8030
369.712860 82.292 10.8110
372.391968 82.295 10.8249
375.090454 82.298 10.8449
377.808533 82.302 10.8728
380.546265 82.306 10.9059
383.303864 82.311 10.9419
386.081451 82.317 10.9809
388.879150 82.323 11.0222
391.697144 82.329 11.0659
394.535522 82.336 11.1117
397.394501 82.344 11.1589
400.274170 82.352 11.2060
403.174744 82.361 11.2538
406.096313 82.369 11.3017
409.039062 82.378 11.3518
412.003113 82.386 11.4071
414.988647 82.395 11.4658
417.995850 82.405 11.5279
421.024811 82.416 11.5918
424.075714 82.427 11.6554
427.148743 82.439 11.7208
430.244049 82.451 11.7900
433.361786 82.463 11.8618
436.502106 82.477 11.9356
439.665161 82.492 12.0108
442.851166 82.507 12.0867
446.060242 82.523 12.1628
449.292572 82.540 12.2384
452.548340 82.559 12.3128
455.827698 82.578 12.3843
459.130798 82.598 12.4548
462.457855 82.618 12.5253
465.809021 82.639 12.5958
469.184448 82.661 12.6665
472.584381 82.684 12.7368
476.008911 82.707 12.8059
479.458252 82.731 12.8748
482.932617 82.756 12.9446
486.432159 82.782 13.0138
489.957031 82.810 13.0820
493.507477 82.840 13.1468
497.083618 82.872 13.2061
500.685699 82.905 13.2588
504.313873 82.939 13.3037
507.968323 82.975 13.3399
511.649292 83.011 13.3664
515.356934 83.048 13.3830
519.091370 83.086 13.3895
522.852966 83.125 13.3850
526.641724 83.164 13.3681
530.458008 83.203 13.3401
534.301941 83.241 13.3015
538.173706 83.279 13.2542
542.073547 83.317 13.2004
546.001648 83.354 13.1402
549.958191 83.391 13.0740
553.943420 83.427 13.0022
557.957520 83.463 12.9255
562.000671 83.499 12.8433
566.073181 83.535 12.7551
570.175171 83.572 12.6613
574.306885 83.608 12.5621
578.468567 83.643 12.4574
582.660400 83.678 12.3470
586.882568 83.713 12.2314
591.135376 83.748 12.1104
595.419006 83.782 11.9854
599.733643 83.816 11.8583
604.079590 83.850 11.7275
608.456970 83.885 11.5926
612.866089 83.921 11.4515
617.307190 83.956 11.3018
621.780457 83.992 11.1435
626.286133 84.028 10.9763
630.824463 84.064 10.7996
635.395691 84.099 10.6130
640.000000 84.134 10.4167
644.637695 84.167 10.2103
649.309021 84.200 9.9957
654.014160 84.232 9.7750
658.753418 84.263 9.5478
663.527039 84.293 9.3150
668.335205 84.323 9.0758
673.178284 84.352 8.8295
678.056396 84.380 8.5759
682.969849 84.407 8.3139
687.918945 84.434 8.0450
692.903870 84.459 7.7700
697.924927 84.482 7.4890
702.982422 84.504 7.2023
708.076477 84.526 6.9101
713.207520 84.546 6.6119
718.375732 84.565 6.3091
723.581360 84.582 6.0033
728.824707 84.598 5.6931
734.106079 84.614 5.3773
739.425720 84.628 5.0562
744.783936 84.640 4.7290
750.180908 84.650 4.3982
755.617065 84.658 4.0658
761.092529 84.664 3.7322
766.607727 84.668 3.3976
772.162903 84.670 3.0652
777.758301 84.669 2.7370
783.394287 84.665 2.4161
789.071045 84.660 2.1069
794.789001 84.655 1.8071
800.548340 84.650 1.5165
806.349487 84.646 1.2330
812.192627 84.641 0.9559
818.078125 84.637 0.6810
824.006226 84.636 0.4064
829.977295 84.636 0.1250
835.991699 84.638 -0.1704
842.049622 84.641 -0.4808
848.151428 84.642 -0.8102
854.297485 84.641 -1.1567
860.488098 84.640 -1.5199
866.723572 84.636 -1.8996
873.004211 84.628 -2.2968
879.330322 84.617 -2.7065
885.702332 84.601 -3.1254
892.120483 84.581 -3.5495
898.585144 84.556 -3.9746
905.096680 84.526 -4.3984
911.655396 84.492 -4.8182
918.261597 84.452 -5.2305
924.915710 84.408 -5.6322
931.618042 84.358 -6.0196
938.368896 84.305 -6.3897
945.168762 84.246 -6.7377
952.017822 84.182 -7.0593
958.916504 84.114 -7.3509
965.865234 84.044 -7.6083
972.864319 83.970 -7.8302
979.914062 83.895 -8.0151
987.014954 83.817 -8.1605
994.167236 83.738 -8.2638
1001.371399 83.659 -8.3249
1008.627747 83.582 -8.3408
1015.936646 83.507 -8.3182
1023.298584 83.437 -8.2598
1030.713867 83.371 -8.1733
1038.182739 83.310 -8.0653
1045.705933 83.253 -7.9416
1053.283447 83.202 -7.8078
1060.916016 83.155 -7.6706
1068.603882 83.113 -7.5382
1076.347412 83.074 -7.4105
1084.147095 83.036 -7.2912
1092.003296 82.999 -7.1764
1099.916382 82.962 -7.0646
1107.886841 82.925 -6.9525
1115.915039 82.888 -6.8372
1124.001343 82.851 -6.7165
1132.146362 82.814 -6.5862
1140.350342 82.777 -6.4485
1148.613770 82.742 -6.3038
1156.937134 82.709 -6.1536
1165.320801 82.677 -5.9996
1173.765137 82.646 -5.8427
1182.270752 82.617 -5.6842
1190.838013 82.588 -5.5247
1199.467285 82.560 -5.3655
1208.159180 82.533 -5.2056
1216.913940 82.505 -5.0446
1225.732178 82.477 -4.8816
1234.614380 82.450 -4.7154
1243.560913 82.423 -4.5466
1252.572266 82.396 -4.3764
1261.648926 82.368 -4.2017
1270.791382 82.339 -4.0202
1280.000000 82.310 -3.8308
1289.275391 82.280 -3.6323
1298.618042 82.250 -3.4229
1308.028320 82.219 -3.2010
1317.506836 82.187 -2.9641
1327.054077 82.155 -2.7089
1336.670410 82.124 -2.4351
1346.356567 82.093 -2.1406
1356.112793 82.064 -1.8272
1365.939697 82.037 -1.4958
1375.837891 82.012 -1.1475
1385.807739 81.989 -0.7834
1395.849854 81.968 -0.4035
1405.964844 81.950 -0.0074
1416.152954 81.934 0.4025
1426.415039 81.922 0.8245
1436.751465 81.913 1.2563
1447.162720 81.908 1.6954
1457.649414 81.905 2.1412
1468.212158 81.905 2.5920
1478.851440 81.908 3.0482
1489.567871 81.914 3.5098
1500.361816 81.923 3.9762
1511.234131 81.935 4.4475
1522.185059 81.951 4.9219
1533.215454 81.970 5.3975
1544.325806 81.993 5.8739
1555.516602 82.018 6.3496
1566.788574 82.046 6.8250
1578.142090 82.077 7.3009
1589.578003 82.112 7.7740
1601.096680 82.150 8.2411
1612.698975 82.192 8.7031
1624.385254 82.235 9.1597
1636.156250 82.281 9.6120
1648.012451 82.328 10.0607
1659.954590 82.378 10.5073
1671.983398 82.430 10.9533
1684.099243 82.485 11.3991
1696.302856 82.542 11.8462
1708.594971 82.603 12.2940
1720.976196 82.667 12.7434
1733.447144 82.735 13.1920
1746.008423 82.806 13.6391
1758.660645 82.883 14.0812
1771.404663 82.965 14.5166
1784.240967 83.052 14.9403
1797.170288 83.143 15.3468
1810.193359 83.239 15.7365
1823.310791 83.337 16.1070
1836.523193 83.438 16.4606
1849.831421 83.540 16.7981
1863.236084 83.646 17.1226
1876.737793 83.753 17.4368
1890.337524 83.864 17.7427
1904.035645 83.978 18.0445
1917.833008 84.098 18.3379
1931.730469 84.223 18.6227
1945.728638 84.355 18.8909
1959.828125 84.495 19.1367
1974.029907 84.641 19.3532
1988.334473 84.795 19.5343
2002.742798 84.955 19.6715
2017.255493 85.122 19.7563
2031.873291 85.293 19.7830
2046.597168 85.469 19.7442
2061.427734 85.647 19.6366
2076.365479 85.827 19.4529
2091.411865 86.005 19.1982
2106.566895 86.178 18.8718
2121.832031 86.346 18.4837
2137.207764 86.509 18.0408
2152.694824 86.665 17.5520
2168.294189 86.814 17.0251
2184.006592 86.956 16.4716
2199.832764 87.091 15.9043
2215.773682 87.221 15.3274
2231.830078 87.349 14.7518
2248.002686 87.476 14.1694
2264.292725 87.605 13.5791
2280.700684 87.734 12.9707
2297.227539 87.866 12.3352
2313.874268 87.997 11.6678
2330.641602 88.128 10.9608
2347.530273 88.255 10.2143
2364.541504 88.380 9.4245
2381.676025 88.500 8.5959
2398.934570 88.615 7.7281
2416.318359 88.724 6.8311
2433.827881 88.823 5.9117
2451.464355 88.917 4.9779
2469.228760 89.004 4.0384
2487.121826 89.086 3.0980
2505.144531 89.160 2.1629
2523.297852 89.231 1.2372
2541.582764 89.298 0.3286
2560.000000 89.364 -0.5681
2578.550781 89.431 -1.4527
2597.236084 89.499 -2.3329
2616.056641 89.568 -3.2128
2635.013672 89.641 -4.1022
2654.108154 89.717 -5.0090
2673.340820 89.796 -5.9429
2692.713135 89.875 -6.9158
2712.225586 89.955 -7.9291
2731.879395 90.033 -8.9887
2751.675781 90.108 -10.0928
2771.615479 90.179 -11.2440
2791.699707 90.244 -12.4346
2811.929688 90.301 -13.6594
2832.305908 90.352 -14.9131
2852.830078 90.396 -16.1891
2873.502930 90.435 -17.4853
2894.325439 90.467 -18.7987
2915.298828 90.493 -20.1259
2936.424316 90.511 -21.4624
2957.702881 90.524 -22.8091
2979.135742 90.533 -24.1638
3000.723633 90.537 -25.5310
3022.468262 90.537 -26.9132
3044.370117 90.532 -28.3135
3066.430908 90.522 -29.7355
3088.651611 90.507 -31.1814
3111.033203 90.485 -32.6544
3133.577148 90.456 -34.1548
3156.284180 90.419 -35.6866
3179.156006 90.370 -37.2425
3202.193359 90.309 -38.8211
3225.397949 90.234 -40.4084
3248.770508 90.144 -41.9946
3272.312500 90.040 -43.5660
3296.024902 89.919 -45.1093
3319.909180 89.785 -46.6141
3343.966797 89.635 -48.0672
3368.198486 89.474 -49.4635
3392.605713 89.301 -50.7941
3417.189941 89.119 -52.0583
3441.952393 88.928 -53.2524
3466.894287 88.729 -54.3761
3492.016846 88.524 -55.4276
3517.321289 88.314 -56.4076
3542.809326 88.098 -57.3178
3568.481934 87.876 -58.1533
3594.340576 87.649 -58.9106
3620.386719 87.417 -59.5880
3646.621582 87.182 -60.1831
3673.046387 86.945 -60.6948
3699.662842 86.705 -61.1202
3726.472168 86.465 -61.4616
3753.475586 86.226 -61.7182
3780.675049 85.989 -61.8964
3808.071289 85.755 -62.0019
3835.666016 85.524 -62.0360
3863.460938 85.294 -62.0012
3891.457275 85.068 -61.8986
3919.656250 84.847 -61.7307
3948.059814 84.629 -61.4962
3976.668945 84.413 -61.1965
4005.485596 84.200 -60.8270
4034.510986 83.991 -60.3828
4063.746582 83.787 -59.8656
4093.194336 83.589 -59.2730
4122.855469 83.399 -58.6124
4152.730957 83.219 -57.8879
4182.823730 83.049 -57.1068
4213.133789 82.888 -56.2762
4243.664062 82.738 -55.4012
4274.415527 82.597 -54.4887
4305.389648 82.467 -53.5407
4336.588379 82.345 -52.5629
4368.013184 82.233 -51.5519
4399.665527 82.126 -50.5082
4431.547363 82.027 -49.4254
4463.660156 81.935 -48.2995
4496.005371 81.849 -47.1240
4528.585449 81.773 -45.8917
4561.401367 81.706 -44.6013
4594.455078 81.651 -43.2482
4627.748535 81.610 -41.8350
4661.283203 81.586 -40.3596
4695.060547 81.581 -38.8326
4729.083008 81.598 -37.2573
4763.352051 81.639 -35.6537
4797.869141 81.708 -34.0359
4832.636719 81.804 -32.4250
4867.655762 81.928 -30.8399
4902.928711 82.080 -29.3014
4938.457520 82.261 -27.8292
4974.243652 82.468 -26.4453
5010.289062 82.700 -25.1752
5046.595703 82.953 -24.0284
5083.165527 83.222 -23.0213
5120.000000 83.507 -22.1588
5157.101562 83.804 -21.4502
5194.472168 84.110 -20.8983
5232.113281 84.425 -20.5100
5270.027344 84.743 -20.2827
5308.216309 85.064 -20.2168
5346.681641 85.385 -20.3102
5385.426270 85.706 -20.5619
5424.451172 86.022 -20.9686
5463.758789 86.334 -21.5281
5503.351562 86.639 -22.2362
5543.230957 86.935 -23.0885
5583.399414 87.221 -24.0828
5623.859375 87.495 -25.2192
5664.611816 87.755 -26.4855
5705.660156 87.996 -27.8756
5747.005859 88.217 -29.3711
5788.650879 88.416 -30.9590
5830.597656 88.591 -32.6143
5872.848633 88.741 -34.3175
5915.405762 88.865 -36.0391
5958.271484 88.965 -37.7519
6001.447266 89.042 -39.4295
6044.936523 89.097 -41.0412
6088.740234 89.136 -42.5725
6132.861816 89.163 -43.9980
6177.303223 89.183 -45.3206
6222.066406 89.202 -46.5269
6267.154297 89.225 -47.6406
6312.568359 89.260 -48.6688
6358.312012 89.308 -49.6482
6404.386719 89.373 -50.6052
6450.795898 89.456 -51.5779
6497.541016 89.556 -52.6025
6544.625000 89.669 -53.7102
6592.049805 89.793 -54.9422
6639.818359 89.917 -56.3036
6687.933594 90.034 -57.8231
6736.396973 90.138 -59.4712
6785.211426 90.218 -61.2440
6834.379883 90.273 -63.0933
6883.904785 90.297 -64.9886
6933.788574 90.289 -66.8724
6984.033691 90.246 -68.6933
7034.642578 90.175 -70.4028
7085.618652 90.080 -71.9397
7136.963867 89.970 -73.2907
7188.681152 89.852 -74.4163
7240.773438 89.739 -75.3349
7293.243164 89.640 -76.0357
7346.092773 89.565 -76.5677
7399.325684 89.528 -76.9539
7452.944336 89.531 -77.2626
7506.951172 89.582 -77.5482
7561.350098 89.677 -77.8761
7616.142578 89.820 -78.3117
7671.332031 90.000 -78.9084
7726.921875 90.214 -79.7320
7782.914551 90.451 -80.8107
7839.312500 90.699 -82.1965
7896.119629 90.948 -83.8853
7953.337891 91.186 -85.8980
8010.971191 91.407 -88.2100
8069.021973 91.600 -90.8183
8127.493164 91.759 -93.6773
8186.388672 91.876 -96.7609
8245.710938 91.949 -100.0075
8305.461914 91.970 -103.3652
8365.647461 91.942 -106.7779
8426.267578 91.865 -110.1860
8487.328125 91.742 -113.5465
8548.831055 91.573 -116.8079
8610.779297 91.362 -119.9349
8673.176758 91.111 -122.8789
8736.026367 90.829 -125.6277
8799.331055 90.523 -128.1515
8863.094727 90.198 -130.4554
8927.320312 89.859 -132.5331
8992.010742 89.512 -134.3898
9057.170898 89.159 -136.0239
9122.802734 88.808 -137.4500
9188.910156 88.464 -138.6766
9255.497070 88.129 -139.7208
9322.566406 87.806 -140.5958
9390.121094 87.501 -141.3225
9458.166016 87.216 -141.9147
9526.704102 86.955 -142.4076
9595.738281 86.723 -142.8295
9665.273438 86.520 -143.2160
9735.311523 86.346 -143.6000
9805.857422 86.202 -144.0186
9876.915039 86.087 -144.5082
9948.487305 85.997 -145.1034
10020.578125 85.928 -145.8462
10093.191406 85.872 -146.7506
10166.331055 85.823 -147.8463
10240.000000 85.772 -149.1287
10314.203125 85.713 -150.6119
10388.944336 85.637 -152.2697
10464.226562 85.537 -154.0958
10540.054688 85.406 -156.0431
10616.432617 85.238 -158.0864
10693.363281 85.027 -160.1547
10770.852539 84.768 -162.1992
10848.902344 84.460 -164.1300
10927.517578 84.098 -165.8654
11006.703125 83.691 -167.3319
11086.461914 83.241 -168.4418
11166.798828 82.761 -169.1552
11247.718750 82.256 -169.3998
11329.223633 81.748 -169.1863
11411.320312 81.251 -168.4730
11494.011719 80.793 -167.3481
11577.301758 80.404 -165.8413
11661.195312 80.095 -164.0882
11745.697266 79.892 -162.1883
11830.811523 79.791 -160.2811
11916.542969 79.804 -158.5015
12002.894531 79.910 -156.9636
12089.873047 80.101 -155.8113
12177.480469 80.347 -155.0907
12265.723633 80.622 -154.9046
12354.606445 80.904 -155.2259
12444.132812 81.172 -156.0852
12534.308594 81.413 -157.4087
12625.136719 81.607 -159.1668
12716.624023 81.751 -161.2562
12808.773438 81.833 -163.5942
12901.591797 81.857 -166.0876
12995.082031 81.821 -168.6364
13089.250000 81.731 -171.1784
13184.099609 81.590 -173.6270
13279.636719 81.408 -175.9554
13375.867188 81.190 -178.1065
13472.793945 80.946 179.9147
13570.422852 80.686 178.1301
13668.759766 80.415 176.5161
13767.809570 80.142 175.0623
13867.577148 79.868 173.7512
13968.067383 79.595 172.5654
14069.285156 79.327 171.4938
14171.237305 79.066 170.5240
14273.927734 78.813 169.6434
14377.362305 78.570 168.8419
14481.546875 78.338 168.0997
14586.486328 78.120 167.4041
14692.185547 77.916 166.7249
14798.651367 77.731 166.0392
14905.888672 77.563 165.3134
15013.902344 77.412 164.5119
15122.700195 77.273 163.6184
15232.285156 77.139 162.6018
15342.664062 77.006 161.4712
15453.843750 76.865 160.2165
15565.829102 76.713 158.8646
15678.625000 76.542 157.4308
15792.239258 76.352 155.9402
15906.675781 76.142 154.4184
16021.942383 75.912 152.8784
16138.043945 75.662 151.3403
16254.986328 75.392 149.8079
16372.777344 75.104 148.2845
16491.421875 74.795 146.7912
16610.923828 74.461 145.3342
16731.294922 74.101 143.9617
16852.535156 73.712 142.7025
16974.656250 73.292 141.6219
17097.662109 72.836 140.7705
17221.558594 72.349 140.2223
17346.353516 71.828 140.0629
17472.052734 71.295 140.3082
17598.662109 70.763 141.0304
17726.189453 70.258 142.1454
17854.640625 69.807 143.6411
17984.021484 69.426 145.3709
18114.341797 69.142 147.2368
18245.605469 68.953 149.0798
18377.820312 68.876 150.7416
18510.994141 68.879 152.1220
18645.132812 68.943 153.0642
18780.242188 69.037 153.5804
18916.332031 69.131 153.5973
19053.408203 69.207 153.2182
19191.476562 69.237 152.4816
19330.546875 69.222 151.5107
19470.623047 69.153 150.4147
19611.714844 69.036 149.2764
19753.830078 68.871 148.2071
19896.974609 68.673 147.2296
