* Measurement data measured by REW V5.20.13
* Source: EQ window target shape
* Format: 
* Dated: Apr 13, 2023 7:36:40 PM
* REW Settings:
*  C-weighting compensation: Off
*  Target level: 75.0 dB
* Note: ; 
* Measurement: Listener 5128 to 711
* Smoothing: 1/48 octave
* Frequency Step: 1/96 octave
* Start Frequency: 20.000 Hz
*
* Freq(Hz) SPL(dB)
20.000000 55.495
20.144928 55.503
20.290907 55.512
20.437943 55.522
20.586044 55.533
20.735220 55.544
20.885475 55.555
21.036821 55.565
21.189262 55.575
21.342808 55.585
21.497467 55.594
21.653246 55.603
21.810154 55.612
21.968201 55.621
22.127390 55.630
22.287735 55.638
22.449242 55.647
22.611917 55.656
22.775772 55.664
22.940815 55.673
23.107054 55.682
23.274498 55.691
23.443153 55.699
23.613033 55.708
23.784142 55.716
23.956491 55.725
24.130091 55.733
24.304947 55.742
24.481071 55.750
24.658470 55.758
24.837156 55.767
25.017136 55.776
25.198421 55.784
25.381020 55.792
25.564941 55.801
25.750195 55.810
25.936790 55.818
26.124741 55.826
26.314051 55.835
26.504732 55.843
26.696796 55.852
26.890253 55.861
27.085112 55.869
27.281382 55.877
27.479073 55.885
27.678198 55.894
27.878765 55.902
28.080786 55.911
28.284271 55.919
28.489231 55.927
28.695675 55.936
28.903616 55.944
29.113064 55.953
29.324028 55.961
29.536524 55.969
29.750557 55.978
29.966141 55.986
30.183289 55.995
30.402010 56.003
30.622314 56.012
30.844217 56.020
31.067726 56.028
31.292856 56.037
31.519617 56.046
31.748020 56.054
31.978081 56.062
32.209808 56.070
32.443211 56.078
32.678310 56.087
32.915108 56.095
33.153625 56.104
33.393871 56.112
33.635857 56.121
33.879597 56.129
34.125103 56.137
34.372387 56.145
34.621464 56.153
34.872345 56.162
35.125042 56.170
35.379574 56.178
35.635948 56.186
35.894180 56.194
36.154285 56.201
36.416275 56.209
36.680161 56.216
36.945961 56.223
37.213688 56.230
37.483353 56.237
37.754974 56.243
38.028561 56.249
38.304131 56.255
38.581699 56.261
38.861279 56.266
39.142883 56.272
39.426529 56.277
39.712231 56.283
40.000000 56.288
40.289856 56.293
40.581814 56.298
40.875885 56.303
41.172089 56.307
41.470440 56.312
41.770950 56.316
42.073643 56.320
42.378525 56.325
42.685616 56.329
42.994934 56.333
43.306492 56.338
43.620308 56.342
43.936401 56.347
44.254780 56.351
44.575470 56.357
44.898483 56.362
45.223835 56.367
45.551544 56.373
45.881630 56.379
46.214108 56.385
46.548996 56.392
46.886307 56.399
47.226067 56.406
47.568283 56.412
47.912983 56.419
48.260181 56.426
48.609894 56.432
48.962143 56.439
49.316940 56.445
49.674313 56.452
50.034271 56.458
50.396843 56.464
50.762039 56.470
51.129883 56.476
51.500389 56.483
51.873581 56.489
52.249481 56.495
52.628101 56.500
53.009464 56.506
53.393593 56.511
53.780506 56.516
54.170223 56.522
54.562763 56.527
54.958145 56.532
55.356396 56.537
55.757530 56.541
56.161572 56.546
56.568542 56.550
56.978462 56.555
57.391350 56.559
57.807232 56.564
58.226128 56.568
58.648056 56.573
59.073048 56.577
59.501114 56.582
59.932281 56.586
60.366577 56.591
60.804020 56.596
61.244629 56.601
61.688435 56.606
62.135452 56.611
62.585712 56.616
63.039234 56.622
63.496040 56.627
63.956161 56.633
64.419617 56.638
64.886421 56.643
65.356621 56.649
65.830215 56.654
66.307251 56.660
66.787743 56.666
67.271713 56.671
67.759193 56.678
68.250206 56.683
68.744774 56.689
69.242928 56.694
69.744690 56.700
70.250084 56.706
70.759148 56.712
71.271896 56.718
71.788361 56.724
72.308571 56.729
72.832550 56.734
73.360321 56.739
73.891922 56.744
74.427376 56.748
74.966705 56.754
75.509949 56.758
76.057121 56.763
76.608261 56.768
77.163399 56.772
77.722557 56.777
78.285767 56.781
78.853058 56.786
79.424461 56.790
80.000000 56.794
80.579712 56.798
81.163628 56.801
81.751770 56.804
82.344177 56.808
82.940880 56.811
83.541901 56.814
84.147285 56.817
84.757050 56.819
85.371231 56.822
85.989868 56.824
86.612984 56.826
87.240616 56.828
87.872803 56.831
88.509560 56.833
89.150940 56.835
89.796967 56.838
90.447670 56.841
91.103088 56.844
91.763260 56.847
92.428215 56.850
93.097992 56.853
93.772614 56.856
94.452133 56.860
95.136566 56.864
95.825966 56.867
96.520363 56.871
97.219788 56.875
97.924286 56.879
98.633881 56.883
99.348625 56.887
100.068542 56.891
100.793686 56.895
101.524078 56.899
102.259766 56.903
103.000778 56.907
103.747162 56.911
104.498962 56.914
105.256203 56.917
106.018929 56.920
106.787186 56.923
107.561012 56.926
108.340446 56.929
109.125526 56.932
109.916290 56.934
110.712791 56.936
111.515060 56.938
112.323143 56.940
113.137085 56.942
113.956924 56.944
114.782700 56.946
115.614464 56.947
116.452255 56.949
117.296112 56.950
118.146095 56.952
119.002228 56.953
119.864563 56.955
120.733154 56.956
121.608040 56.957
122.489258 56.958
123.376869 56.959
124.270905 56.960
125.171425 56.961
126.078468 56.961
126.992081 56.961
127.912323 56.962
128.839233 56.962
129.772842 56.962
130.713242 56.962
131.660431 56.962
132.614502 56.962
133.575485 56.962
134.543427 56.962
135.518387 56.962
136.500412 56.962
137.489548 56.962
138.485855 56.962
139.489380 56.962
140.500168 56.962
141.518295 56.962
142.543793 56.962
143.576721 56.962
144.617142 56.961
145.665100 56.961
146.720642 56.960
147.783844 56.959
148.854752 56.959
149.933411 56.958
151.019897 56.958
152.114243 56.958
153.216522 56.958
154.326797 56.957
155.445114 56.957
156.571533 56.957
157.706116 56.956
158.848923 56.956
160.000000 56.956
161.159424 56.956
162.327255 56.955
163.503540 56.955
164.688354 56.955
165.881760 56.955
167.083801 56.955
168.294571 56.955
169.514099 56.955
170.742462 56.955
171.979736 56.955
173.225967 56.956
174.481232 56.956
175.745605 56.957
177.019119 56.957
178.301880 56.958
179.593933 56.960
180.895340 56.961
182.206177 56.962
183.526520 56.963
184.856430 56.964
186.195984 56.966
187.545227 56.968
188.904266 56.970
190.273132 56.971
191.651932 56.973
193.040726 56.976
194.439575 56.978
195.848572 56.980
197.267761 56.981
198.697250 56.984
200.137085 56.986
201.587372 56.989
203.048157 56.991
204.519531 56.994
206.001556 56.998
207.494324 57.001
208.997925 57.004
210.512405 57.008
212.037857 57.012
213.574371 57.016
215.122025 57.021
216.680893 57.026
218.251053 57.031
219.832581 57.037
221.425583 57.043
223.030121 57.050
224.646286 57.057
226.274170 57.064
227.913849 57.072
229.565399 57.080
231.228928 57.089
232.904510 57.098
234.592224 57.107
236.292191 57.116
238.004456 57.126
239.729126 57.135
241.466309 57.146
243.216080 57.156
244.978516 57.166
246.753738 57.176
248.541809 57.187
250.342850 57.198
252.156937 57.208
253.984161 57.219
255.824646 57.230
257.678467 57.241
259.545685 57.253
261.426483 57.265
263.320862 57.277
265.229004 57.288
267.150970 57.300
269.086853 57.312
271.036774 57.324
273.000824 57.337
274.979095 57.349
276.971710 57.362
278.978760 57.374
281.000336 57.387
283.036591 57.400
285.087585 57.412
287.153442 57.426
289.234283 57.439
291.330200 57.453
293.441284 57.466
295.567688 57.480
297.709503 57.494
299.866821 57.507
302.039795 57.521
304.228485 57.535
306.433044 57.550
308.653595 57.564
310.890228 57.578
313.143066 57.592
315.412231 57.607
317.697845 57.621
320.000000 57.636
322.318848 57.651
324.654510 57.665
327.007080 57.679
329.376709 57.694
331.763519 57.708
334.167603 57.722
336.589142 57.737
339.028198 57.752
341.484924 57.766
343.959473 57.780
346.451935 57.795
348.962463 57.809
351.491211 57.823
354.038239 57.837
356.603760 57.850
359.187866 57.863
361.790680 57.875
364.412354 57.888
367.053040 57.900
369.712860 57.911
372.391968 57.922
375.090454 57.932
377.808533 57.941
380.546265 57.950
383.303864 57.958
386.081451 57.966
388.879150 57.972
391.697144 57.977
394.535522 57.983
397.394501 57.987
400.274170 57.991
403.174744 57.993
406.096313 57.995
409.039062 57.995
412.003113 57.996
414.988647 57.995
417.995850 57.994
421.024811 57.992
424.075714 57.990
427.148743 57.987
430.244049 57.983
433.361786 57.979
436.502106 57.975
439.665161 57.971
442.851166 57.966
446.060242 57.961
449.292572 57.957
452.548340 57.952
455.827698 57.946
459.130798 57.941
462.457855 57.936
465.809021 57.931
469.184448 57.926
472.584381 57.920
476.008911 57.915
479.458252 57.910
482.932617 57.906
486.432159 57.901
489.957031 57.895
493.507477 57.889
497.083618 57.883
500.685699 57.877
504.313873 57.871
507.968323 57.864
511.649292 57.856
515.356934 57.849
519.091370 57.841
522.852966 57.833
526.641724 57.826
530.458008 57.818
534.301941 57.811
538.173706 57.803
542.073547 57.796
546.001648 57.789
549.958191 57.782
553.943420 57.775
557.957520 57.769
562.000671 57.762
566.073181 57.755
570.175171 57.748
574.306885 57.741
578.468567 57.734
582.660400 57.727
586.882568 57.720
591.135376 57.713
595.419006 57.706
599.733643 57.699
604.079590 57.692
608.456970 57.685
612.866089 57.679
617.307190 57.672
621.780457 57.665
626.286133 57.659
630.824463 57.652
635.395691 57.645
640.000000 57.639
644.637695 57.632
649.309021 57.625
654.014160 57.619
658.753418 57.612
663.527039 57.605
668.335205 57.598
673.178284 57.591
678.056396 57.584
682.969849 57.577
687.918945 57.569
692.903870 57.561
697.924927 57.553
702.982422 57.546
708.076477 57.538
713.207520 57.530
718.375732 57.521
723.581360 57.513
728.824707 57.505
734.106079 57.496
739.425720 57.487
744.783936 57.478
750.180908 57.468
755.617065 57.459
761.092529 57.449
766.607727 57.439
772.162903 57.429
777.758301 57.419
783.394287 57.408
789.071045 57.397
794.789001 57.386
800.548340 57.376
806.349487 57.364
812.192627 57.353
818.078125 57.342
824.006226 57.331
829.977295 57.320
835.991699 57.309
842.049622 57.299
848.151428 57.288
854.297485 57.278
860.488098 57.269
866.723572 57.260
873.004211 57.252
879.330322 57.245
885.702332 57.238
892.120483 57.233
898.585144 57.229
905.096680 57.227
911.655396 57.225
918.261597 57.227
924.915710 57.228
931.618042 57.234
938.368896 57.239
945.168762 57.247
952.017822 57.256
958.916504 57.269
965.865234 57.283
972.864319 57.298
979.914062 57.317
987.014954 57.338
994.167236 57.362
1001.371399 57.387
1008.627747 57.416
1015.936646 57.446
1023.298584 57.480
1030.713867 57.515
1038.182739 57.555
1045.705933 57.595
1053.283447 57.638
1060.916016 57.683
1068.603882 57.731
1076.347412 57.780
1084.147095 57.832
1092.003296 57.885
1099.916382 57.941
1107.886841 57.997
1115.915039 58.056
1124.001343 58.116
1132.146362 58.177
1140.350342 58.239
1148.613770 58.302
1156.937134 58.366
1165.320801 58.431
1173.765137 58.496
1182.270752 58.561
1190.838013 58.627
1199.467285 58.693
1208.159180 58.758
1216.913940 58.824
1225.732178 58.889
1234.614380 58.954
1243.560913 59.018
1252.572266 59.082
1261.648926 59.146
1270.791382 59.208
1280.000000 59.271
1289.275391 59.332
1298.618042 59.392
1308.028320 59.453
1317.506836 59.514
1327.054077 59.573
1336.670410 59.633
1346.356567 59.691
1356.112793 59.749
1365.939697 59.807
1375.837891 59.864
1385.807739 59.920
1395.849854 59.976
1405.964844 60.032
1416.152954 60.088
1426.415039 60.144
1436.751465 60.200
1447.162720 60.256
1457.649414 60.312
1468.212158 60.368
1478.851440 60.424
1489.567871 60.480
1500.361816 60.537
1511.234131 60.594
1522.185059 60.652
1533.215454 60.710
1544.325806 60.768
1555.516602 60.828
1566.788574 60.888
1578.142090 60.949
1589.578003 61.011
1601.096680 61.073
1612.698975 61.137
1624.385254 61.202
1636.156250 61.268
1648.012451 61.335
1659.954590 61.404
1671.983398 61.473
1684.099243 61.543
1696.302856 61.614
1708.594971 61.687
1720.976196 61.761
1733.447144 61.836
1746.008423 61.912
1758.660645 61.990
1771.404663 62.069
1784.240967 62.149
1797.170288 62.231
1810.193359 62.315
1823.310791 62.399
1836.523193 62.485
1849.831421 62.572
1863.236084 62.662
1876.737793 62.753
1890.337524 62.845
1904.035645 62.938
1917.833008 63.033
1931.730469 63.130
1945.728638 63.228
1959.828125 63.328
1974.029907 63.429
1988.334473 63.532
2002.742798 63.636
2017.255493 63.742
2031.873291 63.848
2046.597168 63.956
2061.427734 64.065
2076.365479 64.176
2091.411865 64.288
2106.566895 64.401
2121.832031 64.515
2137.207764 64.630
2152.694824 64.747
2168.294189 64.864
2184.006592 64.981
2199.832764 65.100
2215.773682 65.221
2231.830078 65.341
2248.002686 65.462
2264.292725 65.584
2280.700684 65.706
2297.227539 65.829
2313.874268 65.952
2330.641602 66.076
2347.530273 66.199
2364.541504 66.322
2381.676025 66.445
2398.934570 66.567
2416.318359 66.689
2433.827881 66.810
2451.464355 66.929
2469.228760 67.049
2487.121826 67.166
2505.144531 67.282
2523.297852 67.396
2541.582764 67.509
2560.000000 67.619
2578.550781 67.729
2597.236084 67.833
2616.056641 67.937
2635.013672 68.036
2654.108154 68.134
2673.340820 68.227
2692.713135 68.318
2712.225586 68.404
2731.879395 68.484
2751.675781 68.562
2771.615479 68.634
2791.699707 68.703
2811.929688 68.764
2832.305908 68.820
2852.830078 68.874
2873.502930 68.916
2894.325439 68.957
2915.298828 68.986
2936.424316 69.011
2957.702881 69.029
2979.135742 69.037
3000.723633 69.045
3022.468262 69.038
3044.370117 69.030
3066.430908 69.013
3088.651611 68.987
3111.033203 68.960
3133.577148 68.923
3156.284180 68.884
3179.156006 68.839
3202.193359 68.793
3225.397949 68.740
3248.770508 68.687
3272.312500 68.627
3296.024902 68.567
3319.909180 68.503
3343.966797 68.437
3368.198486 68.369
3392.605713 68.299
3417.189941 68.227
3441.952393 68.153
3466.894287 68.078
3492.016846 68.001
3517.321289 67.924
3542.809326 67.846
3568.481934 67.766
3594.340576 67.685
3620.386719 67.604
3646.621582 67.523
3673.046387 67.441
3699.662842 67.358
3726.472168 67.276
3753.475586 67.194
3780.675049 67.112
3808.071289 67.030
3835.666016 66.948
3863.460938 66.867
3891.457275 66.787
3919.656250 66.708
3948.059814 66.629
3976.668945 66.553
4005.485596 66.477
4034.510986 66.403
4063.746582 66.330
4093.194336 66.260
4122.855469 66.190
4152.730957 66.124
4182.823730 66.059
4213.133789 65.997
4243.664062 65.936
4274.415527 65.878
4305.389648 65.822
4336.588379 65.769
4368.013184 65.718
4399.665527 65.670
4431.547363 65.623
4463.660156 65.579
4496.005371 65.537
4528.585449 65.497
4561.401367 65.458
4594.455078 65.421
4627.748535 65.385
4661.283203 65.350
4695.060547 65.315
4729.083008 65.282
4763.352051 65.249
4797.869141 65.215
4832.636719 65.181
4867.655762 65.147
4902.928711 65.111
4938.457520 65.074
4974.243652 65.034
5010.289062 64.993
5046.595703 64.948
5083.165527 64.903
5120.000000 64.852
5157.101562 64.800
5194.472168 64.743
5232.113281 64.683
5270.027344 64.617
5308.216309 64.550
5346.681641 64.475
5385.426270 64.399
5424.451172 64.315
5463.758789 64.228
5503.351562 64.134
5543.230957 64.036
5583.399414 63.934
5623.859375 63.827
5664.611816 63.716
5705.660156 63.604
5747.005859 63.486
5788.650879 63.368
5830.597656 63.247
5872.848633 63.125
5915.405762 63.004
5958.271484 62.883
6001.447266 62.763
6044.936523 62.647
6088.740234 62.533
6132.861816 62.424
6177.303223 62.322
6222.066406 62.224
6267.154297 62.137
6312.568359 62.055
6358.312012 61.984
6404.386719 61.916
6450.795898 61.865
6497.541016 61.814
6544.625000 61.784
6592.049805 61.755
6639.818359 61.747
6687.933594 61.743
6736.396973 61.760
6785.211426 61.785
6834.379883 61.832
6883.904785 61.889
6933.788574 61.970
6984.033691 62.062
7034.642578 62.178
7085.618652 62.305
7136.963867 62.455
7188.681152 62.615
7240.773438 62.795
7293.243164 62.981
7346.092773 63.184
7399.325684 63.389
7452.944336 63.605
7506.951172 63.820
7561.350098 64.034
7616.142578 64.248
7671.332031 64.442
7726.921875 64.634
7782.914551 64.800
7839.312500 64.947
7896.119629 65.074
7953.337891 65.151
8010.971191 65.212
8069.021973 65.205
8127.493164 65.186
8186.388672 65.086
8245.710938 64.986
8305.461914 64.806
8365.647461 64.619
8426.267578 64.383
8487.328125 64.131
8548.831055 63.843
8610.779297 63.545
8673.176758 63.220
8736.026367 62.891
8799.331055 62.547
8863.094727 62.197
8927.320312 61.839
8992.010742 61.481
9057.170898 61.120
9122.802734 60.759
9188.910156 60.402
9255.497070 60.046
9322.566406 59.700
9390.121094 59.357
9458.166016 59.029
9526.704102 58.709
9595.738281 58.401
9665.273438 58.110
9735.311523 57.827
9805.857422 57.564
9876.915039 57.306
9948.487305 57.072
10020.578125 56.844
10093.191406 56.632
10166.331055 56.424
10240.000000 56.230
10314.203125 56.039
10388.944336 55.857
10464.226562 55.678
10540.054688 55.504
10616.432617 55.330
10693.363281 55.160
10770.852539 54.991
10848.902344 54.825
10927.517578 54.659
11006.703125 54.497
11086.461914 54.337
11166.798828 54.181
11247.718750 54.033
11329.223633 53.890
11411.320312 53.753
11494.011719 53.626
11577.301758 53.521
11661.195312 53.418
11745.697266 53.321
11830.811523 53.251
11916.542969 53.197
12002.894531 53.143
12089.873047 53.099
12177.480469 53.074
12265.723633 53.068
12354.606445 53.070
12444.132812 53.077
12534.308594 53.100
12625.136719 53.130
12716.624023 53.168
12808.773438 53.210
12901.591797 53.259
12995.082031 53.309
13089.250000 53.358
13184.099609 53.408
13279.636719 53.458
13375.867188 53.508
13472.793945 53.554
13570.422852 53.600
13668.759766 53.642
13767.809570 53.682
13867.577148 53.718
13968.067383 53.751
14069.285156 53.779
14171.237305 53.805
14273.927734 53.830
14377.362305 53.853
14481.546875 53.874
14586.486328 53.894
14692.185547 53.914
14798.651367 53.936
14905.888672 53.960
15013.902344 53.985
15122.700195 54.016
15232.285156 54.047
15342.664062 54.088
15453.843750 54.131
15565.829102 54.180
15678.625000 54.234
15792.239258 54.291
15906.675781 54.354
16021.942383 54.418
16138.043945 54.487
16254.986328 54.556
16372.777344 54.627
16491.421875 54.697
16610.923828 54.764
16731.294922 54.832
16852.535156 54.892
16974.656250 54.951
17097.662109 55.001
17221.558594 55.048
17346.353516 55.084
17472.052734 55.117
17598.662109 55.137
17726.189453 55.153
17854.640625 55.153
17984.021484 55.150
18114.341797 55.130
18245.605469 55.107
18377.820312 55.065
18510.994141 55.021
18645.132812 54.959
18780.242188 54.891
18916.332031 54.805
19053.408203 54.703
19191.476562 54.578
19330.546875 54.413
19470.623047 54.218
19611.714844 53.974
19753.830078 53.721
19896.974609 53.572
